# scan = 85
# date = 9/11/2024
# time = 8:42:44 PM
# proposal = 34735
# experiment = Magnons and paramagnon coupling in MnTe
# experiment_number = 813
# command = scan h 1.125 k 0.0 l 1.125 e 35 5.0 0.25 ef 14.7 preset mcu 60
# builtin_command = scan h 1.125 k 0.0 l 1.125 e 35 5.0 0.25 ef 14.7 preset mcu 60
# users = Benjamin Frandsen, Songxue Chi, George Yumnam, Huibo Cao, Michael Manley, Raphael Hermann, Eleanor Clements
# local_contact = Eleanor Clements
# scan_title = H0L scans along (101) to (1.5, 0, 1.5) at H/L = 1.125, mcu = 60
# monochromator = PG002
# analyzer = Pg002
# sense = -+-
# collimation = 48-40-40-120
# samplename = MnTe
# sampletype = crystal
# samplemosaic = 30.000000
# latticeconstants = 4.128474,4.128474,6.651507,90.000000,90.000000,120.000000
# ubmatrix = -0.000328,-0.004396,-0.150319,-0.279308,-0.152332,0.000314,-0.014647,0.234528,-0.002614
# mode = 0
# plane_normal = -0.017470,-0.052341,0.998476
# ubconf = UB09Sep2024_43441PM.ini
# preset_type = normal 
# preset_channel = mcu
# preset_value = 60.000000
# def_x = e
# def_y = detector
# col_headers = 
#   Pt.          h          k          l          e         ef       time   detector    monitor        mcu focal_length         m1         m2   mcrystal       marc     mtrans     mfocus       ampl         dc       freq     output       temp     temp_2         s1         s2        sgl        sgu        bbb        bbl        bbr        bbt        bab        bal        bar        bat        stl        stu         a1         a2          q         ei   ampl_out output_state        vti     sample
      1     1.1251     0.0000     1.1248    35.0027    14.7000     49.743     39.000 150721.000     60.000    36.3279   -20.0773   -22.0450   120.0962    -0.1480    -3.0001   -65.9790     0.0000     0.0000     0.0000     1.0000     5.0000   300.0000    24.2279     3.4475     1.0010    -2.9998     9.0000    10.0000     5.0000    14.0000    16.0000     5.0000    10.0000    16.0000    -0.0005     0.0005   159.4167   -41.1662     2.2446    49.7027     2.0000     1.0000     5.0003     0.000
      2     1.1250     0.0000     1.1250    34.7500    14.7000     48.458      7.000 150721.000     60.000    36.4196   -20.0773   -22.1020   120.0962    -0.1480    -3.0001   -65.7959     0.0000     0.0000     0.0000     1.0000     5.0000   300.0000    22.2920     5.0820     1.0010    -2.9998     9.0000    10.0000     5.0000    14.0000    16.0000     5.0000    10.0000    16.0000    -0.0005     0.0005   159.4167   -41.1662     2.2445    49.4500     2.0000     1.0000     5.0006     0.000
      3     1.1250     0.0000     1.1251    34.5003    14.7000     48.079      6.000 150721.000     60.000    36.5121   -20.0773   -22.1587   120.0962    -0.1480    -3.0001   -65.6125     0.0000     0.0000     0.0000     1.0000     5.0000   300.0000    20.8358     6.3082     1.0010    -2.9998     9.0000    10.0000     5.0000    14.0000    16.0000     5.0000    10.0000    16.0000    -0.0005     0.0005   159.4167   -41.1662     2.2446    49.2003     2.0000     1.0000     5.0000     0.000
      4     1.1249     0.0000     1.1250    34.2487    14.7000     47.301      6.000 150721.000     60.000    36.6052   -20.0773   -22.2163   120.0962    -0.1480    -3.0001   -65.4288     0.0000     0.0000     0.0000     1.0000     5.0000   300.0000    19.6158     7.3338     1.0010    -2.9998     9.0000    10.0000     5.0000    14.0000    16.0000     5.0000    10.0000    16.0000    -0.0005     0.0005   159.4167   -41.1662     2.2445    48.9487     2.0000     1.0000     5.0004     0.000
      5     1.1250     0.0000     1.1250    33.9997    14.7000     46.882      8.000 150721.000     60.000    36.6990   -20.0773   -22.2737   120.0962    -0.1480    -3.0001   -65.2446     0.0000     0.0000     0.0000     1.0000     5.0000   300.0000    18.5428     8.2342     1.0010    -2.9998     9.0000    10.0000     5.0000    14.0000    16.0000     5.0000    10.0000    16.0000    -0.0005     0.0005   159.4167   -41.1662     2.2445    48.6997     2.0000     1.0000     4.9987     0.000
      6     1.1250     0.0000     1.1250    33.7509    14.7000     46.554      2.000 150721.000     60.000    36.7936   -20.0773   -22.3316   120.0962    -0.1480    -3.0001   -65.0601     0.0000     0.0000     0.0000     1.0000     5.0000   300.0000    17.5721     9.0475     1.0010    -2.9998     9.0000    10.0000     5.0000    14.0000    16.0000     5.0000    10.0000    16.0000    -0.0005     0.0005   159.4167   -41.1662     2.2446    48.4509     2.0000     1.0000     5.0005     0.000
      7     1.1250     0.0000     1.1250    33.5002    14.7000     46.242      4.000 150721.000     60.000    36.8889   -20.0773   -22.3903   120.0962    -0.1480    -3.0001   -64.8752     0.0000     0.0000     0.0000     1.0000     5.0000   300.0000    16.6790     9.7952     1.0010    -2.9998     9.0000    10.0000     5.0000    14.0000    16.0000     5.0000    10.0000    16.0000    -0.0005     0.0005   159.4167   -41.1662     2.2445    48.2002     2.0000     1.0000     4.9993     0.000
      8     1.1250     0.0000     1.1250    33.2499    14.7000     46.153      7.000 150721.000     60.000    36.9849   -20.0773   -22.4494   120.0962    -0.1480    -3.0001   -64.6899     0.0000     0.0000     0.0000     1.0000     5.0000   300.0000    15.8461    10.4922     1.0010    -2.9998     9.0000    10.0000     5.0000    14.0000    16.0000     5.0000    10.0000    16.0000    -0.0005     0.0005   159.4167   -41.1662     2.2445    47.9499     2.0000     1.0000     4.9995     0.000
      9     1.1250     0.0000     1.1251    32.9999    14.7000     45.960      9.000 150721.000     60.000    37.0817   -20.0773   -22.5090   120.0962    -0.1480    -3.0001   -64.5042     0.0000     0.0000     0.0000     1.0000     5.0000   300.0000    15.0633    11.1491     1.0010    -2.9998     9.0000    10.0000     5.0000    14.0000    16.0000     5.0000    10.0000    16.0000    -0.0005     0.0005   159.4167   -41.1662     2.2446    47.6999     2.0000     1.0000     5.0000     0.000
     10     1.1250     0.0000     1.1251    32.7489    14.7000     45.902      7.000 150721.000     60.000    37.1793   -20.0773   -22.5692   120.0962    -0.1480    -3.0001   -64.3182     0.0000     0.0000     0.0000     1.0000     5.0000   300.0000    14.3202    11.7706     1.0010    -2.9998     9.0000    10.0000     5.0000    14.0000    16.0000     5.0000    10.0000    16.0000    -0.0005     0.0005   159.4167   -41.1662     2.2445    47.4489     2.0000     1.0000     5.0003     0.000
     11     1.1250     0.0000     1.1251    32.5010    14.7000     45.673      5.000 150721.000     60.000    37.2776   -20.0773   -22.6292   120.0962    -0.1480    -3.0001   -64.1317     0.0000     0.0000     0.0000     1.0000     5.0000   300.0000    13.6120    12.3611     1.0010    -2.9998     9.0000    10.0000     5.0000    14.0000    16.0000     5.0000    10.0000    16.0000    -0.0005     0.0005   159.4167   -41.1662     2.2446    47.2010     2.0000     1.0000     4.9992     0.000
     12     1.1250     0.0000     1.1250    32.2497    14.7000     45.704      7.000 150721.000     60.000    37.3767   -20.0773   -22.6905   120.0962    -0.1480    -3.0001   -63.9448     0.0000     0.0000     0.0000     1.0000     5.0000   300.0000    12.9340    12.9263     1.0010    -2.9998     9.0000    10.0000     5.0000    14.0000    16.0000     5.0000    10.0000    16.0000    -0.0005     0.0005   159.4167   -41.1662     2.2445    46.9497     2.0000     1.0000     4.9996     0.000
     13     1.1250     0.0000     1.1249    32.0000    14.7000     45.406     15.000 150721.000     60.000    37.4766   -20.0773   -22.7518   120.0962    -0.1480    -3.0001   -63.7576     0.0000     0.0000     0.0000     1.0000     5.0000   300.0000    12.2812    13.4678     1.0010    -2.9998     9.0000    10.0000     5.0000    14.0000    16.0000     5.0000    10.0000    16.0000    -0.0005     0.0005   159.4167   -41.1662     2.2445    46.7000     2.0000     1.0000     5.0001     0.000
     14     1.1250     0.0000     1.1251    31.7502    14.7000     45.464      6.000 150721.000     60.000    37.5773   -20.0773   -22.8138   120.0962    -0.1480    -3.0001   -63.5699     0.0000     0.0000     0.0000     1.0000     5.0000   300.0000    11.6526    13.9942     1.0010    -2.9998     9.0000    10.0000     5.0000    14.0000    16.0000     5.0000    10.0000    16.0000    -0.0005     0.0005   159.4167   -41.1662     2.2446    46.4502     2.0000     1.0000     5.0007     0.000
     15     1.1250     0.0000     1.1250    31.5005    14.7000     45.336     11.000 150721.000     60.000    37.6789   -20.0773   -22.8762   120.0962    -0.1480    -3.0001   -63.3819     0.0000     0.0000     0.0000     1.0000     5.0000   300.0000    11.0434    14.4995     1.0010    -2.9998     9.0000    10.0000     5.0000    14.0000    16.0000     5.0000    10.0000    16.0000    -0.0005     0.0005   159.4167   -41.1662     2.2446    46.2005     2.0000     1.0000     5.0002     0.000
     16     1.1250     0.0000     1.1251    31.2496    14.7000     45.046     11.000 150721.000     60.000    37.7812   -20.0773   -22.9394   120.0962    -0.1480    -3.0001   -63.1934     0.0000     0.0000     0.0000     1.0000     5.0000   300.0000    10.4527    14.9916     1.0010    -2.9998     9.0000    10.0000     5.0000    14.0000    16.0000     5.0000    10.0000    16.0000    -0.0005     0.0005   159.4167   -41.1662     2.2446    45.9496     2.0000     1.0000     5.0005     0.000
     17     1.1250     0.0000     1.1249    30.9992    14.7000     45.030     11.000 150721.000     60.000    37.8844   -20.0773   -23.0030   120.0962    -0.1480    -3.0001   -63.0045     0.0000     0.0000     0.0000     1.0000     5.0000   300.0000     9.8784    15.4647     1.0010    -2.9998     9.0000    10.0000     5.0000    14.0000    16.0000     5.0000    10.0000    16.0000    -0.0005     0.0005   159.4167   -41.1662     2.2445    45.6992     2.0000     1.0000     4.9999     0.000
     18     1.1250     0.0000     1.1251    30.7507    14.7000     44.823     17.000 150721.000     60.000    37.9885   -20.0773   -23.0667   120.0962    -0.1480    -3.0001   -62.8152     0.0000     0.0000     0.0000     1.0000     5.0000   300.0000     9.3194    15.9308     1.0010    -2.9998     9.0000    10.0000     5.0000    14.0000    16.0000     5.0000    10.0000    16.0000    -0.0005     0.0005   159.4167   -41.1662     2.2446    45.4507     2.0000     1.0000     4.9985     0.000
     19     1.1250     0.0000     1.1251    30.4997    14.7000     44.347     10.000 150721.000     60.000    38.0934   -20.0773   -23.1315   120.0962    -0.1480    -3.0001   -62.6255     0.0000     0.0000     0.0000     1.0000     5.0000   300.0000     8.7741    16.3842     1.0010    -2.9998     9.0000    10.0000     5.0000    14.0000    16.0000     5.0000    10.0000    16.0000    -0.0005     0.0005   159.4167   -41.1662     2.2446    45.1997     2.0000     1.0000     4.9997     0.000
     20     1.1250     0.0000     1.1250    30.2508    14.7000     44.130     20.000 150721.000     60.000    38.1992   -20.0773   -23.1963   120.0962    -0.1480    -3.0001   -62.4354     0.0000     0.0000     0.0000     1.0000     5.0000   300.0000     8.2406    16.8227     1.0010    -2.9998     9.0000    10.0000     5.0000    14.0000    16.0000     5.0000    10.0000    16.0000    -0.0005     0.0005   159.4167   -41.1662     2.2446    44.9509     2.0000     1.0000     4.9984     0.000
     21     1.1250     0.0000     1.1250    29.9995    14.7000     43.712     18.000 150721.000     60.000    38.3059   -20.0773   -23.2624   120.0962    -0.1480    -3.0001   -62.2448     0.0000     0.0000     0.0000     1.0000     5.0000   300.0000     7.7200    17.2525     1.0010    -2.9998     9.0000    10.0000     5.0000    14.0000    16.0000     5.0000    10.0000    16.0000    -0.0005     0.0005   159.4167   -41.1662     2.2445    44.6995     2.0000     1.0000     5.0003     0.000
     22     1.1250     0.0000     1.1250    29.7493    14.7000     43.600     14.000 150721.000     60.000    38.4134   -20.0773   -23.3286   120.0962    -0.1480    -3.0001   -62.0538     0.0000     0.0000     0.0000     1.0000     5.0000   300.0000     7.2089    17.6745     1.0010    -2.9998     9.0000    10.0000     5.0000    14.0000    16.0000     5.0000    10.0000    16.0000    -0.0005     0.0005   159.4167   -41.1662     2.2445    44.4493     2.0000     1.0000     5.0007     0.000
     23     1.1250     0.0000     1.1250    29.5002    14.7000     43.481      9.000 150721.000     60.000    38.5219   -20.0773   -23.3952   120.0962    -0.1480    -3.0001   -61.8623     0.0000     0.0000     0.0000     1.0000     5.0000   300.0000     6.7080    18.0867     1.0010    -2.9998     9.0000    10.0000     5.0000    14.0000    16.0000     5.0000    10.0000    16.0000    -0.0005     0.0005   159.4167   -41.1662     2.2445    44.2002     2.0000     1.0000     5.0003     0.000
     24     1.1250     0.0000     1.1250    29.2509    14.7000     43.443     20.000 150721.000     60.000    38.6313   -20.0773   -23.4624   120.0962    -0.1480    -3.0001   -61.6704     0.0000     0.0000     0.0000     1.0000     5.0000   300.0000     6.2164    18.4922     1.0010    -2.9998     9.0000    10.0000     5.0000    14.0000    16.0000     5.0000    10.0000    16.0000    -0.0005     0.0005   159.4167   -41.1662     2.2446    43.9509     2.0000     1.0000     4.9999     0.000
     25     1.1250     0.0000     1.1250    28.9994    14.7000     43.617     10.000 150721.000     60.000    38.7417   -20.0773   -23.5308   120.0962    -0.1480    -3.0001   -61.4781     0.0000     0.0000     0.0000     1.0000     5.0000   300.0000     5.7337    18.8899     1.0010    -2.9998     9.0000    10.0000     5.0000    14.0000    16.0000     5.0000    10.0000    16.0000    -0.0005     0.0005   159.4167   -41.1662     2.2445    43.6994     2.0000     1.0000     5.0006     0.000
     26     1.1250     0.0000     1.1250    28.7501    14.7000     43.373     21.000 150721.000     60.000    38.8530   -20.0773   -23.5992   120.0962    -0.1480    -3.0001   -61.2854     0.0000     0.0000     0.0000     1.0000     5.0000   300.0000     5.2584    19.2798     1.0010    -2.9998     9.0000    10.0000     5.0000    14.0000    16.0000     5.0000    10.0000    16.0000    -0.0005     0.0005   159.4167   -41.1662     2.2445    43.4502     2.0000     1.0000     5.0005     0.000
     27     1.1250     0.0000     1.1250    28.4999    14.7000     43.403      5.000 150721.000     60.000    38.9652   -20.0773   -23.6684   120.0962    -0.1480    -3.0001   -61.0922     0.0000     0.0000     0.0000     1.0000     5.0000   300.0000     4.7908    19.6635     1.0010    -2.9998     9.0000    10.0000     5.0000    14.0000    16.0000     5.0000    10.0000    16.0000    -0.0005     0.0005   159.4167   -41.1662     2.2445    43.1999     2.0000     1.0000     4.9997     0.000
     28     1.1250     0.0000     1.1250    28.2504    14.7000     43.149     14.000 150721.000     60.000    39.0785   -20.0773   -23.7380   120.0962    -0.1480    -3.0001   -60.8985     0.0000     0.0000     0.0000     1.0000     5.0000   300.0000     4.3305    20.0412     1.0010    -2.9998     9.0000    10.0000     5.0000    14.0000    16.0000     5.0000    10.0000    16.0000    -0.0005     0.0005   159.4167   -41.1662     2.2445    42.9504     2.0000     1.0000     5.0001     0.000
     29     1.1250     0.0000     1.1250    27.9997    14.7000     43.056     15.000 150721.000     60.000    39.1927   -20.0773   -23.8086   120.0962    -0.1480    -3.0001   -60.7044     0.0000     0.0000     0.0000     1.0000     5.0000   300.0000     3.8764    20.4139     1.0010    -2.9998     9.0000    10.0000     5.0000    14.0000    16.0000     5.0000    10.0000    16.0000    -0.0005     0.0005   159.4167   -41.1662     2.2445    42.6997     2.0000     1.0000     5.0011     0.000
     30     1.1250     0.0000     1.1252    27.7504    14.7000     42.954     12.000 150721.000     60.000    39.3079   -20.0773   -23.8795   120.0962    -0.1480    -3.0001   -60.5098     0.0000     0.0000     0.0000     1.0000     5.0000   300.0000     3.4290    20.7832     1.0010    -2.9998     9.0000    10.0000     5.0000    14.0000    16.0000     5.0000    10.0000    16.0000    -0.0005     0.0005   159.4167   -41.1662     2.2447    42.4504     2.0000     1.0000     5.0006     0.000
     31     1.1250     0.0000     1.1251    27.4997    14.7000     42.621     12.000 150721.000     60.000    39.4242   -20.0773   -23.9513   120.0962    -0.1480    -3.0001   -60.3147     0.0000     0.0000     0.0000     1.0000     5.0000   300.0000     2.9874    21.1420     1.0010    -2.9998     9.0000    10.0000     5.0000    14.0000    16.0000     5.0000    10.0000    16.0000    -0.0005     0.0005   159.4167   -41.1662     2.2446    42.1997     2.0000     1.0000     4.9988     0.000
     32     1.1250     0.0000     1.1250    27.2496    14.7000     42.050     10.000 150721.000     60.000    39.5415   -20.0773   -24.0237   120.0962    -0.1480    -3.0001   -60.1192     0.0000     0.0000     0.0000     1.0000     5.0000   300.0000     2.5509    21.4962     1.0010    -2.9998     9.0000    10.0000     5.0000    14.0000    16.0000     5.0000    10.0000    16.0000    -0.0005     0.0005   159.4167   -41.1662     2.2445    41.9497     2.0000     1.0000     5.0002     0.000
     33     1.1250     0.0000     1.1250    27.0008    14.7000     41.761      9.000 150721.000     60.000    39.6598   -20.0773   -24.0963   120.0962    -0.1480    -3.0001   -59.9232     0.0000     0.0000     0.0000     1.0000     5.0000   300.0000     2.1202    21.8470     1.0010    -2.9998     9.0000    10.0000     5.0000    14.0000    16.0000     5.0000    10.0000    16.0000    -0.0005     0.0005   159.4167   -41.1662     2.2445    41.7008     2.0000     1.0000     4.9995     0.000
     34     1.1250     0.0000     1.1251    26.7501    14.7000     41.152      9.000 150721.000     60.000    39.7792   -20.0773   -24.1702   120.0962    -0.1480    -3.0001   -59.7267     0.0000     0.0000     0.0000     1.0000     5.0000   300.0000     1.6943    22.1970     1.0010    -2.9998     9.0000    10.0000     5.0000    14.0000    16.0000     5.0000    10.0000    16.0000    -0.0005     0.0005   159.4167   -41.1662     2.2446    41.4501     2.0000     1.0000     5.0021     0.000
     35     1.1250     0.0000     1.1251    26.4991    14.7000     40.980     17.000 150721.000     60.000    39.8998   -20.0773   -24.2448   120.0962    -0.1480    -3.0001   -59.5297     0.0000     0.0000     0.0000     1.0000     5.0000   300.0000     1.2730    22.5397     1.0010    -2.9998     9.0000    10.0000     5.0000    14.0000    16.0000     5.0000    10.0000    16.0000    -0.0005     0.0005   159.4167   -41.1662     2.2446    41.1991     2.0000     1.0000     4.9985     0.000
     36     1.1250     0.0000     1.1249    26.2501    14.7000     40.575     11.000 150721.000     60.000    40.0214   -20.0773   -24.3195   120.0962    -0.1480    -3.0001   -59.3323     0.0000     0.0000     0.0000     1.0000     5.0000   300.0000     0.8560    22.8743     1.0010    -2.9998     9.0000    10.0000     5.0000    14.0000    16.0000     5.0000    10.0000    16.0000    -0.0005     0.0005   159.4167   -41.1662     2.2445    40.9501     2.0000     1.0000     5.0005     0.000
     37     1.1250     0.0000     1.1251    25.9999    14.7000     40.017     12.000 150721.000     60.000    40.1441   -20.0773   -24.3953   120.0962    -0.1480    -3.0001   -59.1343     0.0000     0.0000     0.0000     1.0000     5.0000   300.0000     0.4441    23.2121     1.0010    -2.9998     9.0000    10.0000     5.0000    14.0000    16.0000     5.0000    10.0000    16.0000    -0.0005     0.0005   159.4167   -41.1662     2.2446    40.6999     2.0000     1.0000     5.0012     0.000
     38     1.1250     0.0000     1.1250    25.7499    14.7000     39.486     11.000 150721.000     60.000    40.2680   -20.0773   -24.4718   120.0962    -0.1480    -3.0001   -58.9359     0.0000     0.0000     0.0000     1.0000     5.0000   300.0000     0.0354    23.5411     1.0010    -2.9998     9.0000    10.0000     5.0000    14.0000    16.0000     5.0000    10.0000    16.0000    -0.0005     0.0005   159.4167   -41.1662     2.2446    40.4499     2.0000     1.0000     4.9997     0.000
     39     1.1250     0.0000     1.1249    25.5007    14.7000     39.273      8.000 150721.000     60.000    40.3930   -20.0773   -24.5487   120.0962    -0.1480    -3.0001   -58.7370     0.0000     0.0000     0.0000     1.0000     5.0000   300.0000    -0.3691    23.8668     1.0010    -2.9998     9.0000    10.0000     5.0000    14.0000    16.0000     5.0000    10.0000    16.0000    -0.0005     0.0005   159.4167   -41.1662     2.2445    40.2007     2.0000     1.0000     5.0005     0.000
     40     1.1250     0.0000     1.1251    25.2501    14.7000     39.269      4.000 150721.000     60.000    40.5192   -20.0773   -24.6267   120.0962    -0.1480    -3.0001   -58.5375     0.0000     0.0000     0.0000     1.0000     5.0000   300.0000    -0.7696    24.1942     1.0010    -2.9998     9.0000    10.0000     5.0000    14.0000    16.0000     5.0000    10.0000    16.0000    -0.0005     0.0005   159.4167   -41.1662     2.2446    39.9501     2.0000     1.0000     5.0000     0.000
     41     1.1250     0.0000     1.1250    25.0001    14.7000     38.855     13.000 150721.000     60.000    40.6465   -20.0773   -24.7054   120.0962    -0.1480    -3.0001   -58.3375     0.0000     0.0000     0.0000     1.0000     5.0000   300.0000    -1.1671    24.5129     1.0010    -2.9998     9.0000    10.0000     5.0000    14.0000    16.0000     5.0000    10.0000    16.0000    -0.0005     0.0005   159.4167   -41.1662     2.2446    39.7001     2.0000     1.0000     4.9991     0.000
     42     1.1250     0.0000     1.1250    24.7494    14.7000     38.911     12.000 150721.000     60.000    40.7751   -20.0773   -24.7850   120.0962    -0.1480    -3.0001   -58.1370     0.0000     0.0000     0.0000     1.0000     5.0000   300.0000    -1.5613    24.8298     1.0010    -2.9998     9.0000    10.0000     5.0000    14.0000    16.0000     5.0000    10.0000    16.0000    -0.0005     0.0005   159.4167   -41.1662     2.2445    39.4494     2.0000     1.0000     5.0001     0.000
     43     1.1250     0.0000     1.1250    24.5003    14.7000     38.932      9.000 150721.000     60.000    40.9049   -20.0773   -24.8649   120.0962    -0.1480    -3.0001   -57.9360     0.0000     0.0000     0.0000     1.0000     5.0000   300.0000    -1.9520    25.1450     1.0010    -2.9998     9.0000    10.0000     5.0000    14.0000    16.0000     5.0000    10.0000    16.0000    -0.0005     0.0005   159.4167   -41.1662     2.2446    39.2003     2.0000     1.0000     5.0001     0.000
     44     1.1250     0.0000     1.1250    24.2497    14.7000     39.161     14.000 150721.000     60.000    41.0360   -20.0773   -24.9460   120.0962    -0.1480    -3.0001   -57.7345     0.0000     0.0000     0.0000     1.0000     5.0000   300.0000    -2.3397    25.4552     1.0010    -2.9998     9.0000    10.0000     5.0000    14.0000    16.0000     5.0000    10.0000    16.0000    -0.0005     0.0005   159.4167   -41.1662     2.2445    38.9497     2.0000     1.0000     5.0011     0.000
     45     1.1250     0.0000     1.1251    24.0004    14.7000     39.368     15.000 150721.000     60.000    41.1683   -20.0773   -25.0275   120.0962    -0.1480    -3.0001   -57.5324     0.0000     0.0000     0.0000     1.0000     5.0000   300.0000    -2.7246    25.7661     1.0010    -2.9998     9.0000    10.0000     5.0000    14.0000    16.0000     5.0000    10.0000    16.0000    -0.0005     0.0005   159.4167   -41.1662     2.2446    38.7004     2.0000     1.0000     4.9996     0.000
     46     1.1250     0.0000     1.1250    23.7494    14.7000     39.552     20.000 150721.000     60.000    41.3020   -20.0773   -25.1104   120.0962    -0.1480    -3.0001   -57.3298     0.0000     0.0000     0.0000     1.0000     5.0000   300.0000    -3.1065    26.0704     1.0010    -2.9998     9.0000    10.0000     5.0000    14.0000    16.0000     5.0000    10.0000    16.0000    -0.0005     0.0005   159.4167   -41.1662     2.2445    38.4495     2.0000     1.0000     4.9993     0.000
     47     1.1250     0.0000     1.1251    23.5002    14.7000     39.817     18.000 150721.000     60.000    41.4369   -20.0773   -25.1935   120.0962    -0.1480    -3.0001   -57.1267     0.0000     0.0000     0.0000     1.0000     5.0000   300.0000    -3.4861    26.3763     1.0010    -2.9998     9.0000    10.0000     5.0000    14.0000    16.0000     5.0000    10.0000    16.0000    -0.0005     0.0005   159.4167   -41.1662     2.2447    38.2002     2.0000     1.0000     5.0001     0.000
     48     1.1250     0.0000     1.1250    23.2497    14.7000     40.383     13.000 150721.000     60.000    41.5732   -20.0773   -25.2779   120.0962    -0.1480    -3.0001   -56.9230     0.0000     0.0000     0.0000     1.0000     5.0000   300.0000    -3.8629    26.6739     1.0010    -2.9998     9.0000    10.0000     5.0000    14.0000    16.0000     5.0000    10.0000    16.0000    -0.0005     0.0005   159.4167   -41.1662     2.2445    37.9497     2.0000     1.0000     4.9991     0.000
     49     1.1250     0.0000     1.1251    23.0002    14.7000     40.848     19.000 150721.000     60.000    41.7108   -20.0773   -25.3628   120.0962    -0.1480    -3.0001   -56.7188     0.0000     0.0000     0.0000     1.0000     5.0000   300.0000    -4.2373    26.9767     1.0010    -2.9998     9.0000    10.0000     5.0000    14.0000    16.0000     5.0000    10.0000    16.0000    -0.0005     0.0005   159.4167   -41.1662     2.2447    37.7002     2.0000     1.0000     5.0000     0.000
     50     1.1250     0.0000     1.1249    22.7499    14.7000     41.172     19.000 150721.000     60.000    41.8497   -20.0773   -25.4489   120.0962    -0.1480    -3.0001   -56.5140     0.0000     0.0000     0.0000     1.0000     5.0000   300.0000    -4.6096    27.2686     1.0010    -2.9998     9.0000    10.0000     5.0000    14.0000    16.0000     5.0000    10.0000    16.0000    -0.0005     0.0005   159.4167   -41.1662     2.2445    37.4499     2.0000     1.0000     5.0000     0.000
     51     1.1250     0.0000     1.1250    22.5010    14.7000     41.473     27.000 150721.000     60.000    41.9902   -20.0773   -25.5353   120.0962    -0.1480    -3.0001   -56.3086     0.0000     0.0000     0.0000     1.0000     5.0000   300.0000    -4.9795    27.5645     1.0010    -2.9998     9.0000    10.0000     5.0000    14.0000    16.0000     5.0000    10.0000    16.0000    -0.0005     0.0005   159.4167   -41.1662     2.2446    37.2010     2.0000     1.0000     5.0006     0.000
     52     1.1250     0.0000     1.1250    22.2495    14.7000     41.942     17.000 150721.000     60.000    42.1320   -20.0773   -25.6235   120.0962    -0.1480    -3.0001   -56.1026     0.0000     0.0000     0.0000     1.0000     5.0000   300.0000    -5.3470    27.8552     1.0010    -2.9998     9.0000    10.0000     5.0000    14.0000    16.0000     5.0000    10.0000    16.0000    -0.0005     0.0005   159.4167   -41.1662     2.2445    36.9495     2.0000     1.0000     5.0012     0.000
     53     1.1250     0.0000     1.1250    21.9998    14.7000     42.271     24.000 150721.000     60.000    42.2752   -20.0773   -25.7120   120.0962    -0.1480    -3.0001   -55.8961     0.0000     0.0000     0.0000     1.0000     5.0000   300.0000    -5.7133    28.1466     1.0010    -2.9998     9.0000    10.0000     5.0000    14.0000    16.0000     5.0000    10.0000    16.0000    -0.0005     0.0005   159.4167   -41.1662     2.2446    36.6998     2.0000     1.0000     5.0005     0.000
     54     1.1250     0.0000     1.1250    21.7503    14.7000     42.440     25.000 150721.000     60.000    42.4200   -20.0773   -25.8014   120.0962    -0.1480    -3.0001   -55.6890     0.0000     0.0000     0.0000     1.0000     5.0000   300.0000    -6.0766    28.4342     1.0010    -2.9998     9.0000    10.0000     5.0000    14.0000    16.0000     5.0000    10.0000    16.0000    -0.0005     0.0005   159.4167   -41.1662     2.2446    36.4503     2.0000     1.0000     5.0019     0.000
     55     1.1250     0.0000     1.1251    21.4997    14.7000     42.839     33.000 150721.000     60.000    42.5662   -20.0773   -25.8921   120.0962    -0.1480    -3.0001   -55.4813     0.0000     0.0000     0.0000     1.0000     5.0000   300.0000    -6.4389    28.7210     1.0010    -2.9998     9.0000    10.0000     5.0000    14.0000    16.0000     5.0000    10.0000    16.0000    -0.0005     0.0005   159.4167   -41.1662     2.2446    36.1997     2.0000     1.0000     5.0019     0.000
     56     1.1250     0.0000     1.1251    21.2502    14.7000     42.972     28.000 150721.000     60.000    42.7139   -20.0773   -25.9834   120.0962    -0.1480    -3.0001   -55.2730     0.0000     0.0000     0.0000     1.0000     5.0000   300.0000    -6.7991    29.0060     1.0010    -2.9998     9.0000    10.0000     5.0000    14.0000    16.0000     5.0000    10.0000    16.0000    -0.0005     0.0005   159.4167   -41.1662     2.2446    35.9502     2.0000     1.0000     5.0013     0.000
     57     1.1250     0.0000     1.1250    21.0005    14.7000     42.805     31.000 150721.000     60.000    42.8632   -20.0773   -26.0757   120.0962    -0.1480    -3.0001   -55.0642     0.0000     0.0000     0.0000     1.0000     5.0000   300.0000    -7.1571    29.2859     1.0010    -2.9998     9.0000    10.0000     5.0000    14.0000    16.0000     5.0000    10.0000    16.0000    -0.0005     0.0005   159.4167   -41.1662     2.2446    35.7005     2.0000     1.0000     5.0000     0.000
     58     1.1250     0.0000     1.1251    20.7496    14.7000     43.030     31.000 150721.000     60.000    43.0141   -20.0773   -26.1694   120.0962    -0.1480    -3.0001   -54.8546     0.0000     0.0000     0.0000     1.0000     5.0000   300.0000    -7.5146    29.5688     1.0010    -2.9998     9.0000    10.0000     5.0000    14.0000    16.0000     5.0000    10.0000    16.0000    -0.0005     0.0005   159.4167   -41.1662     2.2446    35.4496     2.0000     1.0000     4.9994     0.000
     59     1.1250     0.0000     1.1250    20.4996    14.7000     42.956     40.000 150721.000     60.000    43.1666   -20.0773   -26.2638   120.0962    -0.1480    -3.0001   -54.6446     0.0000     0.0000     0.0000     1.0000     5.0000   300.0000    -7.8696    29.8454     1.0010    -2.9998     9.0000    10.0000     5.0000    14.0000    16.0000     5.0000    10.0000    16.0000    -0.0005     0.0005   159.4167   -41.1662     2.2445    35.1996     2.0000     1.0000     4.9996     0.000
     60     1.1250     0.0000     1.1250    20.2505    14.7000     43.272     41.000 150721.000     60.000    43.3207   -20.0773   -26.3589   120.0962    -0.1480    -3.0001   -54.4338     0.0000     0.0000     0.0000     1.0000     5.0000   300.0000    -8.2238    30.1235     1.0010    -2.9998     9.0000    10.0000     5.0000    14.0000    16.0000     5.0000    10.0000    16.0000    -0.0005     0.0005   159.4167   -41.1662     2.2446    34.9505     2.0000     1.0000     4.9992     0.000
     61     1.1250     0.0000     1.1251    19.9997    14.7000     43.337     34.000 150721.000     60.000    43.4765   -20.0773   -26.4557   120.0962    -0.1480    -3.0001   -54.2224     0.0000     0.0000     0.0000     1.0000     5.0000   300.0000    -8.5760    30.4013     1.0010    -2.9998     9.0000    10.0000     5.0000    14.0000    16.0000     5.0000    10.0000    16.0000    -0.0005     0.0005   159.4167   -41.1662     2.2447    34.6997     2.0000     1.0000     5.0005     0.000
     62     1.1250     0.0000     1.1250    19.7502    14.7000     43.644     41.000 150721.000     60.000    43.6339   -20.0773   -26.5531   120.0962    -0.1480    -3.0001   -54.0105     0.0000     0.0000     0.0000     1.0000     5.0000   300.0000    -8.9271    30.6712     1.0010    -2.9998     9.0000    10.0000     5.0000    14.0000    16.0000     5.0000    10.0000    16.0000    -0.0005     0.0005   159.4167   -41.1662     2.2445    34.4502     2.0000     1.0000     5.0000     0.000
     63     1.1250     0.0000     1.1250    19.4998    14.7000     44.053     29.000 150721.000     60.000    43.7931   -20.0773   -26.6519   120.0962    -0.1480    -3.0001   -53.7978     0.0000     0.0000     0.0000     1.0000     5.0000   300.0000    -9.2773    30.9456     1.0010    -2.9998     9.0000    10.0000     5.0000    14.0000    16.0000     5.0000    10.0000    16.0000    -0.0005     0.0005   159.4167   -41.1662     2.2446    34.1998     2.0000     1.0000     5.0003     0.000
     64     1.1250     0.0000     1.1250    19.2501    14.7000     44.543     41.000 150721.000     60.000    43.9541   -20.0773   -26.7516   120.0962    -0.1480    -3.0001   -53.5845     0.0000     0.0000     0.0000     1.0000     5.0000   300.0000    -9.6260    31.2176     1.0010    -2.9998     9.0000    10.0000     5.0000    14.0000    16.0000     5.0000    10.0000    16.0000    -0.0005     0.0005   159.4167   -41.1662     2.2446    33.9501     2.0000     1.0000     4.9985     0.000
     65     1.1250     0.0000     1.1250    19.0003    14.7000     44.878     34.000 150721.000     60.000    44.1168   -20.0773   -26.8524   120.0962    -0.1480    -3.0001   -53.3706     0.0000     0.0000     0.0000     1.0000     5.0000   300.0000    -9.9738    31.4853     1.0010    -2.9998     9.0000    10.0000     5.0000    14.0000    16.0000     5.0000    10.0000    16.0000    -0.0005     0.0005   159.4167   -41.1662     2.2445    33.7003     2.0000     1.0000     4.9996     0.000
     66     1.1250     0.0000     1.1250    18.7495    14.7000     45.255     19.000 150721.000     60.000    44.2813   -20.0773   -26.9548   120.0962    -0.1480    -3.0001   -53.1560     0.0000     0.0000     0.0000     1.0000     5.0000   300.0000   -10.3196    31.7552     1.0010    -2.9998     9.0000    10.0000     5.0000    14.0000    16.0000     5.0000    10.0000    16.0000    -0.0005     0.0005   159.4167   -41.1662     2.2446    33.4495     2.0000     1.0000     5.0008     0.000
     67     1.1250     0.0000     1.1250    18.4999    14.7000     45.278     29.000 150721.000     60.000    44.4478   -20.0773   -27.0578   120.0962    -0.1480    -3.0001   -52.9407     0.0000     0.0000     0.0000     1.0000     5.0000   300.0000   -10.6653    32.0210     1.0010    -2.9998     9.0000    10.0000     5.0000    14.0000    16.0000     5.0000    10.0000    16.0000    -0.0005     0.0005   159.4167   -41.1662     2.2445    33.1999     2.0000     1.0000     5.0010     0.000
     68     1.1250     0.0000     1.1250    18.2503    14.7000     45.714     29.000 150721.000     60.000    44.6161   -20.0773   -27.1621   120.0962    -0.1480    -3.0001   -52.7248     0.0000     0.0000     0.0000     1.0000     5.0000   300.0000   -11.0098    32.2865     1.0010    -2.9998     9.0000    10.0000     5.0000    14.0000    16.0000     5.0000    10.0000    16.0000    -0.0005     0.0005   159.4167   -41.1662     2.2445    32.9503     2.0000     1.0000     5.0002     0.000
     69     1.1250     0.0000     1.1250    17.9999    14.7000     46.055     13.000 150721.000     60.000    44.7863   -20.0773   -27.2678   120.0962    -0.1480    -3.0001   -52.5081     0.0000     0.0000     0.0000     1.0000     5.0000   300.0000   -11.3536    32.5527     1.0010    -2.9998     9.0000    10.0000     5.0000    14.0000    16.0000     5.0000    10.0000    16.0000    -0.0005     0.0005   159.4167   -41.1662     2.2446    32.7000     2.0000     1.0000     4.9991     0.000
     70     1.1250     0.0000     1.1250    17.7503    14.7000     46.335     12.000 150721.000     60.000    44.9585   -20.0773   -27.3745   120.0962    -0.1480    -3.0001   -52.2908     0.0000     0.0000     0.0000     1.0000     5.0000   300.0000   -11.6959    32.8155     1.0010    -2.9998     9.0000    10.0000     5.0000    14.0000    16.0000     5.0000    10.0000    16.0000    -0.0005     0.0005   159.4167   -41.1662     2.2446    32.4504     2.0000     1.0000     5.0012     0.000
     71     1.1249     0.0000     1.1249    17.4998    14.7000     46.394     14.000 150721.000     60.000    45.1326   -20.0773   -27.4829   120.0962    -0.1480    -3.0001   -52.0728     0.0000     0.0000     0.0000     1.0000     5.0000   300.0000   -12.0378    33.0755     1.0010    -2.9998     9.0000    10.0000     5.0000    14.0000    16.0000     5.0000    10.0000    16.0000    -0.0005     0.0005   159.4167   -41.1662     2.2444    32.1999     2.0000     1.0000     4.9992     0.000
     72     1.1250     0.0000     1.1250    17.2499    14.7000     46.710      7.000 150721.000     60.000    45.3089   -20.0773   -27.5923   120.0962    -0.1480    -3.0001   -51.8540     0.0000     0.0000     0.0000     1.0000     5.0000   300.0000   -12.3793    33.3393     1.0010    -2.9998     9.0000    10.0000     5.0000    14.0000    16.0000     5.0000    10.0000    16.0000    -0.0005     0.0005   159.4167   -41.1662     2.2446    31.9499     2.0000     1.0000     5.0021     0.000
     73     1.1250     0.0000     1.1251    17.0001    14.7000     47.235      9.000 150721.000     60.000    45.4872   -20.0773   -27.7029   120.0962    -0.1480    -3.0001   -51.6345     0.0000     0.0000     0.0000     1.0000     5.0000   300.0000   -12.7194    33.6009     1.0010    -2.9998     9.0000    10.0000     5.0000    14.0000    16.0000     5.0000    10.0000    16.0000    -0.0005     0.0005   159.4167   -41.1662     2.2446    31.7001     2.0000     1.0000     5.0008     0.000
     74     1.1250     0.0000     1.1250    16.7498    14.7000     47.324     13.000 150721.000     60.000    45.6676   -20.0773   -27.8152   120.0962    -0.1480    -3.0001   -51.4143     0.0000     0.0000     0.0000     1.0000     5.0000   300.0000   -13.0591    33.8578     1.0010    -2.9998     9.0000    10.0000     5.0000    14.0000    16.0000     5.0000    10.0000    16.0000    -0.0005     0.0005   159.4167   -41.1662     2.2445    31.4498     2.0000     1.0000     4.9996     0.000
     75     1.1250     0.0000     1.1250    16.5003    14.7000     47.688     12.000 150721.000     60.000    45.8503   -20.0773   -27.9284   120.0962    -0.1480    -3.0001   -51.1934     0.0000     0.0000     0.0000     1.0000     5.0000   300.0000   -13.3983    34.1164     1.0010    -2.9998     9.0000    10.0000     5.0000    14.0000    16.0000     5.0000    10.0000    16.0000    -0.0005     0.0005   159.4167   -41.1662     2.2446    31.2003     2.0000     1.0000     4.9993     0.000
     76     1.1250     0.0000     1.1250    16.2498    14.7000     47.340     11.000 150721.000     60.000    46.0351   -20.0773   -28.0435   120.0962    -0.1480    -3.0001   -50.9717     0.0000     0.0000     0.0000     1.0000     5.0000   300.0000   -13.7368    34.3735     1.0010    -2.9998     9.0000    10.0000     5.0000    14.0000    16.0000     5.0000    10.0000    16.0000    -0.0005     0.0005   159.4167   -41.1662     2.2446    30.9498     2.0000     1.0000     5.0007     0.000
     77     1.1250     0.0000     1.1250    15.9999    14.7000     47.678      6.000 150721.000     60.000    46.2221   -20.0773   -28.1598   120.0962    -0.1480    -3.0001   -50.7492     0.0000     0.0000     0.0000     1.0000     5.0000   300.0000   -14.0749    34.6290     1.0010    -2.9998     9.0000    10.0000     5.0000    14.0000    16.0000     5.0000    10.0000    16.0000    -0.0005     0.0005   159.4167   -41.1662     2.2446    30.6999     2.0000     1.0000     5.0004     0.000
     78     1.1250     0.0000     1.1250    15.7503    14.7000     47.849     10.000 150721.000     60.000    46.4115   -20.0773   -28.2774   120.0962    -0.1480    -3.0001   -50.5260     0.0000     0.0000     0.0000     1.0000     5.0000   300.0000   -14.4125    34.8828     1.0010    -2.9998     9.0000    10.0000     5.0000    14.0000    16.0000     5.0000    10.0000    16.0000    -0.0005     0.0005   159.4167   -41.1662     2.2445    30.4503     2.0000     1.0000     4.9996     0.000
     79     1.1250     0.0000     1.1250    15.4999    14.7000     48.183      3.000 150721.000     60.000    46.6032   -20.0773   -28.3968   120.0962    -0.1480    -3.0001   -50.3021     0.0000     0.0000     0.0000     1.0000     5.0000   300.0000   -14.7496    35.1385     1.0010    -2.9998     9.0000    10.0000     5.0000    14.0000    16.0000     5.0000    10.0000    16.0000    -0.0005     0.0005   159.4167   -41.1662     2.2446    30.1999     2.0000     1.0000     5.0001     0.000
     80     1.1250     0.0000     1.1251    15.2502    14.7000     48.463      9.000 150721.000     60.000    46.7972   -20.0773   -28.5174   120.0962    -0.1480    -3.0001   -50.0773     0.0000     0.0000     0.0000     1.0000     5.0000   300.0000   -15.0864    35.3928     1.0010    -2.9998     9.0000    10.0000     5.0000    14.0000    16.0000     5.0000    10.0000    16.0000    -0.0005     0.0005   159.4167   -41.1662     2.2446    29.9502     2.0000     1.0000     4.9992     0.000
     81     1.1250     0.0000     1.1250    15.0000    14.7000     48.544      6.000 150721.000     60.000    46.9938   -20.0773   -28.6398   120.0962    -0.1480    -3.0001   -49.8518     0.0000     0.0000     0.0000     1.0000     5.0000   300.0000   -15.4230    35.6420     1.0010    -2.9998     9.0000    10.0000     5.0000    14.0000    16.0000     5.0000    10.0000    16.0000    -0.0005     0.0005   159.4167   -41.1662     2.2445    29.7000     2.0000     1.0000     5.0002     0.000
     82     1.1250     0.0000     1.1250    14.7499    14.7000     48.622      8.000 150721.000     60.000    47.1929   -20.0773   -28.7638   120.0962    -0.1480    -3.0001   -49.6254     0.0000     0.0000     0.0000     1.0000     5.0000   300.0000   -15.7592    35.8944     1.0010    -2.9998     9.0000    10.0000     5.0000    14.0000    16.0000     5.0000    10.0000    16.0000    -0.0005     0.0005   159.4167   -41.1662     2.2445    29.4500     2.0000     1.0000     4.9997     0.000
     83     1.1250     0.0000     1.1250    14.4998    14.7000     48.198     12.000 150721.000     60.000    47.3944   -20.0773   -28.8894   120.0962    -0.1480    -3.0001   -49.3982     0.0000     0.0000     0.0000     1.0000     5.0000   300.0000   -16.0946    36.1464     1.0010    -2.9998     9.0000    10.0000     5.0000    14.0000    16.0000     5.0000    10.0000    16.0000    -0.0005     0.0005   159.4167   -41.1662     2.2446    29.1998     2.0000     1.0000     4.9994     0.000
     84     1.1251     0.0000     1.1251    14.2506    14.7000     47.301      7.000 150721.000     60.000    47.5986   -20.0773   -29.0161   120.0962    -0.1480    -3.0001   -49.1702     0.0000     0.0000     0.0000     1.0000     5.0000   300.0000   -16.4306    36.3979     1.0010    -2.9998     9.0000    10.0000     5.0000    14.0000    16.0000     5.0000    10.0000    16.0000    -0.0005     0.0005   159.4167   -41.1662     2.2447    28.9507     2.0000     1.0000     5.0013     0.000
     85     1.1250     0.0000     1.1250    13.9994    14.7000     46.670     12.000 150721.000     60.000    47.8055   -20.0773   -29.1457   120.0962    -0.1480    -3.0001   -48.9414     0.0000     0.0000     0.0000     1.0000     5.0000   300.0000   -16.7661    36.6440     1.0010    -2.9998     9.0000    10.0000     5.0000    14.0000    16.0000     5.0000    10.0000    16.0000    -0.0005     0.0005   159.4167   -41.1662     2.2445    28.6994     2.0000     1.0000     4.9985     0.000
     86     1.1250     0.0000     1.1250    13.7503    14.7000     45.839     11.000 150721.000     60.000    48.0151   -20.0773   -29.2758   120.0962    -0.1480    -3.0001   -48.7117     0.0000     0.0000     0.0000     1.0000     5.0000   300.0000   -17.1016    36.8928     1.0010    -2.9998     9.0000    10.0000     5.0000    14.0000    16.0000     5.0000    10.0000    16.0000    -0.0005     0.0005   159.4167   -41.1662     2.2446    28.4503     2.0000     1.0000     4.9998     0.000
     87     1.1250     0.0000     1.1250    13.5002    14.7000     45.348      2.000 150721.000     60.000    48.2274   -20.0773   -29.4083   120.0962    -0.1480    -3.0001   -48.4811     0.0000     0.0000     0.0000     1.0000     5.0000   300.0000   -17.4370    37.1411     1.0010    -2.9998     9.0000    10.0000     5.0000    14.0000    16.0000     5.0000    10.0000    16.0000    -0.0005     0.0005   159.4167   -41.1662     2.2446    28.2002     2.0000     1.0000     4.9997     0.000
     88     1.1250     0.0000     1.1251    13.2497    14.7000     45.524      3.000 150721.000     60.000    48.4427   -20.0773   -29.5428   120.0962    -0.1480    -3.0001   -48.2497     0.0000     0.0000     0.0000     1.0000     5.0000   300.0000   -17.7722    37.3903     1.0010    -2.9998     9.0000    10.0000     5.0000    14.0000    16.0000     5.0000    10.0000    16.0000    -0.0005     0.0005   159.4167   -41.1662     2.2447    27.9497     2.0000     1.0000     5.0000     0.000
     89     1.1250     0.0000     1.1250    12.9999    14.7000     46.351      5.000 150721.000     60.000    48.6608   -20.0773   -29.6787   120.0962    -0.1480    -3.0001   -48.0174     0.0000     0.0000     0.0000     1.0000     5.0000   300.0000   -18.1075    37.6342     1.0010    -2.9998     9.0000    10.0000     5.0000    14.0000    16.0000     5.0000    10.0000    16.0000    -0.0005     0.0005   159.4167   -41.1662     2.2446    27.7000     2.0000     1.0000     4.9990     0.000
     90     1.1250     0.0000     1.1250    12.7500    14.7000     46.575      7.000 150721.000     60.000    48.8819   -20.0773   -29.8166   120.0962    -0.1480    -3.0001   -47.7842     0.0000     0.0000     0.0000     1.0000     5.0000   300.0000   -18.4430    37.8781     1.0010    -2.9998     9.0000    10.0000     5.0000    14.0000    16.0000     5.0000    10.0000    16.0000    -0.0005     0.0005   159.4167   -41.1662     2.2445    27.4500     2.0000     1.0000     5.0005     0.000
     91     1.1250     0.0000     1.1250    12.4999    14.7000     47.782     11.000 150721.000     60.000    49.1060   -20.0773   -29.9566   120.0962    -0.1480    -3.0001   -47.5501     0.0000     0.0000     0.0000     1.0000     5.0000   300.0000   -18.7786    38.1251     1.0010    -2.9998     9.0000    10.0000     5.0000    14.0000    16.0000     5.0000    10.0000    16.0000    -0.0005     0.0005   159.4167   -41.1662     2.2446    27.1999     2.0000     1.0000     5.0006     0.000
     92     1.1250     0.0000     1.1250    12.2504    14.7000     48.342     14.000 150721.000     60.000    49.3332   -20.0773   -30.0982   120.0962    -0.1480    -3.0001   -47.3151     0.0000     0.0000     0.0000     1.0000     5.0000   300.0000   -19.1140    38.3698     1.0010    -2.9998     9.0000    10.0000     5.0000    14.0000    16.0000     5.0000    10.0000    16.0000    -0.0005     0.0005   159.4167   -41.1662     2.2446    26.9504     2.0000     1.0000     5.0005     0.000
     93     1.1250     0.0000     1.1250    11.9997    14.7000     48.874      7.000 150721.000     60.000    49.5636   -20.0773   -30.2425   120.0962    -0.1480    -3.0001   -47.0791     0.0000     0.0000     0.0000     1.0000     5.0000   300.0000   -19.4495    38.6125     1.0010    -2.9998     9.0000    10.0000     5.0000    14.0000    16.0000     5.0000    10.0000    16.0000    -0.0005     0.0005   159.4167   -41.1662     2.2445    26.6997     2.0000     1.0000     4.9981     0.000
     94     1.1249     0.0000     1.1249    11.7500    14.7000     49.057      7.000 150721.000     60.000    49.7973   -20.0773   -30.3884   120.0962    -0.1480    -3.0001   -46.8422     0.0000     0.0000     0.0000     1.0000     5.0000   300.0000   -19.7856    38.8531     1.0010    -2.9998     9.0000    10.0000     5.0000    14.0000    16.0000     5.0000    10.0000    16.0000    -0.0005     0.0005   159.4167   -41.1662     2.2444    26.4500     2.0000     1.0000     4.9997     0.000
     95     1.1250     0.0000     1.1250    11.5001    14.7000     48.874      3.000 150721.000     60.000    50.0343   -20.0773   -30.5364   120.0962    -0.1480    -3.0001   -46.6044     0.0000     0.0000     0.0000     1.0000     5.0000   300.0000   -20.1220    39.0985     1.0010    -2.9998     9.0000    10.0000     5.0000    14.0000    16.0000     5.0000    10.0000    16.0000    -0.0005     0.0005   159.4167   -41.1662     2.2446    26.2001     2.0000     1.0000     4.9991     0.000
     96     1.1250     0.0000     1.1250    11.2500    14.7000     48.313      8.000 150721.000     60.000    50.2748   -20.0773   -30.6869   120.0962    -0.1480    -3.0001   -46.3655     0.0000     0.0000     0.0000     1.0000     5.0000   300.0000   -20.4588    39.3414     1.0010    -2.9998     9.0000    10.0000     5.0000    14.0000    16.0000     5.0000    10.0000    16.0000    -0.0005     0.0005   159.4167   -41.1662     2.2446    25.9500     2.0000     1.0000     4.9995     0.000
     97     1.1250     0.0000     1.1251    10.9998    14.7000     48.211      3.000 150721.000     60.000    50.5187   -20.0773   -30.8396   120.0962    -0.1480    -3.0001   -46.1257     0.0000     0.0000     0.0000     1.0000     5.0000   300.0000   -20.7952    39.5832     1.0010    -2.9998     9.0000    10.0000     5.0000    14.0000    16.0000     5.0000    10.0000    16.0000    -0.0005     0.0005   159.4167   -41.1662     2.2446    25.6998     2.0000     1.0000     5.0002     0.000
     98     1.1250     0.0000     1.1250    10.7500    14.7000     47.806      3.000 150721.000     60.000    50.7662   -20.0773   -30.9943   120.0962    -0.1480    -3.0001   -45.8849     0.0000     0.0000     0.0000     1.0000     5.0000   300.0000   -21.1326    39.8233     1.0010    -2.9998     9.0000    10.0000     5.0000    14.0000    16.0000     5.0000    10.0000    16.0000    -0.0005     0.0005   159.4167   -41.1662     2.2446    25.4501     2.0000     1.0000     4.9992     0.000
     99     1.1250     0.0000     1.1250    10.5001    14.7000     47.784      8.000 150721.000     60.000    51.0174   -20.0773   -31.1515   120.0962    -0.1480    -3.0001   -45.6430     0.0000     0.0000     0.0000     1.0000     5.0000   300.0000   -21.4705    40.0615     1.0010    -2.9998     9.0000    10.0000     5.0000    14.0000    16.0000     5.0000    10.0000    16.0000    -0.0005     0.0005   159.4167   -41.1662     2.2445    25.2001     2.0000     1.0000     4.9985     0.000
    100     1.1250     0.0000     1.1250    10.2502    14.7000     48.112      4.000 150721.000     60.000    51.2724   -20.0773   -31.3111   120.0962    -0.1480    -3.0001   -45.4002     0.0000     0.0000     0.0000     1.0000     5.0000   300.0000   -21.8087    40.3035     1.0010    -2.9998     9.0000    10.0000     5.0000    14.0000    16.0000     5.0000    10.0000    16.0000    -0.0005     0.0005   159.4167   -41.1662     2.2446    24.9502     2.0000     1.0000     4.9999     0.000
    101     1.1250     0.0000     1.1250    10.0002    14.7000     48.665      5.000 150721.000     60.000    51.5312   -20.0773   -31.4733   120.0962    -0.1480    -3.0001   -45.1562     0.0000     0.0000     0.0000     1.0000     5.0000   300.0000   -22.1471    40.5424     1.0010    -2.9998     9.0000    10.0000     5.0000    14.0000    16.0000     5.0000    10.0000    16.0000    -0.0005     0.0005   159.4167   -41.1662     2.2446    24.7002     2.0000     1.0000     5.0003     0.000
    102     1.1250     0.0000     1.1250     9.7498    14.7000     49.622      5.000 150721.000     60.000    51.7940   -20.0773   -31.6382   120.0962    -0.1480    -3.0001   -44.9112     0.0000     0.0000     0.0000     1.0000     5.0000   300.0000   -22.4866    40.7832     1.0010    -2.9998     9.0000    10.0000     5.0000    14.0000    16.0000     5.0000    10.0000    16.0000    -0.0005     0.0005   159.4167   -41.1662     2.2446    24.4498     2.0000     1.0000     5.0006     0.000
    103     1.1250     0.0000     1.1250     9.4997    14.7000     50.658      3.000 150721.000     60.000    52.0609   -20.0773   -31.8056   120.0962    -0.1480    -3.0001   -44.6652     0.0000     0.0000     0.0000     1.0000     5.0000   300.0000   -22.8265    41.0216     1.0010    -2.9998     9.0000    10.0000     5.0000    14.0000    16.0000     5.0000    10.0000    16.0000    -0.0005     0.0005   159.4167   -41.1662     2.2446    24.1997     2.0000     1.0000     4.9989     0.000
    104     1.1250     0.0000     1.1250     9.2503    14.7000     50.894      3.000 150721.000     60.000    52.3319   -20.0773   -31.9752   120.0962    -0.1480    -3.0001   -44.4180     0.0000     0.0000     0.0000     1.0000     5.0000   300.0000   -23.1670    41.2568     1.0010    -2.9998     9.0000    10.0000     5.0000    14.0000    16.0000     5.0000    10.0000    16.0000    -0.0005     0.0005   159.4167   -41.1662     2.2445    23.9503     2.0000     1.0000     4.9990     0.000
    105     1.1250     0.0000     1.1250     8.9998    14.7000     50.771      2.000 150721.000     60.000    52.6071   -20.0773   -32.1482   120.0962    -0.1480    -3.0001   -44.1697     0.0000     0.0000     0.0000     1.0000     5.0000   300.0000   -23.5085    41.4958     1.0010    -2.9998     9.0000    10.0000     5.0000    14.0000    16.0000     5.0000    10.0000    16.0000    -0.0005     0.0005   159.4167   -41.1662     2.2445    23.6998     2.0000     1.0000     5.0009     0.000
    106     1.1250     0.0000     1.1250     8.7500    14.7000     49.407      8.000 150721.000     60.000    52.8868   -20.0773   -32.3237   120.0962    -0.1480    -3.0001   -43.9203     0.0000     0.0000     0.0000     1.0000     5.0000   300.0000   -23.8501    41.7340     1.0010    -2.9998     9.0000    10.0000     5.0000    14.0000    16.0000     5.0000    10.0000    16.0000    -0.0005     0.0005   159.4167   -41.1662     2.2446    23.4500     2.0000     1.0000     5.0016     0.000
    107     1.1250     0.0000     1.1250     8.5002    14.7000     47.656      4.000 150721.000     60.000    53.1710   -20.0773   -32.5020   120.0962    -0.1480    -3.0001   -43.6697     0.0000     0.0000     0.0000     1.0000     5.0000   300.0000   -24.1934    41.9712     1.0010    -2.9998     9.0000    10.0000     5.0000    14.0000    16.0000     5.0000    10.0000    16.0000    -0.0005     0.0005   159.4167   -41.1662     2.2446    23.2002     2.0000     1.0000     5.0005     0.000
    108     1.1250     0.0000     1.1250     8.2498    14.7000     46.389      4.000 150721.000     60.000    53.4598   -20.0773   -32.6838   120.0962    -0.1480    -3.0001   -43.4180     0.0000     0.0000     0.0000     1.0000     5.0000   300.0000   -24.5366    42.2074     1.0010    -2.9998     9.0000    10.0000     5.0000    14.0000    16.0000     5.0000    10.0000    16.0000    -0.0005     0.0005   159.4167   -41.1662     2.2446    22.9498     2.0000     1.0000     5.0010     0.000
    109     1.1250     0.0000     1.1250     7.9999    14.7000     45.020      7.000 150721.000     60.000    53.7534   -20.0773   -32.8683   120.0962    -0.1480    -3.0001   -43.1651     0.0000     0.0000     0.0000     1.0000     5.0000   300.0000   -24.8813    42.4428     1.0010    -2.9998     9.0000    10.0000     5.0000    14.0000    16.0000     5.0000    10.0000    16.0000    -0.0005     0.0005   159.4167   -41.1662     2.2446    22.6999     2.0000     1.0000     5.0008     0.000
    110     1.1250     0.0000     1.1250     7.7500    14.7000     44.492      7.000 150721.000     60.000    54.0519   -20.0773   -33.0559   120.0962    -0.1480    -3.0001   -42.9109     0.0000     0.0000     0.0000     1.0000     5.0000   300.0000   -25.2267    42.6775     1.0010    -2.9998     9.0000    10.0000     5.0000    14.0000    16.0000     5.0000    10.0000    16.0000    -0.0005     0.0005   159.4167   -41.1662     2.2445    22.4500     2.0000     1.0000     4.9999     0.000
    111     1.1250     0.0000     1.1250     7.5000    14.7000     44.016      4.000 150721.000     60.000    54.3554   -20.0773   -33.2470   120.0962    -0.1480    -3.0001   -42.6556     0.0000     0.0000     0.0000     1.0000     5.0000   300.0000   -25.5735    42.9143     1.0010    -2.9998     9.0000    10.0000     5.0000    14.0000    16.0000     5.0000    10.0000    16.0000    -0.0005     0.0005   159.4167   -41.1662     2.2446    22.2000     2.0000     1.0000     5.0014     0.000
    112     1.1250     0.0000     1.1250     7.2502    14.7000     44.416      3.000 150721.000     60.000    54.6640   -20.0773   -33.4411   120.0962    -0.1480    -3.0001   -42.3989     0.0000     0.0000     0.0000     1.0000     5.0000   300.0000   -25.9206    43.1503     1.0010    -2.9998     9.0000    10.0000     5.0000    14.0000    16.0000     5.0000    10.0000    16.0000    -0.0005     0.0005   159.4167   -41.1662     2.2446    21.9502     2.0000     1.0000     4.9999     0.000
    113     1.1250     0.0000     1.1251     6.9996    14.7000     44.460      7.000 150721.000     60.000    54.9780   -20.0773   -33.6393   120.0962    -0.1480    -3.0001   -42.1410     0.0000     0.0000     0.0000     1.0000     5.0000   300.0000   -26.2695    43.3859     1.0010    -2.9998     9.0000    10.0000     5.0000    14.0000    16.0000     5.0000    10.0000    16.0000    -0.0005     0.0005   159.4167   -41.1662     2.2446    21.6996     2.0000     1.0000     5.0012     0.000
    114     1.1250     0.0000     1.1250     6.7503    14.7000     44.820      9.000 150721.000     60.000    55.2975   -20.0773   -33.8402   120.0962    -0.1480    -3.0001   -41.8818     0.0000     0.0000     0.0000     1.0000     5.0000   300.0000   -26.6194    43.6192     1.0010    -2.9998     9.0000    10.0000     5.0000    14.0000    16.0000     5.0000    10.0000    16.0000    -0.0005     0.0005   159.4167   -41.1662     2.2446    21.4503     2.0000     1.0000     5.0006     0.000
    115     1.1250     0.0000     1.1250     6.4998    14.7000     45.164      5.000 150721.000     60.000    55.6225   -20.0773   -34.0455   120.0962    -0.1480    -3.0001   -41.6214     0.0000     0.0000     0.0000     1.0000     5.0000   300.0000   -26.9700    43.8513     1.0010    -2.9998     9.0000    10.0000     5.0000    14.0000    16.0000     5.0000    10.0000    16.0000    -0.0005     0.0005   159.4167   -41.1662     2.2445    21.1998     2.0000     1.0000     4.9985     0.000
    116     1.1250     0.0000     1.1250     6.2502    14.7000     45.777      6.000 150721.000     60.000    55.9535   -20.0773   -34.2540   120.0962    -0.1480    -3.0001   -41.3595     0.0000     0.0000     0.0000     1.0000     5.0000   300.0000   -27.3225    44.0853     1.0010    -2.9998     9.0000    10.0000     5.0000    14.0000    16.0000     5.0000    10.0000    16.0000    -0.0005     0.0005   159.4167   -41.1662     2.2445    20.9502     2.0000     1.0000     4.9998     0.000
    117     1.1250     0.0000     1.1250     5.9998    14.7000     46.661      3.000 150721.000     60.000    56.2903   -20.0773   -34.4669   120.0962    -0.1480    -3.0001   -41.0963     0.0000     0.0000     0.0000     1.0000     5.0000   300.0000   -27.6764    44.3200     1.0010    -2.9998     9.0000    10.0000     5.0000    14.0000    16.0000     5.0000    10.0000    16.0000    -0.0005     0.0005   159.4167   -41.1662     2.2446    20.6998     2.0000     1.0000     4.9999     0.000
    118     1.1250     0.0000     1.1250     5.7501    14.7000     47.585      3.000 150721.000     60.000    56.6333   -20.0773   -34.6834   120.0962    -0.1480    -3.0001   -40.8317     0.0000     0.0000     0.0000     1.0000     5.0000   300.0000   -28.0311    44.5531     1.0010    -2.9998     9.0000    10.0000     5.0000    14.0000    16.0000     5.0000    10.0000    16.0000    -0.0005     0.0005   159.4167   -41.1662     2.2446    20.4501     2.0000     1.0000     5.0004     0.000
    119     1.1250     0.0000     1.1250     5.4998    14.7000     48.481      2.000 150721.000     60.000    56.9827   -20.0773   -34.9044   120.0962    -0.1480    -3.0001   -40.5656     0.0000     0.0000     0.0000     1.0000     5.0000   300.0000   -28.3876    44.7881     1.0010    -2.9998     9.0000    10.0000     5.0000    14.0000    16.0000     5.0000    10.0000    16.0000    -0.0005     0.0005   159.4167   -41.1662     2.2447    20.1998     2.0000     1.0000     5.0000     0.000
    120     1.1250     0.0000     1.1250     5.2501    14.7000     49.511      6.000 150721.000     60.000    57.3387   -20.0773   -35.1292   120.0962    -0.1480    -3.0001   -40.2982     0.0000     0.0000     0.0000     1.0000     5.0000   300.0000   -28.7458    45.0190     1.0010    -2.9998     9.0000    10.0000     5.0000    14.0000    16.0000     5.0000    10.0000    16.0000    -0.0005     0.0005   159.4167   -41.1662     2.2446    19.9501     2.0000     1.0000     5.0015     0.000
    121     1.1250     0.0000     1.1250     5.0000    14.7000     49.961      2.000 150721.000     60.000    57.7013   -20.0773   -35.3589   120.0962    -0.1480    -3.0001   -40.0292     0.0000     0.0000     0.0000     1.0000     5.0000   300.0000   -29.1051    45.2493     1.0010    -2.9998     9.0000    10.0000     5.0000    14.0000    16.0000     5.0000    10.0000    16.0000    -0.0005     0.0005   159.4167   -41.1662     2.2445    19.7000     2.0000     1.0000     5.0005     0.000
# Sum of Counts = 1512
# Center of Mass = 21.741482+/-0.810293
# Full Width Half-Maximum = 13.763100+/-0.370250
# 10:42:44 PM  9/11/2024   scan completed.
