# scan = 63
# date = 9/11/2024
# time = 7:57:07 AM
# proposal = 34735
# experiment = Magnons and paramagnon coupling in MnTe
# experiment_number = 813
# command = scan h 1.5 k 0.0 l 1.5 e 32.75 9 0.25 ef 14.7 preset mcu 60
# builtin_command = scan h 1.5 k 0.0 l 1.5 e 32.75 9 0.25 ef 14.7 preset mcu 60
# users = Benjamin Frandsen, Songxue Chi, George Yumnam, Huibo Cao, Michael Manley, Raphael Hermann, Eleanor Clements
# local_contact = Eleanor Clements
# scan_title = H0L scans along (101) to (1.5, 0, 1.5) at H/L = 1.5, mcu = 60, E = 33 to 5 mev
# monochromator = PG002
# analyzer = Pg002
# sense = -+-
# collimation = 48-40-40-120
# samplename = MnTe
# sampletype = crystal
# samplemosaic = 30.000000
# latticeconstants = 4.128474,4.128474,6.651507,90.000000,90.000000,120.000000
# ubmatrix = -0.000328,-0.004396,-0.150319,-0.279308,-0.152332,0.000314,-0.014647,0.234528,-0.002614
# mode = 0
# plane_normal = -0.017470,-0.052341,0.998476
# ubconf = UB09Sep2024_43441PM.ini
# preset_type = normal 
# preset_channel = mcu
# preset_value = 60.000000
# def_x = e
# def_y = detector
# col_headers = 
#   Pt.          h          k          l          e         ef       time   detector    monitor        mcu focal_length         m1         m2   mcrystal       marc     mtrans     mfocus       ampl         dc       freq     output       temp     temp_2         s1         s2        sgl        sgu        bbb        bbl        bbr        bbt        bab        bal        bar        bat        stl        stu         a1         a2          q         ei   ampl_out output_state        vti     sample
      1     1.5000     0.0000     1.5001    32.7489    14.7000     45.819      9.000 150721.000     60.000    37.1793   -20.0773   -22.5692   120.0962    -0.1480    -3.0001   -64.3182     0.0000     0.0000     0.0000     1.0000     5.0000   300.0000    -1.8470    34.3871     1.0010    -2.9998     9.0000    10.0000     5.0000    14.0000    16.0000     5.0000    10.0000    16.0000    -0.0005     0.0005   159.4164   -41.1662     2.9928    47.4489     2.0000     1.0000     5.0010     0.000
      2     1.5000     0.0000     1.5000    32.5008    14.7000     45.592      7.000 150721.000     60.000    37.2776   -20.0773   -22.6292   120.0962    -0.1480    -3.0001   -64.1317     0.0000     0.0000     0.0000     1.0000     5.0000   300.0000    -2.0671    34.6436     1.0010    -2.9998     9.0000    10.0000     5.0000    14.0000    16.0000     5.0000    10.0000    16.0000    -0.0005     0.0005   159.4164   -41.1662     2.9927    47.2008     2.0000     1.0000     5.0007     0.000
      3     1.5000     0.0000     1.5000    32.2499    14.7000     45.664      8.000 150721.000     60.000    37.3767   -20.0773   -22.6904   120.0962    -0.1480    -3.0001   -63.9448     0.0000     0.0000     0.0000     1.0000     5.0000   300.0000    -2.2862    34.9027     1.0010    -2.9998     9.0000    10.0000     5.0000    14.0000    16.0000     5.0000    10.0000    16.0000    -0.0005     0.0005   159.4164   -41.1662     2.9927    46.9499     2.0000     1.0000     5.0008     0.000
      4     1.5000     0.0000     1.5000    31.9998    14.7000     45.654     17.000 150721.000     60.000    37.4766   -20.0773   -22.7519   120.0962    -0.1480    -3.0001   -63.7576     0.0000     0.0000     0.0000     1.0000     5.0000   300.0000    -2.5045    35.1598     1.0010    -2.9998     9.0000    10.0000     5.0000    14.0000    16.0000     5.0000    10.0000    16.0000    -0.0005     0.0005   159.4164   -41.1662     2.9927    46.6998     2.0000     1.0000     4.9986     0.000
      5     1.5000     0.0000     1.5000    31.7500    14.7000     45.392      6.000 150721.000     60.000    37.5773   -20.0773   -22.8138   120.0962    -0.1480    -3.0001   -63.5699     0.0000     0.0000     0.0000     1.0000     5.0000   300.0000    -2.7216    35.4168     1.0010    -2.9998     9.0000    10.0000     5.0000    14.0000    16.0000     5.0000    10.0000    16.0000    -0.0005     0.0005   159.4164   -41.1662     2.9928    46.4500     2.0000     1.0000     4.9994     0.000
      6     1.5000     0.0000     1.5000    31.5005    14.7000     45.372      8.000 150721.000     60.000    37.6789   -20.0773   -22.8762   120.0962    -0.1480    -3.0001   -63.3819     0.0000     0.0000     0.0000     1.0000     5.0000   300.0000    -2.9383    35.6733     1.0010    -2.9998     9.0000    10.0000     5.0000    14.0000    16.0000     5.0000    10.0000    16.0000    -0.0005     0.0005   159.4164   -41.1662     2.9928    46.2005     2.0000     1.0000     4.9998     0.000
      7     1.5000     0.0000     1.5001    31.2496    14.7000     44.911      7.000 150721.000     60.000    37.7812   -20.0773   -22.9394   120.0962    -0.1480    -3.0001   -63.1934     0.0000     0.0000     0.0000     1.0000     5.0000   300.0000    -3.1538    35.9285     1.0010    -2.9998     9.0000    10.0000     5.0000    14.0000    16.0000     5.0000    10.0000    16.0000    -0.0005     0.0005   159.4164   -41.1662     2.9928    45.9496     2.0000     1.0000     5.0007     0.000
      8     1.5000     0.0000     1.5001    30.9994    14.7000     45.026      4.000 150721.000     60.000    37.8844   -20.0773   -23.0029   120.0962    -0.1480    -3.0001   -63.0045     0.0000     0.0000     0.0000     1.0000     5.0000   300.0000    -3.3681    36.1826     1.0010    -2.9998     9.0000    10.0000     5.0000    14.0000    16.0000     5.0000    10.0000    16.0000    -0.0005     0.0005   159.4164   -41.1662     2.9928    45.6994     2.0000     1.0000     5.0007     0.000
      9     1.5000     0.0000     1.5000    30.7505    14.7000     44.698      6.000 150721.000     60.000    37.9885   -20.0773   -23.0667   120.0962    -0.1480    -3.0001   -62.8152     0.0000     0.0000     0.0000     1.0000     5.0000   300.0000    -3.5821    36.4348     1.0010    -2.9998     9.0000    10.0000     5.0000    14.0000    16.0000     5.0000    10.0000    16.0000    -0.0005     0.0005   159.4164   -41.1662     2.9928    45.4505     2.0000     1.0000     5.0002     0.000
     10     1.5000     0.0000     1.5000    30.4999    14.7000     44.422      4.000 150721.000     60.000    38.0934   -20.0773   -23.1314   120.0962    -0.1480    -3.0001   -62.6255     0.0000     0.0000     0.0000     1.0000     5.0000   300.0000    -3.7953    36.6867     1.0010    -2.9998     9.0000    10.0000     5.0000    14.0000    16.0000     5.0000    10.0000    16.0000    -0.0005     0.0005   159.4164   -41.1662     2.9927    45.1999     2.0000     1.0000     5.0004     0.000
     11     1.5000     0.0000     1.5000    30.2508    14.7000     44.275      3.000 150721.000     60.000    38.1992   -20.0773   -23.1963   120.0962    -0.1480    -3.0001   -62.4354     0.0000     0.0000     0.0000     1.0000     5.0000   300.0000    -4.0074    36.9403     1.0010    -2.9998     9.0000    10.0000     5.0000    14.0000    16.0000     5.0000    10.0000    16.0000    -0.0005     0.0005   159.4164   -41.1662     2.9928    44.9509     2.0000     1.0000     4.9995     0.000
     12     1.5000     0.0000     1.5001    29.9995    14.7000     44.077      8.000 150721.000     60.000    38.3059   -20.0773   -23.2624   120.0962    -0.1480    -3.0001   -62.2448     0.0000     0.0000     0.0000     1.0000     5.0000   300.0000    -4.2194    37.1940     1.0010    -2.9998     9.0000    10.0000     5.0000    14.0000    16.0000     5.0000    10.0000    16.0000    -0.0005     0.0005   159.4164   -41.1662     2.9929    44.6995     2.0000     1.0000     5.0012     0.000
     13     1.5000     0.0000     1.5000    29.7495    14.7000     43.776     12.000 150721.000     60.000    38.4134   -20.0773   -23.3286   120.0962    -0.1480    -3.0001   -62.0538     0.0000     0.0000     0.0000     1.0000     5.0000   300.0000    -4.4296    37.4420     1.0010    -2.9998     9.0000    10.0000     5.0000    14.0000    16.0000     5.0000    10.0000    16.0000    -0.0005     0.0005   159.4164   -41.1662     2.9927    44.4495     2.0000     1.0000     5.0004     0.000
     14     1.5000     0.0000     1.5000    29.5002    14.7000     43.497      4.000 150721.000     60.000    38.5219   -20.0773   -23.3952   120.0962    -0.1480    -3.0001   -61.8623     0.0000     0.0000     0.0000     1.0000     5.0000   300.0000    -4.6399    37.6922     1.0010    -2.9998     9.0000    10.0000     5.0000    14.0000    16.0000     5.0000    10.0000    16.0000    -0.0005     0.0005   159.4164   -41.1662     2.9928    44.2002     2.0000     1.0000     4.9988     0.000
     15     1.5001     0.0000     1.5001    29.2507    14.7000     43.411     10.000 150721.000     60.000    38.6313   -20.0773   -23.4625   120.0962    -0.1480    -3.0001   -61.6704     0.0000     0.0000     0.0000     1.0000     5.0000   300.0000    -4.8495    37.9434     1.0010    -2.9998     9.0000    10.0000     5.0000    14.0000    16.0000     5.0000    10.0000    16.0000    -0.0005     0.0005   159.4164   -41.1662     2.9929    43.9507     2.0000     1.0000     4.9998     0.000
     16     1.5000     0.0000     1.5001    28.9994    14.7000     43.596      8.000 150721.000     60.000    38.7417   -20.0773   -23.5308   120.0962    -0.1480    -3.0001   -61.4781     0.0000     0.0000     0.0000     1.0000     5.0000   300.0000    -5.0579    38.1932     1.0010    -2.9998     9.0000    10.0000     5.0000    14.0000    16.0000     5.0000    10.0000    16.0000    -0.0005     0.0005   159.4164   -41.1662     2.9928    43.6994     2.0000     1.0000     4.9986     0.000
     17     1.5000     0.0000     1.5000    28.7501    14.7000     43.624      6.000 150721.000     60.000    38.8530   -20.0773   -23.5992   120.0962    -0.1480    -3.0001   -61.2854     0.0000     0.0000     0.0000     1.0000     5.0000   300.0000    -5.2660    38.4375     1.0010    -2.9998     9.0000    10.0000     5.0000    14.0000    16.0000     5.0000    10.0000    16.0000    -0.0005     0.0005   159.4164   -41.1662     2.9927    43.4502     2.0000     1.0000     5.0013     0.000
     18     1.5000     0.0000     1.5000    28.4999    14.7000     43.458      8.000 150721.000     60.000    38.9652   -20.0773   -23.6684   120.0962    -0.1480    -3.0001   -61.0922     0.0000     0.0000     0.0000     1.0000     5.0000   300.0000    -5.4736    38.6863     1.0010    -2.9998     9.0000    10.0000     5.0000    14.0000    16.0000     5.0000    10.0000    16.0000    -0.0005     0.0005   159.4164   -41.1662     2.9927    43.1999     2.0000     1.0000     5.0011     0.000
     19     1.5001     0.0000     1.5002    28.2504    14.7000     43.303      6.000 150721.000     60.000    39.0785   -20.0773   -23.7380   120.0962    -0.1480    -3.0001   -60.8985     0.0000     0.0000     0.0000     1.0000     5.0000   300.0000    -5.6798    38.9379     1.0010    -2.9998     9.0000    10.0000     5.0000    14.0000    16.0000     5.0000    10.0000    16.0000    -0.0005     0.0005   159.4164   -41.1662     2.9929    42.9504     2.0000     1.0000     5.0004     0.000
     20     1.5000     0.0000     1.5001    27.9999    14.7000     43.161      7.000 150721.000     60.000    39.1927   -20.0773   -23.8086   120.0962    -0.1480    -3.0001   -60.7044     0.0000     0.0000     0.0000     1.0000     5.0000   300.0000    -5.8861    39.1822     1.0010    -2.9998     9.0000    10.0000     5.0000    14.0000    16.0000     5.0000    10.0000    16.0000    -0.0005     0.0005   159.4164   -41.1662     2.9928    42.6999     2.0000     1.0000     4.9999     0.000
     21     1.5000     0.0000     1.5000    27.7504    14.7000     43.022      7.000 150721.000     60.000    39.3079   -20.0773   -23.8795   120.0962    -0.1480    -3.0001   -60.5098     0.0000     0.0000     0.0000     1.0000     5.0000   300.0000    -6.0918    39.4269     1.0010    -2.9998     9.0000    10.0000     5.0000    14.0000    16.0000     5.0000    10.0000    16.0000    -0.0005     0.0005   159.4164   -41.1662     2.9927    42.4504     2.0000     1.0000     4.9997     0.000
     22     1.5000     0.0000     1.5000    27.4997    14.7000     42.577      6.000 150721.000     60.000    39.4242   -20.0773   -23.9513   120.0962    -0.1480    -3.0001   -60.3147     0.0000     0.0000     0.0000     1.0000     5.0000   300.0000    -6.2966    39.6739     1.0010    -2.9998     9.0000    10.0000     5.0000    14.0000    16.0000     5.0000    10.0000    16.0000    -0.0005     0.0005   159.4164   -41.1662     2.9927    42.1997     2.0000     1.0000     4.9985     0.000
     23     1.5000     0.0000     1.5000    27.2496    14.7000     42.315     10.000 150721.000     60.000    39.5415   -20.0773   -24.0237   120.0962    -0.1480    -3.0001   -60.1192     0.0000     0.0000     0.0000     1.0000     5.0000   300.0000    -6.5009    39.9196     1.0010    -2.9998     9.0000    10.0000     5.0000    14.0000    16.0000     5.0000    10.0000    16.0000    -0.0005     0.0005   159.4164   -41.1662     2.9927    41.9497     2.0000     1.0000     4.9997     0.000
     24     1.5001     0.0000     1.5001    27.0007    14.7000     41.997      3.000 150721.000     60.000    39.6598   -20.0773   -24.0964   120.0962    -0.1480    -3.0001   -59.9232     0.0000     0.0000     0.0000     1.0000     5.0000   300.0000    -6.7046    40.1672     1.0010    -2.9998     9.0000    10.0000     5.0000    14.0000    16.0000     5.0000    10.0000    16.0000    -0.0005     0.0005   159.4164   -41.1662     2.9929    41.7007     2.0000     1.0000     4.9994     0.000
     25     1.5000     0.0000     1.5000    26.7503    14.7000     41.584      8.000 150721.000     60.000    39.7792   -20.0773   -24.1701   120.0962    -0.1480    -3.0001   -59.7267     0.0000     0.0000     0.0000     1.0000     5.0000   300.0000    -6.9079    40.4096     1.0010    -2.9998     9.0000    10.0000     5.0000    14.0000    16.0000     5.0000    10.0000    16.0000    -0.0005     0.0005   159.4164   -41.1662     2.9928    41.4503     2.0000     1.0000     5.0003     0.000
     26     1.5000     0.0000     1.5000    26.4993    14.7000     40.898      7.000 150721.000     60.000    39.8998   -20.0773   -24.2448   120.0962    -0.1480    -3.0001   -59.5297     0.0000     0.0000     0.0000     1.0000     5.0000   300.0000    -7.1106    40.6540     1.0010    -2.9998     9.0000    10.0000     5.0000    14.0000    16.0000     5.0000    10.0000    16.0000    -0.0005     0.0005   159.4164   -41.1662     2.9927    41.1993     2.0000     1.0000     5.0017     0.000
     27     1.5000     0.0000     1.5000    26.2501    14.7000     40.599      6.000 150721.000     60.000    40.0214   -20.0773   -24.3195   120.0962    -0.1480    -3.0001   -59.3323     0.0000     0.0000     0.0000     1.0000     5.0000   300.0000    -7.3129    40.8974     1.0010    -2.9998     9.0000    10.0000     5.0000    14.0000    16.0000     5.0000    10.0000    16.0000    -0.0005     0.0005   159.4164   -41.1662     2.9927    40.9501     2.0000     1.0000     5.0000     0.000
     28     1.5000     0.0000     1.5000    25.9999    14.7000     40.253      8.000 150721.000     60.000    40.1441   -20.0773   -24.3953   120.0962    -0.1480    -3.0001   -59.1343     0.0000     0.0000     0.0000     1.0000     5.0000   300.0000    -7.5146    41.1420     1.0010    -2.9998     9.0000    10.0000     5.0000    14.0000    16.0000     5.0000    10.0000    16.0000    -0.0005     0.0005   159.4164   -41.1662     2.9928    40.6999     2.0000     1.0000     5.0009     0.000
     29     1.5000     0.0000     1.5001    25.7498    14.7000     39.741      3.000 150721.000     60.000    40.2680   -20.0773   -24.4718   120.0962    -0.1480    -3.0001   -58.9359     0.0000     0.0000     0.0000     1.0000     5.0000   300.0000    -7.7155    41.3881     1.0010    -2.9998     9.0000    10.0000     5.0000    14.0000    16.0000     5.0000    10.0000    16.0000    -0.0005     0.0005   159.4164   -41.1662     2.9929    40.4498     2.0000     1.0000     5.0003     0.000
     30     1.5000     0.0000     1.5000    25.5007    14.7000     39.776      7.000 150721.000     60.000    40.3930   -20.0773   -24.5487   120.0962    -0.1480    -3.0001   -58.7370     0.0000     0.0000     0.0000     1.0000     5.0000   300.0000    -7.9162    41.6277     1.0010    -2.9998     9.0000    10.0000     5.0000    14.0000    16.0000     5.0000    10.0000    16.0000    -0.0005     0.0005   159.4164   -41.1662     2.9928    40.2007     2.0000     1.0000     5.0004     0.000
     31     1.5000     0.0000     1.5000    25.2504    14.7000     39.420     12.000 150721.000     60.000    40.5192   -20.0773   -24.6266   120.0962    -0.1480    -3.0001   -58.5375     0.0000     0.0000     0.0000     1.0000     5.0000   300.0000    -8.1166    41.8704     1.0010    -2.9998     9.0000    10.0000     5.0000    14.0000    16.0000     5.0000    10.0000    16.0000    -0.0005     0.0005   159.4164   -41.1662     2.9927    39.9505     2.0000     1.0000     5.0004     0.000
     32     1.5000     0.0000     1.5000    24.9999    14.7000     39.199      6.000 150721.000     60.000    40.6465   -20.0773   -24.7054   120.0962    -0.1480    -3.0001   -58.3375     0.0000     0.0000     0.0000     1.0000     5.0000   300.0000    -8.3164    42.1141     1.0010    -2.9998     9.0000    10.0000     5.0000    14.0000    16.0000     5.0000    10.0000    16.0000    -0.0005     0.0005   159.4164   -41.1662     2.9928    39.6999     2.0000     1.0000     4.9984     0.000
     33     1.5000     0.0000     1.5001    24.7497    14.7000     39.108     11.000 150721.000     60.000    40.7751   -20.0773   -24.7849   120.0962    -0.1480    -3.0001   -58.1370     0.0000     0.0000     0.0000     1.0000     5.0000   300.0000    -8.5158    42.3576     1.0010    -2.9998     9.0000    10.0000     5.0000    14.0000    16.0000     5.0000    10.0000    16.0000    -0.0005     0.0005   159.4164   -41.1662     2.9928    39.4497     2.0000     1.0000     4.9997     0.000
     34     1.5000     0.0000     1.5001    24.5003    14.7000     39.234      7.000 150721.000     60.000    40.9049   -20.0773   -24.8649   120.0962    -0.1480    -3.0001   -57.9360     0.0000     0.0000     0.0000     1.0000     5.0000   300.0000    -8.7146    42.6005     1.0010    -2.9998     9.0000    10.0000     5.0000    14.0000    16.0000     5.0000    10.0000    16.0000    -0.0005     0.0005   159.4164   -41.1662     2.9929    39.2003     2.0000     1.0000     4.9995     0.000
     35     1.4999     0.0000     1.5000    24.2496    14.7000     39.288      3.000 150721.000     60.000    41.0360   -20.0773   -24.9461   120.0962    -0.1480    -3.0001   -57.7345     0.0000     0.0000     0.0000     1.0000     5.0000   300.0000    -8.9132    42.8387     1.0010    -2.9998     9.0000    10.0000     5.0000    14.0000    16.0000     5.0000    10.0000    16.0000    -0.0005     0.0005   159.4164   -41.1662     2.9927    38.9496     2.0000     1.0000     5.0011     0.000
     36     1.5000     0.0000     1.5000    24.0003    14.7000     39.248      3.000 150721.000     60.000    41.1683   -20.0773   -25.0276   120.0962    -0.1480    -3.0001   -57.5324     0.0000     0.0000     0.0000     1.0000     5.0000   300.0000    -9.1110    43.0814     1.0010    -2.9998     9.0000    10.0000     5.0000    14.0000    16.0000     5.0000    10.0000    16.0000    -0.0005     0.0005   159.4164   -41.1662     2.9927    38.7003     2.0000     1.0000     4.9997     0.000
     37     1.5000     0.0000     1.5001    23.7497    14.7000     39.625      7.000 150721.000     60.000    41.3020   -20.0773   -25.1103   120.0962    -0.1480    -3.0001   -57.3298     0.0000     0.0000     0.0000     1.0000     5.0000   300.0000    -9.3091    43.3259     1.0010    -2.9998     9.0000    10.0000     5.0000    14.0000    16.0000     5.0000    10.0000    16.0000    -0.0005     0.0005   159.4164   -41.1662     2.9928    38.4497     2.0000     1.0000     5.0004     0.000
     38     1.5000     0.0000     1.5001    23.5001    14.7000     40.104      8.000 150721.000     60.000    41.4369   -20.0773   -25.1936   120.0962    -0.1480    -3.0001   -57.1267     0.0000     0.0000     0.0000     1.0000     5.0000   300.0000    -9.5060    43.5674     1.0010    -2.9998     9.0000    10.0000     5.0000    14.0000    16.0000     5.0000    10.0000    16.0000    -0.0005     0.0005   159.4164   -41.1662     2.9928    38.2001     2.0000     1.0000     5.0000     0.000
     39     1.5000     0.0000     1.5000    23.2497    14.7000     40.319      5.000 150721.000     60.000    41.5732   -20.0773   -25.2779   120.0962    -0.1480    -3.0001   -56.9230     0.0000     0.0000     0.0000     1.0000     5.0000   300.0000    -9.7034    43.8078     1.0010    -2.9998     9.0000    10.0000     5.0000    14.0000    16.0000     5.0000    10.0000    16.0000    -0.0005     0.0005   159.4164   -41.1662     2.9928    37.9497     2.0000     1.0000     4.9993     0.000
     40     1.5000     0.0000     1.5000    23.0002    14.7000     40.809      7.000 150721.000     60.000    41.7108   -20.0773   -25.3628   120.0962    -0.1480    -3.0001   -56.7188     0.0000     0.0000     0.0000     1.0000     5.0000   300.0000    -9.8996    44.0475     1.0010    -2.9998     9.0000    10.0000     5.0000    14.0000    16.0000     5.0000    10.0000    16.0000    -0.0005     0.0005   159.4164   -41.1662     2.9927    37.7002     2.0000     1.0000     5.0003     0.000
     41     1.5000     0.0000     1.5000    22.7496    14.7000     41.141      8.000 150721.000     60.000    41.8497   -20.0773   -25.4490   120.0962    -0.1480    -3.0001   -56.5140     0.0000     0.0000     0.0000     1.0000     5.0000   300.0000   -10.0959    44.2889     1.0010    -2.9998     9.0000    10.0000     5.0000    14.0000    16.0000     5.0000    10.0000    16.0000    -0.0005     0.0005   159.4164   -41.1662     2.9927    37.4496     2.0000     1.0000     5.0008     0.000
     42     1.5000     0.0000     1.5000    22.5015    14.7000     41.524      8.000 150721.000     60.000    41.9902   -20.0773   -25.5351   120.0962    -0.1480    -3.0001   -56.3086     0.0000     0.0000     0.0000     1.0000     5.0000   300.0000   -10.2919    44.5302     1.0010    -2.9998     9.0000    10.0000     5.0000    14.0000    16.0000     5.0000    10.0000    16.0000    -0.0005     0.0005   159.4164   -41.1662     2.9928    37.2015     2.0000     1.0000     4.9992     0.000
     43     1.5000     0.0000     1.5001    22.2492    14.7000     42.067      9.000 150721.000     60.000    42.1320   -20.0773   -25.6236   120.0962    -0.1480    -3.0001   -56.1026     0.0000     0.0000     0.0000     1.0000     5.0000   300.0000   -10.4872    44.7741     1.0010    -2.9998     9.0000    10.0000     5.0000    14.0000    16.0000     5.0000    10.0000    16.0000    -0.0005     0.0005   159.4164   -41.1662     2.9929    36.9493     2.0000     1.0000     4.9995     0.000
     44     1.5000     0.0000     1.5000    21.9997    14.7000     42.333      9.000 150721.000     60.000    42.2752   -20.0773   -25.7121   120.0962    -0.1480    -3.0001   -55.8961     0.0000     0.0000     0.0000     1.0000     5.0000   300.0000   -10.6826    45.0123     1.0010    -2.9998     9.0000    10.0000     5.0000    14.0000    16.0000     5.0000    10.0000    16.0000    -0.0005     0.0005   159.4164   -41.1662     2.9927    36.6997     2.0000     1.0000     5.0004     0.000
     45     1.5000     0.0000     1.5000    21.7501    14.7000     42.465      4.000 150721.000     60.000    42.4200   -20.0773   -25.8014   120.0962    -0.1480    -3.0001   -55.6890     0.0000     0.0000     0.0000     1.0000     5.0000   300.0000   -10.8776    45.2523     1.0010    -2.9998     9.0000    10.0000     5.0000    14.0000    16.0000     5.0000    10.0000    16.0000    -0.0005     0.0005   159.4164   -41.1662     2.9927    36.4501     2.0000     1.0000     5.0012     0.000
     46     1.5000     0.0000     1.5000    21.4994    14.7000     42.889      6.000 150721.000     60.000    42.5662   -20.0773   -25.8922   120.0962    -0.1480    -3.0001   -55.4813     0.0000     0.0000     0.0000     1.0000     5.0000   300.0000   -11.0721    45.4942     1.0010    -2.9998     9.0000    10.0000     5.0000    14.0000    16.0000     5.0000    10.0000    16.0000    -0.0005     0.0005   159.4164   -41.1662     2.9927    36.1994     2.0000     1.0000     5.0003     0.000
     47     1.5000     0.0000     1.5000    21.2500    14.7000     43.087      2.000 150721.000     60.000    42.7139   -20.0773   -25.9834   120.0962    -0.1480    -3.0001   -55.2730     0.0000     0.0000     0.0000     1.0000     5.0000   300.0000   -11.2665    45.7359     1.0010    -2.9998     9.0000    10.0000     5.0000    14.0000    16.0000     5.0000    10.0000    16.0000    -0.0005     0.0005   159.4164   -41.1662     2.9928    35.9500     2.0000     1.0000     5.0012     0.000
     48     1.5000     0.0000     1.5000    21.0005    14.7000     43.233      3.000 150721.000     60.000    42.8632   -20.0773   -26.0757   120.0962    -0.1480    -3.0001   -55.0642     0.0000     0.0000     0.0000     1.0000     5.0000   300.0000   -11.4605    45.9769     1.0010    -2.9998     9.0000    10.0000     5.0000    14.0000    16.0000     5.0000    10.0000    16.0000    -0.0005     0.0005   159.4164   -41.1662     2.9928    35.7005     2.0000     1.0000     4.9996     0.000
     49     1.5000     0.0000     1.5000    20.7497    14.7000     43.154      6.000 150721.000     60.000    43.0141   -20.0773   -26.1694   120.0962    -0.1480    -3.0001   -54.8546     0.0000     0.0000     0.0000     1.0000     5.0000   300.0000   -11.6545    46.2164     1.0010    -2.9998     9.0000    10.0000     5.0000    14.0000    16.0000     5.0000    10.0000    16.0000    -0.0005     0.0005   159.4164   -41.1662     2.9927    35.4497     2.0000     1.0000     4.9999     0.000
     50     1.5000     0.0000     1.5000    20.4996    14.7000     43.187      9.000 150721.000     60.000    43.1666   -20.0773   -26.2638   120.0962    -0.1480    -3.0001   -54.6446     0.0000     0.0000     0.0000     1.0000     5.0000   300.0000   -11.8475    46.4568     1.0010    -2.9998     9.0000    10.0000     5.0000    14.0000    16.0000     5.0000    10.0000    16.0000    -0.0005     0.0005   159.4164   -41.1662     2.9927    35.1996     2.0000     1.0000     5.0009     0.000
     51     1.5000     0.0000     1.5000    20.2505    14.7000     43.369      4.000 150721.000     60.000    43.3207   -20.0773   -26.3589   120.0962    -0.1480    -3.0001   -54.4338     0.0000     0.0000     0.0000     1.0000     5.0000   300.0000   -12.0411    46.6983     1.0010    -2.9998     9.0000    10.0000     5.0000    14.0000    16.0000     5.0000    10.0000    16.0000    -0.0005     0.0005   159.4164   -41.1662     2.9928    34.9505     2.0000     1.0000     5.0008     0.000
     52     1.5000     0.0000     1.5000    19.9996    14.7000     43.476      4.000 150721.000     60.000    43.4765   -20.0773   -26.4558   120.0962    -0.1480    -3.0001   -54.2224     0.0000     0.0000     0.0000     1.0000     5.0000   300.0000   -12.2342    46.9399     1.0010    -2.9998     9.0000    10.0000     5.0000    14.0000    16.0000     5.0000    10.0000    16.0000    -0.0005     0.0005   159.4164   -41.1662     2.9927    34.6996     2.0000     1.0000     5.0005     0.000
     53     1.5001     0.0000     1.5001    19.7502    14.7000     43.748      6.000 150721.000     60.000    43.6339   -20.0773   -26.5531   120.0962    -0.1480    -3.0001   -54.0105     0.0000     0.0000     0.0000     1.0000     5.0000   300.0000   -12.4264    47.1836     1.0010    -2.9998     9.0000    10.0000     5.0000    14.0000    16.0000     5.0000    10.0000    16.0000    -0.0005     0.0005   159.4164   -41.1662     2.9929    34.4502     2.0000     1.0000     4.9998     0.000
     54     1.5000     0.0000     1.5000    19.4999    14.7000     44.045      5.000 150721.000     60.000    43.7931   -20.0773   -26.6519   120.0962    -0.1480    -3.0001   -53.7978     0.0000     0.0000     0.0000     1.0000     5.0000   300.0000   -12.6196    47.4216     1.0010    -2.9998     9.0000    10.0000     5.0000    14.0000    16.0000     5.0000    10.0000    16.0000    -0.0005     0.0005   159.4164   -41.1662     2.9927    34.1999     2.0000     1.0000     4.9993     0.000
     55     1.5000     0.0000     1.5000    19.2499    14.7000     44.528      4.000 150721.000     60.000    43.9541   -20.0773   -26.7516   120.0962    -0.1480    -3.0001   -53.5845     0.0000     0.0000     0.0000     1.0000     5.0000   300.0000   -12.8115    47.6625     1.0010    -2.9998     9.0000    10.0000     5.0000    14.0000    16.0000     5.0000    10.0000    16.0000    -0.0005     0.0005   159.4164   -41.1662     2.9927    33.9499     2.0000     1.0000     4.9989     0.000
     56     1.5000     0.0000     1.5000    19.0004    14.7000     44.854      8.000 150721.000     60.000    44.1168   -20.0773   -26.8523   120.0962    -0.1480    -3.0001   -53.3706     0.0000     0.0000     0.0000     1.0000     5.0000   300.0000   -13.0039    47.9050     1.0010    -2.9998     9.0000    10.0000     5.0000    14.0000    16.0000     5.0000    10.0000    16.0000    -0.0005     0.0005   159.4164   -41.1662     2.9928    33.7005     2.0000     1.0000     4.9993     0.000
     57     1.5000     0.0000     1.5001    18.7494    14.7000     45.238      5.000 150721.000     60.000    44.2813   -20.0773   -26.9548   120.0962    -0.1480    -3.0001   -53.1560     0.0000     0.0000     0.0000     1.0000     5.0000   300.0000   -13.1955    48.1483     1.0010    -2.9998     9.0000    10.0000     5.0000    14.0000    16.0000     5.0000    10.0000    16.0000    -0.0005     0.0005   159.4164   -41.1662     2.9928    33.4494     2.0000     1.0000     4.9999     0.000
     58     1.5001     0.0000     1.5001    18.5002    14.7000     45.569      6.000 150721.000     60.000    44.4478   -20.0773   -27.0577   120.0962    -0.1480    -3.0001   -52.9407     0.0000     0.0000     0.0000     1.0000     5.0000   300.0000   -13.3871    48.3911     1.0010    -2.9998     9.0000    10.0000     5.0000    14.0000    16.0000     5.0000    10.0000    16.0000    -0.0005     0.0005   159.4164   -41.1662     2.9929    33.2002     2.0000     1.0000     4.9998     0.000
     59     1.5000     0.0000     1.5000    18.2503    14.7000     45.881      6.000 150721.000     60.000    44.6161   -20.0773   -27.1621   120.0962    -0.1480    -3.0001   -52.7248     0.0000     0.0000     0.0000     1.0000     5.0000   300.0000   -13.5793    48.6304     1.0010    -2.9998     9.0000    10.0000     5.0000    14.0000    16.0000     5.0000    10.0000    16.0000    -0.0005     0.0005   159.4164   -41.1662     2.9927    32.9503     2.0000     1.0000     4.9995     0.000
     60     1.5000     0.0000     1.5000    17.9999    14.7000     46.110      9.000 150721.000     60.000    44.7863   -20.0773   -27.2678   120.0962    -0.1480    -3.0001   -52.5081     0.0000     0.0000     0.0000     1.0000     5.0000   300.0000   -13.7699    48.8722     1.0010    -2.9998     9.0000    10.0000     5.0000    14.0000    16.0000     5.0000    10.0000    16.0000    -0.0005     0.0005   159.4164   -41.1662     2.9927    32.7000     2.0000     1.0000     5.0005     0.000
     61     1.5000     0.0000     1.5000    17.7503    14.7000     46.216      1.000 150721.000     60.000    44.9585   -20.0773   -27.3745   120.0962    -0.1480    -3.0001   -52.2908     0.0000     0.0000     0.0000     1.0000     5.0000   300.0000   -13.9614    49.1164     1.0010    -2.9998     9.0000    10.0000     5.0000    14.0000    16.0000     5.0000    10.0000    16.0000    -0.0005     0.0005   159.4164   -41.1662     2.9928    32.4504     2.0000     1.0000     5.0000     0.000
     62     1.5000     0.0000     1.5000    17.4998    14.7000     46.664      8.000 150721.000     60.000    45.1326   -20.0773   -27.4829   120.0962    -0.1480    -3.0001   -52.0728     0.0000     0.0000     0.0000     1.0000     5.0000   300.0000   -14.1524    49.3594     1.0010    -2.9998     9.0000    10.0000     5.0000    14.0000    16.0000     5.0000    10.0000    16.0000    -0.0005     0.0005   159.4164   -41.1662     2.9928    32.1999     2.0000     1.0000     5.0003     0.000
     63     1.5000     0.0000     1.5000    17.2499    14.7000     47.088      3.000 150721.000     60.000    45.3089   -20.0773   -27.5923   120.0962    -0.1480    -3.0001   -51.8540     0.0000     0.0000     0.0000     1.0000     5.0000   300.0000   -14.3433    49.6019     1.0010    -2.9998     9.0000    10.0000     5.0000    14.0000    16.0000     5.0000    10.0000    16.0000    -0.0005     0.0005   159.4164   -41.1662     2.9928    31.9499     2.0000     1.0000     4.9991     0.000
     64     1.5000     0.0000     1.5000    17.0000    14.7000     47.077      7.000 150721.000     60.000    45.4872   -20.0773   -27.7030   120.0962    -0.1480    -3.0001   -51.6345     0.0000     0.0000     0.0000     1.0000     5.0000   300.0000   -14.5341    49.8442     1.0010    -2.9998     9.0000    10.0000     5.0000    14.0000    16.0000     5.0000    10.0000    16.0000    -0.0005     0.0005   159.4164   -41.1662     2.9927    31.7000     2.0000     1.0000     5.0016     0.000
     65     1.5000     0.0000     1.5000    16.7499    14.7000     47.727      4.000 150721.000     60.000    45.6676   -20.0773   -27.8151   120.0962    -0.1480    -3.0001   -51.4143     0.0000     0.0000     0.0000     1.0000     5.0000   300.0000   -14.7244    50.0877     1.0010    -2.9998     9.0000    10.0000     5.0000    14.0000    16.0000     5.0000    10.0000    16.0000    -0.0005     0.0005   159.4164   -41.1662     2.9927    31.4499     2.0000     1.0000     4.9994     0.000
     66     1.5000     0.0000     1.5000    16.5002    14.7000     47.523      3.000 150721.000     60.000    45.8503   -20.0773   -27.9285   120.0962    -0.1480    -3.0001   -51.1934     0.0000     0.0000     0.0000     1.0000     5.0000   300.0000   -14.9147    50.3338     1.0010    -2.9998     9.0000    10.0000     5.0000    14.0000    16.0000     5.0000    10.0000    16.0000    -0.0005     0.0005   159.4164   -41.1662     2.9928    31.2002     2.0000     1.0000     5.0004     0.000
     67     1.5000     0.0000     1.5001    16.2498    14.7000     47.759     10.000 150721.000     60.000    46.0351   -20.0773   -28.0435   120.0962    -0.1480    -3.0001   -50.9717     0.0000     0.0000     0.0000     1.0000     5.0000   300.0000   -15.1050    50.5783     1.0010    -2.9998     9.0000    10.0000     5.0000    14.0000    16.0000     5.0000    10.0000    16.0000    -0.0005     0.0005   159.4164   -41.1662     2.9928    30.9498     2.0000     1.0000     5.0001     0.000
     68     1.5000     0.0000     1.5000    15.9999    14.7000     47.602     11.000 150721.000     60.000    46.2221   -20.0773   -28.1598   120.0962    -0.1480    -3.0001   -50.7492     0.0000     0.0000     0.0000     1.0000     5.0000   300.0000   -15.2955    50.8208     1.0010    -2.9998     9.0000    10.0000     5.0000    14.0000    16.0000     5.0000    10.0000    16.0000    -0.0005     0.0005   159.4164   -41.1662     2.9927    30.6999     2.0000     1.0000     4.9996     0.000
     69     1.5000     0.0000     1.5000    15.7503    14.7000     47.775      9.000 150721.000     60.000    46.4115   -20.0773   -28.2774   120.0962    -0.1480    -3.0001   -50.5260     0.0000     0.0000     0.0000     1.0000     5.0000   300.0000   -15.4853    51.0662     1.0010    -2.9998     9.0000    10.0000     5.0000    14.0000    16.0000     5.0000    10.0000    16.0000    -0.0005     0.0005   159.4164   -41.1662     2.9928    30.4503     2.0000     1.0000     4.9994     0.000
     70     1.5000     0.0000     1.5000    15.4998    14.7000     48.192      2.000 150721.000     60.000    46.6032   -20.0773   -28.3968   120.0962    -0.1480    -3.0001   -50.3021     0.0000     0.0000     0.0000     1.0000     5.0000   300.0000   -15.6756    51.3129     1.0010    -2.9998     9.0000    10.0000     5.0000    14.0000    16.0000     5.0000    10.0000    16.0000    -0.0005     0.0005   159.4164   -41.1662     2.9928    30.1998     2.0000     1.0000     4.9996     0.000
     71     1.5000     0.0000     1.5000    15.2503    14.7000     48.631      5.000 150721.000     60.000    46.7972   -20.0773   -28.5174   120.0962    -0.1480    -3.0001   -50.0773     0.0000     0.0000     0.0000     1.0000     5.0000   300.0000   -15.8650    51.5582     1.0010    -2.9998     9.0000    10.0000     5.0000    14.0000    16.0000     5.0000    10.0000    16.0000    -0.0005     0.0005   159.4164   -41.1662     2.9928    29.9503     2.0000     1.0000     5.0003     0.000
     72     1.5000     0.0000     1.5000    14.9999    14.7000     48.555      4.000 150721.000     60.000    46.9938   -20.0773   -28.6399   120.0962    -0.1480    -3.0001   -49.8518     0.0000     0.0000     0.0000     1.0000     5.0000   300.0000   -16.0551    51.8048     1.0010    -2.9998     9.0000    10.0000     5.0000    14.0000    16.0000     5.0000    10.0000    16.0000    -0.0005     0.0005   159.4164   -41.1662     2.9928    29.6999     2.0000     1.0000     5.0012     0.000
     73     1.5000     0.0000     1.5000    14.7499    14.7000     48.774      5.000 150721.000     60.000    47.1929   -20.0773   -28.7638   120.0962    -0.1480    -3.0001   -49.6254     0.0000     0.0000     0.0000     1.0000     5.0000   300.0000   -16.2447    52.0493     1.0010    -2.9998     9.0000    10.0000     5.0000    14.0000    16.0000     5.0000    10.0000    16.0000    -0.0005     0.0005   159.4164   -41.1662     2.9927    29.4500     2.0000     1.0000     4.9995     0.000
     74     1.5000     0.0000     1.5000    14.4998    14.7000     48.339      6.000 150721.000     60.000    47.3944   -20.0773   -28.8894   120.0962    -0.1480    -3.0001   -49.3982     0.0000     0.0000     0.0000     1.0000     5.0000   300.0000   -16.4346    52.2972     1.0010    -2.9998     9.0000    10.0000     5.0000    14.0000    16.0000     5.0000    10.0000    16.0000    -0.0005     0.0005   159.4164   -41.1662     2.9927    29.1998     2.0000     1.0000     4.9992     0.000
     75     1.5000     0.0000     1.5000    14.2506    14.7000     47.398      6.000 150721.000     60.000    47.5986   -20.0773   -29.0161   120.0962    -0.1480    -3.0001   -49.1702     0.0000     0.0000     0.0000     1.0000     5.0000   300.0000   -16.6240    52.5438     1.0010    -2.9998     9.0000    10.0000     5.0000    14.0000    16.0000     5.0000    10.0000    16.0000    -0.0005     0.0005   159.4164   -41.1662     2.9927    28.9507     2.0000     1.0000     5.0003     0.000
     76     1.5000     0.0000     1.5000    13.9994    14.7000     46.830      2.000 150721.000     60.000    47.8055   -20.0773   -29.1456   120.0962    -0.1480    -3.0001   -48.9414     0.0000     0.0000     0.0000     1.0000     5.0000   300.0000   -16.8135    52.7946     1.0010    -2.9998     9.0000    10.0000     5.0000    14.0000    16.0000     5.0000    10.0000    16.0000    -0.0005     0.0005   159.4164   -41.1662     2.9928    28.6995     2.0000     1.0000     5.0018     0.000
     77     1.5000     0.0000     1.5000    13.7502    14.7000     45.978      5.000 150721.000     60.000    48.0151   -20.0773   -29.2759   120.0962    -0.1480    -3.0001   -48.7117     0.0000     0.0000     0.0000     1.0000     5.0000   300.0000   -17.0025    53.0409     1.0010    -2.9998     9.0000    10.0000     5.0000    14.0000    16.0000     5.0000    10.0000    16.0000    -0.0005     0.0005   159.4164   -41.1662     2.9927    28.4502     2.0000     1.0000     4.9993     0.000
     78     1.5000     0.0000     1.5000    13.5003    14.7000     45.613      5.000 150721.000     60.000    48.2274   -20.0773   -29.4082   120.0962    -0.1480    -3.0001   -48.4811     0.0000     0.0000     0.0000     1.0000     5.0000   300.0000   -17.1924    53.2905     1.0010    -2.9998     9.0000    10.0000     5.0000    14.0000    16.0000     5.0000    10.0000    16.0000    -0.0005     0.0005   159.4164   -41.1662     2.9928    28.2003     2.0000     1.0000     5.0007     0.000
     79     1.5000     0.0000     1.5000    13.2497    14.7000     45.977      5.000 150721.000     60.000    48.4427   -20.0773   -29.5428   120.0962    -0.1480    -3.0001   -48.2497     0.0000     0.0000     0.0000     1.0000     5.0000   300.0000   -17.3816    53.5405     1.0010    -2.9998     9.0000    10.0000     5.0000    14.0000    16.0000     5.0000    10.0000    16.0000    -0.0005     0.0005   159.4164   -41.1662     2.9927    27.9497     2.0000     1.0000     4.9998     0.000
     80     1.5000     0.0000     1.5000    12.9999    14.7000     45.823      8.000 150721.000     60.000    48.6608   -20.0773   -29.6787   120.0962    -0.1480    -3.0001   -48.0174     0.0000     0.0000     0.0000     1.0000     5.0000   300.0000   -17.5709    53.7918     1.0010    -2.9998     9.0000    10.0000     5.0000    14.0000    16.0000     5.0000    10.0000    16.0000    -0.0005     0.0005   159.4164   -41.1662     2.9928    27.7000     2.0000     1.0000     5.0008     0.000
     81     1.5000     0.0000     1.5000    12.7500    14.7000     46.745      3.000 150721.000     60.000    48.8819   -20.0773   -29.8166   120.0962    -0.1480    -3.0001   -47.7842     0.0000     0.0000     0.0000     1.0000     5.0000   300.0000   -17.7602    54.0418     1.0010    -2.9998     9.0000    10.0000     5.0000    14.0000    16.0000     5.0000    10.0000    16.0000    -0.0005     0.0005   159.4164   -41.1662     2.9928    27.4500     2.0000     1.0000     4.9998     0.000
     82     1.5000     0.0000     1.5000    12.4999    14.7000     47.681      9.000 150721.000     60.000    49.1060   -20.0773   -29.9566   120.0962    -0.1480    -3.0001   -47.5501     0.0000     0.0000     0.0000     1.0000     5.0000   300.0000   -17.9495    54.2924     1.0010    -2.9998     9.0000    10.0000     5.0000    14.0000    16.0000     5.0000    10.0000    16.0000    -0.0005     0.0005   159.4164   -41.1662     2.9927    27.1999     2.0000     1.0000     4.9991     0.000
     83     1.5000     0.0000     1.5000    12.2503    14.7000     48.643     10.000 150721.000     60.000    49.3332   -20.0773   -30.0982   120.0962    -0.1480    -3.0001   -47.3151     0.0000     0.0000     0.0000     1.0000     5.0000   300.0000   -18.1390    54.5454     1.0010    -2.9998     9.0000    10.0000     5.0000    14.0000    16.0000     5.0000    10.0000    16.0000    -0.0005     0.0005   159.4164   -41.1662     2.9928    26.9504     2.0000     1.0000     4.9990     0.000
     84     1.5000     0.0000     1.5000    11.9997    14.7000     49.035     11.000 150721.000     60.000    49.5636   -20.0773   -30.2425   120.0962    -0.1480    -3.0001   -47.0791     0.0000     0.0000     0.0000     1.0000     5.0000   300.0000   -18.3276    54.7989     1.0010    -2.9998     9.0000    10.0000     5.0000    14.0000    16.0000     5.0000    10.0000    16.0000    -0.0005     0.0005   159.4164   -41.1662     2.9928    26.6997     2.0000     1.0000     4.9992     0.000
     85     1.5000     0.0000     1.5000    11.7499    14.7000     49.182     10.000 150721.000     60.000    49.7973   -20.0773   -30.3884   120.0962    -0.1480    -3.0001   -46.8422     0.0000     0.0000     0.0000     1.0000     5.0000   300.0000   -18.5173    55.0517     1.0010    -2.9998     9.0000    10.0000     5.0000    14.0000    16.0000     5.0000    10.0000    16.0000    -0.0005     0.0005   159.4164   -41.1662     2.9927    26.4499     2.0000     1.0000     4.9996     0.000
     86     1.5000     0.0000     1.5000    11.5002    14.7000     49.060      4.000 150721.000     60.000    50.0343   -20.0773   -30.5364   120.0962    -0.1480    -3.0001   -46.6044     0.0000     0.0000     0.0000     1.0000     5.0000   300.0000   -18.7065    55.3058     1.0010    -2.9998     9.0000    10.0000     5.0000    14.0000    16.0000     5.0000    10.0000    16.0000    -0.0005     0.0005   159.4164   -41.1662     2.9928    26.2002     2.0000     1.0000     4.9997     0.000
     87     1.5001     0.0000     1.5000    11.2500    14.7000     48.731     10.000 150721.000     60.000    50.2748   -20.0773   -30.6869   120.0962    -0.1480    -3.0001   -46.3655     0.0000     0.0000     0.0000     1.0000     5.0000   300.0000   -18.8957    55.5629     1.0010    -2.9998     9.0000    10.0000     5.0000    14.0000    16.0000     5.0000    10.0000    16.0000    -0.0005     0.0005   159.4164   -41.1662     2.9928    25.9500     2.0000     1.0000     4.9985     0.000
     88     1.5000     0.0000     1.5000    10.9999    14.7000     48.293      4.000 150721.000     60.000    50.5187   -20.0773   -30.8395   120.0962    -0.1480    -3.0001   -46.1257     0.0000     0.0000     0.0000     1.0000     5.0000   300.0000   -19.0847    55.8164     1.0010    -2.9998     9.0000    10.0000     5.0000    14.0000    16.0000     5.0000    10.0000    16.0000    -0.0005     0.0005   159.4164   -41.1662     2.9927    25.6999     2.0000     1.0000     5.0004     0.000
     89     1.5000     0.0000     1.5000    10.7500    14.7000     48.057      7.000 150721.000     60.000    50.7662   -20.0773   -30.9943   120.0962    -0.1480    -3.0001   -45.8849     0.0000     0.0000     0.0000     1.0000     5.0000   300.0000   -19.2746    56.0729     1.0010    -2.9998     9.0000    10.0000     5.0000    14.0000    16.0000     5.0000    10.0000    16.0000    -0.0005     0.0005   159.4164   -41.1662     2.9927    25.4501     2.0000     1.0000     5.0002     0.000
     90     1.5000     0.0000     1.5000    10.4999    14.7000     48.164      8.000 150721.000     60.000    51.0174   -20.0773   -31.1516   120.0962    -0.1480    -3.0001   -45.6430     0.0000     0.0000     0.0000     1.0000     5.0000   300.0000   -19.4635    56.3310     1.0010    -2.9998     9.0000    10.0000     5.0000    14.0000    16.0000     5.0000    10.0000    16.0000    -0.0005     0.0005   159.4164   -41.1662     2.9928    25.1999     2.0000     1.0000     5.0006     0.000
     91     1.5000     0.0000     1.5000    10.2503    14.7000     48.293      3.000 150721.000     60.000    51.2724   -20.0773   -31.3111   120.0962    -0.1480    -3.0001   -45.4002     0.0000     0.0000     0.0000     1.0000     5.0000   300.0000   -19.6528    56.5899     1.0010    -2.9998     9.0000    10.0000     5.0000    14.0000    16.0000     5.0000    10.0000    16.0000    -0.0005     0.0005   159.4164   -41.1662     2.9928    24.9503     2.0000     1.0000     4.9996     0.000
     92     1.5000     0.0000     1.5000    10.0002    14.7000     48.745      5.000 150721.000     60.000    51.5312   -20.0773   -31.4733   120.0962    -0.1480    -3.0001   -45.1562     0.0000     0.0000     0.0000     1.0000     5.0000   300.0000   -19.8422    56.8460     1.0010    -2.9998     9.0000    10.0000     5.0000    14.0000    16.0000     5.0000    10.0000    16.0000    -0.0005     0.0005   159.4164   -41.1662     2.9927    24.7002     2.0000     1.0000     5.0005     0.000
     93     1.5000     0.0000     1.5000     9.7497    14.7000     49.707      8.000 150721.000     60.000    51.7940   -20.0773   -31.6383   120.0962    -0.1480    -3.0001   -44.9112     0.0000     0.0000     0.0000     1.0000     5.0000   300.0000   -20.0317    57.1080     1.0010    -2.9998     9.0000    10.0000     5.0000    14.0000    16.0000     5.0000    10.0000    16.0000    -0.0005     0.0005   159.4164   -41.1662     2.9927    24.4497     2.0000     1.0000     5.0010     0.000
     94     1.5001     0.0000     1.5000     9.4999    14.7000     50.698      5.000 150721.000     60.000    52.0609   -20.0773   -31.8055   120.0962    -0.1480    -3.0001   -44.6652     0.0000     0.0000     0.0000     1.0000     5.0000   300.0000   -20.2213    57.3716     1.0010    -2.9998     9.0000    10.0000     5.0000    14.0000    16.0000     5.0000    10.0000    16.0000    -0.0005     0.0005   159.4164   -41.1662     2.9929    24.1999     2.0000     1.0000     5.0007     0.000
     95     1.5000     0.0000     1.5000     9.2503    14.7000     51.209     12.000 150721.000     60.000    52.3319   -20.0773   -31.9752   120.0962    -0.1480    -3.0001   -44.4180     0.0000     0.0000     0.0000     1.0000     5.0000   300.0000   -20.4108    57.6318     1.0010    -2.9998     9.0000    10.0000     5.0000    14.0000    16.0000     5.0000    10.0000    16.0000    -0.0005     0.0005   159.4164   -41.1662     2.9928    23.9503     2.0000     1.0000     4.9999     0.000
     96     1.5000     0.0000     1.5000     8.9999    14.7000     50.823      6.000 150721.000     60.000    52.6071   -20.0773   -32.1482   120.0962    -0.1480    -3.0001   -44.1697     0.0000     0.0000     0.0000     1.0000     5.0000   300.0000   -20.6002    57.8924     1.0010    -2.9998     9.0000    10.0000     5.0000    14.0000    16.0000     5.0000    10.0000    16.0000    -0.0005     0.0005   159.4164   -41.1662     2.9927    23.6999     2.0000     1.0000     4.9980     0.000
# Sum of Counts = 627
# Center of Mass = 21.245193+/-1.233727
# Full Width Half-Maximum = 14.370640+/-0.553096
# 9:30:08 AM  9/11/2024   scan completed.
