# scan = 83
# date = 2/24/2025
# time = 9:29:15 PM
# proposal = 34324
# experiment = Advanced Silicon Fabrication Techniques in Neutron Interferometry
# experiment_number = 442
# command = scan h 0 k 0 l 6.05 5.95 0.01 preset time 1
# builtin_command = scan h 0 k 0 l 6.05 5.95 0.01 preset time 1
# users = Davis Last, Dusan Sarenac, Joseph Cotter, Jeremy Paster, Owen Lailey, Michael Huber, Dmitry Pushin, Naume Shentevski
# local_contact = Tao Hong
# scan_title = (100) align
# monochromator = PG002
# analyzer = Pg002
# sense = -+-
# collimation = 48-40-40-120
# samplename = Si
# sampletype = crystal
# samplemosaic = 30.000000
# latticeconstants = 5.057700,5.057700,24.721009,90.000000,90.000000,120.000000
# ubmatrix = -0.011013,-0.007232,-0.040403,-0.227904,-0.107052,0.001938,0.007862,0.201522,-0.000420
# mode = 0
# plane_normal = -0.008727,0.034898,0.999353
# ubconf = UB24Feb2025_91146PM.ini
# preset_type = normal 
# preset_channel = time
# preset_value = 1.000000
# def_x = l
# def_y = detector
# col_headers = 
#   Pt.          h          k          l       time   detector    monitor        mcu focal_length         m1         m2       marc     mtrans     mfocus         s1         s2        sgl        sgu        bbb        bbl        bbr        bbt        bab        bal        bar        bat        stl        stu         a1         a2     afocus        qm1        qm2        qm3        qm4        qm5        qm6        qm7        qm8        xm1        xm2        xm3        xm4        xm5        xm6        xm7        xm8          q         ei         ef          e
      1    -0.0000     0.0000     6.0500      1.000    892.000   2257.000      1.026    98.4288   142.0306   -75.9387     0.4200    -1.0000    28.2560    33.1075    60.6836     0.5000     2.0000     0.0000     0.0000     0.0000     0.0000    17.0000     8.0000     8.0000    17.0000     0.0000     0.0000   142.0306   -75.9388     0.0000     0.0000     0.0000     0.0000     0.0000     0.0000     0.0000     0.0000     0.0000     0.0000     0.0000     0.0000     0.0000     0.0000     0.0000     0.0000     0.0000     1.5377     4.8000     4.8000     0.000
      2    -0.0001    -0.0000     6.0400      1.000   1177.000   2236.000      1.016    98.4288   142.0306   -75.9387     0.4200    -1.0000    28.2560    33.0550    60.5727     0.5000     2.0000     0.0000     0.0000     0.0000     0.0000    17.0000     8.0000     8.0000    17.0000     0.0000     0.0000   142.0306   -75.9388     0.0000     0.0000     0.0000     0.0000     0.0000     0.0000     0.0000     0.0000     0.0000     0.0000     0.0000     0.0000     0.0000     0.0000     0.0000     0.0000     0.0000     1.5351     4.8000     4.8000     0.000
      3    -0.0000    -0.0000     6.0300      1.000   1899.000   2064.000      0.938    98.4288   142.0306   -75.9387     0.4200    -1.0000    28.2560    32.9975    60.4620     0.5000     2.0000     0.0000     0.0000     0.0000     0.0000    17.0000     8.0000     8.0000    17.0000     0.0000     0.0000   142.0306   -75.9388     0.0000     0.0000     0.0000     0.0000     0.0000     0.0000     0.0000     0.0000     0.0000     0.0000     0.0000     0.0000     0.0000     0.0000     0.0000     0.0000     0.0000     1.5326     4.8000     4.8000     0.000
      4    -0.0000    -0.0000     6.0200      1.000   2832.000   2237.000      1.017    98.4288   142.0306   -75.9387     0.4200    -1.0000    28.2560    32.9425    60.3512     0.5000     2.0000     0.0000     0.0000     0.0000     0.0000    17.0000     8.0000     8.0000    17.0000     0.0000     0.0000   142.0306   -75.9388     0.0000     0.0000     0.0000     0.0000     0.0000     0.0000     0.0000     0.0000     0.0000     0.0000     0.0000     0.0000     0.0000     0.0000     0.0000     0.0000     0.0000     1.5301     4.8000     4.8000     0.000
      5    -0.0000     0.0000     6.0100      1.000   3410.000   2160.000      0.982    98.4288   142.0306   -75.9387     0.4200    -1.0000    28.2560    32.8875    60.2406     0.5000     2.0000     0.0000     0.0000     0.0000     0.0000    17.0000     8.0000     8.0000    17.0000     0.0000     0.0000   142.0306   -75.9388     0.0000     0.0000     0.0000     0.0000     0.0000     0.0000     0.0000     0.0000     0.0000     0.0000     0.0000     0.0000     0.0000     0.0000     0.0000     0.0000     0.0000     1.5275     4.8000     4.8000     0.000
      6     0.0000    -0.0000     6.0000      1.000   3563.000   2206.000      1.003    98.4288   142.0306   -75.9387     0.4200    -1.0000    28.2560    32.8275    60.1300     0.5000     2.0000     0.0000     0.0000     0.0000     0.0000    17.0000     8.0000     8.0000    17.0000     0.0000     0.0000   142.0306   -75.9388     0.0000     0.0000     0.0000     0.0000     0.0000     0.0000     0.0000     0.0000     0.0000     0.0000     0.0000     0.0000     0.0000     0.0000     0.0000     0.0000     0.0000     1.5250     4.8000     4.8000     0.000
      7     0.0015    -0.0031     5.9900      0.000      0.000      0.000      0.000    98.4288   142.0306   -75.9387     0.4200    -1.0000    28.2560    32.7775    60.0195     0.6453     2.0000     0.0000     0.0000     0.0000     0.0000    17.0000     8.0000     8.0000    17.0000     0.0000     0.0000   142.0306   -75.9388     0.0000     0.0000     0.0000     0.0000     0.0000     0.0000     0.0000     0.0000     0.0000     0.0000     0.0000     0.0000     0.0000     0.0000     0.0000     0.0000     0.0000     1.5224     4.8000     4.8000     0.000
# Sum of Counts = 13773
# Center of Mass = 6.017381+/-0.072512
# Full Width Half-Maximum = 0.030175+/-0.056926
# 9:29:37 PM  2/24/2025   scan stopped!!
