# scan = 50
# date = 9/11/2024
# time = 11:48:25 AM
# proposal = 32816
# experiment = Magnetic order in epitaxial hole-doped FeSn kagome films
# experiment_number = 1034
# command = scan h 0 k 0 l 5.75 6.25 0.0025 preset mcu 1 
# builtin_command = scan h 0 k 0 l 5.75 6.25 0.0025 preset mcu 1
# users = Rajesh Dutta, Steven May, Tarush Tandon, Tessa Tucker, Prajwal Laxmeesha
# local_contact = A. Aczel
# scan_title = FeSn film PML315 + PML316, (0 0 6) substrate structural peak, T=305.005
# monochromator = PG002
# analyzer = Pg002
# sense = +-+
# collimation = 40-40-40-80
# samplename = FeSn film on Al2O3 substrate 
# sampletype = crystal
# samplemosaic = 30.000000
# latticeconstants = 4.765809,4.765809,12.990667,90.000000,90.000000,120.000000
# ubmatrix = -0.004343,0.006219,0.076904,-0.208765,-0.210871,0.000374,0.122891,-0.119158,0.003353
# mode = 0
# plane_normal = -0.043593,0.008692,0.999012
# ubconf = UB11Sep2024_112635AM.ini
# preset_type = normal 
# preset_channel = mcu
# preset_value = 1.000000
# def_x = l
# def_y = detector
# col_headers = 
#   Pt.          h          k          l       time   detector    monitor        mcu         m2         s1         s2        sgl        sgu   slitb_bt   slitb_lf   slitb_rt   slitb_tp   slita_bt   slita_lf   slita_rt   slita_tp        stl        stu         a1         a2          q         ei         ef          e        vti     sample      spare       temp     temp_2
      1    -0.0001    -0.0001     5.7494      0.985      0.000  23101.000      1.000    41.5367   -32.0304   -63.5406     2.4985     0.4985    27.0000     7.0000     7.0000    25.0000    27.0000     7.0000     7.0000    25.0000    -6.0000    -0.9990    20.7706    41.5368     2.7808    14.4503    14.4502     0.0001   299.9730   304.9260     0.0000   300.0000   300.000
      2    -0.0000    -0.0000     5.7525      0.999      2.000  23101.000      1.000    41.5367   -32.0459   -63.5786     2.4985     0.4985    27.0000     7.0000     7.0000    25.0000    27.0000     7.0000     7.0000    25.0000    -6.0000    -0.9990    20.7706    41.5368     2.7823    14.4503    14.4502     0.0001   299.9680   304.9120     0.0000   300.0000   300.000
      3    -0.0000    -0.0000     5.7550      0.993      2.000  23101.000      1.000    41.5367   -32.0613   -63.6097     2.4985     0.4985    27.0000     7.0000     7.0000    25.0000    27.0000     7.0000     7.0000    25.0000    -6.0000    -0.9990    20.7706    41.5368     2.7835    14.4503    14.4502     0.0001   299.9660   304.8970     0.0000   300.0000   300.000
      4     0.0000     0.0000     5.7575      0.991      6.000  23101.000      1.000    41.5367   -32.0767   -63.6409     2.4985     0.4985    27.0000     7.0000     7.0000    25.0000    27.0000     7.0000     7.0000    25.0000    -6.0000    -0.9990    20.7706    41.5368     2.7847    14.4503    14.4502     0.0001   299.9690   304.8830     0.0000   300.0000   300.000
      5     0.0000     0.0000     5.7600      0.998      3.000  23101.000      1.000    41.5367   -32.0922   -63.6715     2.4985     0.4985    27.0000     7.0000     7.0000    25.0000    27.0000     7.0000     7.0000    25.0000    -6.0000    -0.9990    20.7705    41.5368     2.7859    14.4503    14.4502     0.0001   299.9700   304.8670     0.0000   300.0000   300.000
      6     0.0000     0.0000     5.7625      0.991      7.000  23101.000      1.000    41.5367   -32.1076   -63.7028     2.4985     0.4985    27.0000     7.0000     7.0000    25.0000    27.0000     7.0000     7.0000    25.0000    -6.0000    -0.9990    20.7705    41.5368     2.7872    14.4503    14.4502     0.0001   299.9760   304.8530     0.0000   300.0000   300.000
      7     0.0000     0.0000     5.7650      0.992     12.000  23101.000      1.000    41.5367   -32.1231   -63.7337     2.4985     0.4985    27.0000     7.0000     7.0000    25.0000    27.0000     7.0000     7.0000    25.0000    -6.0000    -0.9990    20.7705    41.5368     2.7884    14.4503    14.4502     0.0001   299.9800   304.8360     0.0000   300.0000   300.000
      8     0.0000     0.0000     5.7676      0.994      7.000  23101.000      1.000    41.5367   -32.1385   -63.7649     2.4985     0.4985    27.0000     7.0000     7.0000    25.0000    27.0000     7.0000     7.0000    25.0000    -6.0000    -0.9990    20.7706    41.5368     2.7896    14.4503    14.4502     0.0001   299.9720   304.8220     0.0000   300.0000   300.000
      9     0.0000     0.0000     5.7701      0.994      5.000  23101.000      1.000    41.5367   -32.1540   -63.7958     2.4985     0.4985    27.0000     7.0000     7.0000    25.0000    27.0000     7.0000     7.0000    25.0000    -6.0000    -0.9990    20.7706    41.5368     2.7908    14.4503    14.4502     0.0001   299.9720   304.8050     0.0000   300.0000   300.000
     10     0.0000     0.0000     5.7725      0.981      5.000  23101.000      1.000    41.5367   -32.1694   -63.8263     2.4985     0.4985    27.0000     7.0000     7.0000    25.0000    27.0000     7.0000     7.0000    25.0000    -6.0000    -0.9990    20.7705    41.5368     2.7920    14.4503    14.4502     0.0001   299.9750   304.7920     0.0000   300.0000   300.000
     11     0.0000     0.0000     5.7750      0.989      7.000  23101.000      1.000    41.5367   -32.1849   -63.8575     2.4985     0.4985    27.0000     7.0000     7.0000    25.0000    27.0000     7.0000     7.0000    25.0000    -6.0000    -0.9990    20.7705    41.5368     2.7932    14.4503    14.4502     0.0001   299.9820   304.7780     0.0000   300.0000   300.000
     12    -0.0000    -0.0000     5.7775      0.993      9.000  23101.000      1.000    41.5367   -32.2003   -63.8877     2.4985     0.4985    27.0000     7.0000     7.0000    25.0000    27.0000     7.0000     7.0000    25.0000    -6.0000    -0.9990    20.7705    41.5368     2.7944    14.4503    14.4502     0.0001   299.9840   304.7640     0.0000   300.0000   300.000
     13     0.0000     0.0000     5.7800      1.001     14.000  23101.000      1.000    41.5367   -32.2158   -63.9190     2.4985     0.4985    27.0000     7.0000     7.0000    25.0000    27.0000     7.0000     7.0000    25.0000    -6.0000    -0.9990    20.7705    41.5368     2.7956    14.4503    14.4502     0.0001   299.9790   304.7500     0.0000   300.0000   300.000
     14    -0.0000    -0.0000     5.7825      0.992     13.000  23101.000      1.000    41.5367   -32.2313   -63.9494     2.4985     0.4985    27.0000     7.0000     7.0000    25.0000    27.0000     7.0000     7.0000    25.0000    -6.0000    -0.9990    20.7705    41.5368     2.7968    14.4503    14.4502     0.0001   299.9800   304.7330     0.0000   300.0000   300.000
     15     0.0000     0.0000     5.7850      0.994      7.000  23101.000      1.000    41.5367   -32.2467   -63.9806     2.4985     0.4985    27.0000     7.0000     7.0000    25.0000    27.0000     7.0000     7.0000    25.0000    -6.0000    -0.9990    20.7705    41.5368     2.7980    14.4503    14.4502     0.0001   299.9840   304.7200     0.0000   300.0000   300.000
     16     0.0000     0.0000     5.7876      0.992     11.000  23101.000      1.000    41.5367   -32.2622   -64.0123     2.4985     0.4985    27.0000     7.0000     7.0000    25.0000    27.0000     7.0000     7.0000    25.0000    -6.0000    -0.9990    20.7705    41.5368     2.7993    14.4503    14.4502     0.0001   299.9870   304.7030     0.0000   300.0000   300.000
     17     0.0000     0.0000     5.7900      0.999     15.000  23101.000      1.000    41.5367   -32.2777   -64.0428     2.4985     0.4985    27.0000     7.0000     7.0000    25.0000    27.0000     7.0000     7.0000    25.0000    -6.0000    -0.9990    20.7706    41.5368     2.8005    14.4503    14.4502     0.0000   299.9950   304.6900     0.0000   300.0000   300.000
     18     0.0000     0.0000     5.7925      0.987     25.000  23101.000      1.000    41.5367   -32.2931   -64.0738     2.4985     0.4985    27.0000     7.0000     7.0000    25.0000    27.0000     7.0000     7.0000    25.0000    -6.0000    -0.9990    20.7705    41.5368     2.8017    14.4503    14.4502     0.0000   300.0100   304.6740     0.0000   300.0000   300.000
     19     0.0000     0.0000     5.7951      0.991     22.000  23101.000      1.000    41.5367   -32.3086   -64.1057     2.4985     0.4985    27.0000     7.0000     7.0000    25.0000    27.0000     7.0000     7.0000    25.0000    -6.0000    -0.9990    20.7705    41.5367     2.8029    14.4503    14.4503     0.0000   300.0120   304.6600     0.0000   300.0000   300.000
     20    -0.0000    -0.0000     5.7975      0.987     28.000  23101.000      1.000    41.5367   -32.3240   -64.1351     2.4985     0.4985    27.0000     7.0000     7.0000    25.0000    27.0000     7.0000     7.0000    25.0000    -6.0000    -0.9990    20.7705    41.5368     2.8041    14.4503    14.4502     0.0001   300.0070   304.6440     0.0000   300.0000   300.000
     21    -0.0000    -0.0000     5.7999      0.989     27.000  23101.000      1.000    41.5367   -32.3396   -64.1653     2.4985     0.4985    27.0000     7.0000     7.0000    25.0000    27.0000     7.0000     7.0000    25.0000    -6.0000    -0.9990    20.7705    41.5368     2.8052    14.4503    14.4502     0.0000   300.0100   304.6300     0.0000   300.0000   300.000
     22    -0.0000    -0.0000     5.8025      0.994     23.000  23101.000      1.000    41.5367   -32.3550   -64.1968     2.4985     0.4985    27.0000     7.0000     7.0000    25.0000    27.0000     7.0000     7.0000    25.0000    -6.0000    -0.9990    20.7705    41.5367     2.8065    14.4503    14.4503     0.0000   300.0140   304.6140     0.0000   300.0000   300.000
     23    -0.0000    -0.0000     5.8049      0.978     32.000  23101.000      1.000    41.5367   -32.3705   -64.2275     2.4985     0.4985    27.0000     7.0000     7.0000    25.0000    27.0000     7.0000     7.0000    25.0000    -6.0000    -0.9990    20.7706    41.5368     2.8077    14.4503    14.4502     0.0000   300.0120   304.6010     0.0000   300.0000   300.000
     24    -0.0000    -0.0000     5.8075      0.985     28.000  23101.000      1.000    41.5367   -32.3860   -64.2588     2.4985     0.4985    27.0000     7.0000     7.0000    25.0000    27.0000     7.0000     7.0000    25.0000    -6.0000    -0.9990    20.7705    41.5368     2.8089    14.4503    14.4502     0.0001   300.0090   304.5870     0.0000   300.0000   300.000
     25     0.0000     0.0000     5.8100      0.983     34.000  23101.000      1.000    41.5367   -32.4015   -64.2906     2.4985     0.4985    27.0000     7.0000     7.0000    25.0000    27.0000     7.0000     7.0000    25.0000    -6.0000    -0.9990    20.7705    41.5368     2.8101    14.4503    14.4502     0.0001   300.0130   304.5740     0.0000   300.0000   300.000
     26    -0.0000    -0.0000     5.8124      0.984     39.000  23101.000      1.000    41.5367   -32.4170   -64.3203     2.4985     0.4985    27.0000     7.0000     7.0000    25.0000    27.0000     7.0000     7.0000    25.0000    -6.0000    -0.9990    20.7705    41.5368     2.8113    14.4503    14.4502     0.0001   300.0130   304.5600     0.0000   300.0000   300.000
     27    -0.0000    -0.0000     5.8150      0.988     37.000  23101.000      1.000    41.5367   -32.4325   -64.3520     2.4985     0.4985    27.0000     7.0000     7.0000    25.0000    27.0000     7.0000     7.0000    25.0000    -6.0000    -0.9990    20.7705    41.5368     2.8125    14.4503    14.4502     0.0001   300.0120   304.5450     0.0000   300.0000   300.000
     28    -0.0000    -0.0000     5.8175      0.985     33.000  23101.000      1.000    41.5367   -32.4480   -64.3830     2.4985     0.4985    27.0000     7.0000     7.0000    25.0000    27.0000     7.0000     7.0000    25.0000    -6.0000    -0.9990    20.7705    41.5368     2.8137    14.4503    14.4502     0.0001   300.0120   304.5320     0.0000   300.0000   300.000
     29    -0.0000    -0.0000     5.8200      0.987     36.000  23101.000      1.000    41.5367   -32.4635   -64.4139     2.4985     0.4985    27.0000     7.0000     7.0000    25.0000    27.0000     7.0000     7.0000    25.0000    -6.0000    -0.9990    20.7705    41.5368     2.8149    14.4503    14.4502     0.0001   300.0130   304.5170     0.0000   300.0000   300.000
     30    -0.0000    -0.0000     5.8224      0.987     60.000  23101.000      1.000    41.5367   -32.4790   -64.4439     2.4985     0.4985    27.0000     7.0000     7.0000    25.0000    27.0000     7.0000     7.0000    25.0000    -6.0000    -0.9990    20.7705    41.5368     2.8161    14.4503    14.4502     0.0001   300.0000   304.5040     0.0000   300.0000   300.000
     31     0.0000     0.0000     5.8250      0.989     61.000  23101.000      1.000    41.5367   -32.4945   -64.4766     2.4985     0.4985    27.0000     7.0000     7.0000    25.0000    27.0000     7.0000     7.0000    25.0000    -6.0000    -0.9990    20.7705    41.5368     2.8174    14.4503    14.4502     0.0001   299.9850   304.4880     0.0000   300.0000   300.000
     32     0.0000     0.0000     5.8276      1.001     47.000  23101.000      1.000    41.5367   -32.5100   -64.5079     2.4985     0.4985    27.0000     7.0000     7.0000    25.0000    27.0000     7.0000     7.0000    25.0000    -6.0000    -0.9990    20.7705    41.5368     2.8186    14.4503    14.4502     0.0000   299.9830   304.4750     0.0000   300.0000   300.000
     33     0.0000     0.0000     5.8300      0.983     40.000  23101.000      1.000    41.5367   -32.5255   -64.5382     2.4985     0.4985    27.0000     7.0000     7.0000    25.0000    27.0000     7.0000     7.0000    25.0000    -6.0000    -0.9990    20.7705    41.5368     2.8198    14.4503    14.4502     0.0000   299.9910   304.4590     0.0000   300.0000   300.000
     34    -0.0000    -0.0000     5.8325      0.989     45.000  23101.000      1.000    41.5367   -32.5410   -64.5692     2.4985     0.4985    27.0000     7.0000     7.0000    25.0000    27.0000     7.0000     7.0000    25.0000    -6.0000    -0.9990    20.7705    41.5367     2.8210    14.4503    14.4503     0.0000   299.9930   304.4460     0.0000   300.0000   300.000
     35     0.0000     0.0000     5.8351      0.990     65.000  23101.000      1.000    41.5367   -32.5565   -64.6013     2.4985     0.4985    27.0000     7.0000     7.0000    25.0000    27.0000     7.0000     7.0000    25.0000    -6.0000    -0.9990    20.7705    41.5367     2.8222    14.4503    14.4503     0.0000   299.9910   304.4300     0.0000   300.0000   300.000
     36    -0.0000    -0.0000     5.8375      0.987     72.000  23101.000      1.000    41.5367   -32.5721   -64.6311     2.4985     0.4985    27.0000     7.0000     7.0000    25.0000    27.0000     7.0000     7.0000    25.0000    -6.0000    -0.9990    20.7705    41.5367     2.8234    14.4503    14.4503     0.0000   299.9910   304.4170     0.0000   300.0000   300.000
     37     0.0000     0.0000     5.8402      0.983     59.000  23101.000      1.000    41.5367   -32.5876   -64.6645     2.4985     0.4985    27.0000     7.0000     7.0000    25.0000    27.0000     7.0000     7.0000    25.0000    -6.0000    -0.9990    20.7705    41.5368     2.8247    14.4503    14.4502     0.0001   300.0020   304.4040     0.0000   300.0000   300.000
     38     0.0000     0.0000     5.8425      0.995     67.000  23101.000      1.000    41.5367   -32.6031   -64.6940     2.4985     0.4985    27.0000     7.0000     7.0000    25.0000    27.0000     7.0000     7.0000    25.0000    -6.0000    -0.9990    20.7705    41.5368     2.8259    14.4503    14.4502     0.0001   300.0030   304.3910     0.0000   300.0000   300.000
     39    -0.0000    -0.0000     5.8449      0.992     53.000  23101.000      1.000    41.5367   -32.6187   -64.7237     2.4985     0.4985    27.0000     7.0000     7.0000    25.0000    27.0000     7.0000     7.0000    25.0000    -6.0000    -0.9990    20.7705    41.5368     2.8270    14.4503    14.4502     0.0000   299.9990   304.3780     0.0000   300.0000   300.000
     40    -0.0000    -0.0000     5.8475      0.980     64.000  23101.000      1.000    41.5367   -32.6342   -64.7549     2.4985     0.4985    27.0000     7.0000     7.0000    25.0000    27.0000     7.0000     7.0000    25.0000    -6.0000    -0.9990    20.7705    41.5368     2.8282    14.4503    14.4502     0.0001   299.9950   304.3640     0.0000   300.0000   300.000
     41    -0.0000    -0.0000     5.8499      0.982     62.000  23101.000      1.000    41.5367   -32.6497   -64.7855     2.4985     0.4985    27.0000     7.0000     7.0000    25.0000    27.0000     7.0000     7.0000    25.0000    -6.0000    -0.9990    20.7705    41.5368     2.8294    14.4503    14.4502     0.0001   299.9900   304.3510     0.0000   300.0000   300.000
     42     0.0000     0.0000     5.8526      1.000     70.000  23101.000      1.000    41.5367   -32.6653   -64.8184     2.4985     0.4985    27.0000     7.0000     7.0000    25.0000    27.0000     7.0000     7.0000    25.0000    -6.0000    -0.9990    20.7705    41.5368     2.8307    14.4503    14.4502     0.0000   299.9870   304.3370     0.0000   300.0000   300.000
     43    -0.0000    -0.0000     5.8550      0.989     67.000  23101.000      1.000    41.5367   -32.6808   -64.8484     2.4985     0.4985    27.0000     7.0000     7.0000    25.0000    27.0000     7.0000     7.0000    25.0000    -6.0000    -0.9990    20.7705    41.5368     2.8319    14.4503    14.4502     0.0000   299.9870   304.3230     0.0000   300.0000   300.000
     44    -0.0000    -0.0000     5.8575      0.989     60.000  23101.000      1.000    41.5367   -32.6963   -64.8795     2.4985     0.4985    27.0000     7.0000     7.0000    25.0000    27.0000     7.0000     7.0000    25.0000    -6.0000    -0.9990    20.7705    41.5368     2.8331    14.4503    14.4502     0.0001   299.9860   304.3080     0.0000   300.0000   300.000
     45    -0.0000    -0.0000     5.8600      0.998     64.000  23101.000      1.000    41.5367   -32.7119   -64.9106     2.4985     0.4985    27.0000     7.0000     7.0000    25.0000    27.0000     7.0000     7.0000    25.0000    -6.0000    -0.9990    20.7705    41.5368     2.8343    14.4503    14.4502     0.0000   299.9890   304.2960     0.0000   300.0000   300.000
     46     0.0000     0.0000     5.8625      0.990     58.000  23101.000      1.000    41.5367   -32.7274   -64.9425     2.4985     0.4985    27.0000     7.0000     7.0000    25.0000    27.0000     7.0000     7.0000    25.0000    -6.0000    -0.9990    20.7705    41.5368     2.8355    14.4503    14.4502     0.0000   299.9970   304.2800     0.0000   300.0000   300.000
     47    -0.0000    -0.0000     5.8650      0.999     56.000  23101.000      1.000    41.5367   -32.7430   -64.9731     2.4985     0.4985    27.0000     7.0000     7.0000    25.0000    27.0000     7.0000     7.0000    25.0000    -6.0000    -0.9990    20.7705    41.5368     2.8367    14.4503    14.4502     0.0000   299.9990   304.2680     0.0000   300.0000   300.000
     48    -0.0000    -0.0000     5.8675      0.988     61.000  23101.000      1.000    41.5367   -32.7585   -65.0037     2.4985     0.4985    27.0000     7.0000     7.0000    25.0000    27.0000     7.0000     7.0000    25.0000    -6.0000    -0.9990    20.7705    41.5368     2.8379    14.4503    14.4502     0.0001   299.9920   304.2530     0.0000   300.0000   300.000
     49     0.0000     0.0000     5.8701      0.993     67.000  23101.000      1.000    41.5367   -32.7741   -65.0361     2.4985     0.4985    27.0000     7.0000     7.0000    25.0000    27.0000     7.0000     7.0000    25.0000    -6.0000    -0.9990    20.7705    41.5367     2.8392    14.4503    14.4503     0.0000   299.9940   304.2400     0.0000   300.0000   300.000
     50    -0.0000    -0.0000     5.8725      0.999     69.000  23101.000      1.000    41.5367   -32.7896   -65.0663     2.4985     0.4985    27.0000     7.0000     7.0000    25.0000    27.0000     7.0000     7.0000    25.0000    -6.0000    -0.9990    20.7705    41.5367     2.8403    14.4503    14.4503     0.0000   299.9980   304.2280     0.0000   300.0000   300.000
     51    -0.0000    -0.0000     5.8749      1.000     66.000  23101.000      1.000    41.5367   -32.8052   -65.0967     2.4985     0.4985    27.0000     7.0000     7.0000    25.0000    27.0000     7.0000     7.0000    25.0000    -6.0000    -0.9990    20.7705    41.5367     2.8415    14.4503    14.4503     0.0000   299.9990   304.2150     0.0000   300.0000   300.000
     52     0.0000     0.0000     5.8775      0.995    107.000  23101.000      1.000    41.5367   -32.8207   -65.1291     2.4985     0.4985    27.0000     7.0000     7.0000    25.0000    27.0000     7.0000     7.0000    25.0000    -6.0000    -0.9990    20.7705    41.5368     2.8428    14.4503    14.4502     0.0001   299.9960   304.2030     0.0000   300.0000   300.000
     53     0.0000     0.0000     5.8800      0.989     80.000  23101.000      1.000    41.5367   -32.8363   -65.1603     2.4985     0.4985    27.0000     7.0000     7.0000    25.0000    27.0000     7.0000     7.0000    25.0000    -6.0000    -0.9990    20.7705    41.5368     2.8440    14.4503    14.4502     0.0000   299.9920   304.1890     0.0000   300.0000   300.000
     54     0.0000     0.0000     5.8825      0.980     91.000  23101.000      1.000    41.5367   -32.8519   -65.1909     2.4985     0.4985    27.0000     7.0000     7.0000    25.0000    27.0000     7.0000     7.0000    25.0000    -6.0000    -0.9990    20.7705    41.5368     2.8452    14.4503    14.4502     0.0000   299.9910   304.1770     0.0000   300.0000   300.000
     55     0.0000     0.0000     5.8851      0.991    124.000  23101.000      1.000    41.5367   -32.8675   -65.2229     2.4985     0.4985    27.0000     7.0000     7.0000    25.0000    27.0000     7.0000     7.0000    25.0000    -6.0000    -0.9990    20.7705    41.5368     2.8464    14.4503    14.4502     0.0000   299.9940   304.1620     0.0000   300.0000   300.000
     56     0.0000     0.0000     5.8876      0.986    129.000  23101.000      1.000    41.5367   -32.8830   -65.2550     2.4985     0.4985    27.0000     7.0000     7.0000    25.0000    27.0000     7.0000     7.0000    25.0000    -6.0000    -0.9990    20.7705    41.5368     2.8477    14.4503    14.4502     0.0001   300.0000   304.1500     0.0000   300.0000   300.000
     57     0.0000     0.0000     5.8900      0.988    164.000  23101.000      1.000    41.5367   -32.8986   -65.2844     2.4985     0.4985    27.0000     7.0000     7.0000    25.0000    27.0000     7.0000     7.0000    25.0000    -6.0000    -0.9990    20.7705    41.5368     2.8488    14.4503    14.4502     0.0001   300.0040   304.1360     0.0000   300.0000   300.000
     58    -0.0000    -0.0000     5.8925      0.994    206.000  23101.000      1.000    41.5367   -32.9142   -65.3150     2.4985     0.4985    27.0000     7.0000     7.0000    25.0000    27.0000     7.0000     7.0000    25.0000    -6.0000    -0.9990    20.7705    41.5368     2.8500    14.4503    14.4502     0.0001   300.0020   304.1230     0.0000   300.0000   300.000
     59    -0.0000    -0.0000     5.8950      0.987    290.000  23101.000      1.000    41.5367   -32.9298   -65.3461     2.4985     0.4985    27.0000     7.0000     7.0000    25.0000    27.0000     7.0000     7.0000    25.0000    -6.0000    -0.9990    20.7705    41.5368     2.8512    14.4503    14.4502     0.0001   299.9940   304.1090     0.0000   300.0000   300.000
     60     0.0000     0.0000     5.8976      0.977    374.000  23101.000      1.000    41.5367   -32.9454   -65.3791     2.4985     0.4985    27.0000     7.0000     7.0000    25.0000    27.0000     7.0000     7.0000    25.0000    -6.0000    -0.9990    20.7705    41.5368     2.8525    14.4503    14.4502     0.0000   299.9890   304.0960     0.0000   300.0000   300.000
     61     0.0000     0.0000     5.9001      0.986    534.000  23101.000      1.000    41.5367   -32.9609   -65.4098     2.4985     0.4985    27.0000     7.0000     7.0000    25.0000    27.0000     7.0000     7.0000    25.0000    -6.0000    -0.9990    20.7705    41.5368     2.8537    14.4503    14.4502     0.0001   299.9820   304.0820     0.0000   300.0000   300.000
     62     0.0000     0.0000     5.9025      0.985    721.000  23101.000      1.000    41.5367   -32.9765   -65.4408     2.4985     0.4985    27.0000     7.0000     7.0000    25.0000    27.0000     7.0000     7.0000    25.0000    -6.0000    -0.9990    20.7705    41.5368     2.8549    14.4503    14.4502     0.0000   299.9870   304.0700     0.0000   300.0000   300.000
     63     0.0000     0.0000     5.9051      0.990    938.000  23101.000      1.000    41.5367   -32.9921   -65.4721     2.4985     0.4985    27.0000     7.0000     7.0000    25.0000    27.0000     7.0000     7.0000    25.0000    -6.0000    -0.9990    20.7705    41.5367     2.8561    14.4503    14.4503     0.0000   299.9890   304.0580     0.0000   300.0000   300.000
     64     0.0000     0.0000     5.9076      0.987   1246.000  23101.000      1.000    41.5367   -33.0077   -65.5035     2.4985     0.4985    27.0000     7.0000     7.0000    25.0000    27.0000     7.0000     7.0000    25.0000    -6.0000    -0.9990    20.7705    41.5368     2.8573    14.4503    14.4502     0.0001   299.9850   304.0460     0.0000   300.0000   300.000
     65    -0.0000    -0.0000     5.9100      0.990   1564.000  23101.000      1.000    41.5367   -33.0233   -65.5336     2.4985     0.4985    27.0000     7.0000     7.0000    25.0000    27.0000     7.0000     7.0000    25.0000    -6.0000    -0.9990    20.7705    41.5368     2.8585    14.4503    14.4502     0.0000   299.9900   304.0340     0.0000   300.0000   300.000
     66     0.0000     0.0000     5.9126      0.990   2110.000  23101.000      1.000    41.5367   -33.0389   -65.5660     2.4985     0.4985    27.0000     7.0000     7.0000    25.0000    27.0000     7.0000     7.0000    25.0000    -6.0000    -0.9990    20.7705    41.5368     2.8597    14.4503    14.4502     0.0001   299.9870   304.0210     0.0000   300.0000   300.000
     67     0.0000     0.0000     5.9151      0.983   2609.000  23101.000      1.000    41.5367   -33.0545   -65.5980     2.4985     0.4985    27.0000     7.0000     7.0000    25.0000    27.0000     7.0000     7.0000    25.0000    -6.0000    -0.9990    20.7704    41.5368     2.8610    14.4503    14.4502     0.0001   299.9840   304.0090     0.0000   300.0000   300.000
     68    -0.0000    -0.0000     5.9175      0.990   3281.000  23101.000      1.000    41.5367   -33.0702   -65.6273     2.4985     0.4985    27.0000     7.0000     7.0000    25.0000    27.0000     7.0000     7.0000    25.0000    -6.0000    -0.9990    20.7705    41.5367     2.8621    14.4503    14.4503     0.0000   299.9850   303.9950     0.0000   300.0000   300.000
     69     0.0000     0.0000     5.9200      0.997   3979.000  23101.000      1.000    41.5367   -33.0857   -65.6586     2.4985     0.4985    27.0000     7.0000     7.0000    25.0000    27.0000     7.0000     7.0000    25.0000    -6.0000    -0.9990    20.7705    41.5368     2.8633    14.4503    14.4502     0.0001   299.9900   303.9830     0.0000   300.0000   300.000
     70    -0.0000    -0.0000     5.9225      0.995   4906.000  23101.000      1.000    41.5367   -33.1014   -65.6899     2.4985     0.4985    27.0000     7.0000     7.0000    25.0000    27.0000     7.0000     7.0000    25.0000    -6.0000    -0.9990    20.7705    41.5368     2.8645    14.4503    14.4502     0.0001   299.9890   303.9690     0.0000   300.0000   300.000
     71     0.0000     0.0000     5.9250      0.997   5710.000  23101.000      1.000    41.5367   -33.1170   -65.7214     2.4985     0.4985    27.0000     7.0000     7.0000    25.0000    27.0000     7.0000     7.0000    25.0000    -6.0000    -0.9990    20.7705    41.5368     2.8658    14.4503    14.4502     0.0001   299.9870   303.9580     0.0000   300.0000   300.000
     72    -0.0000    -0.0000     5.9274      0.983   6671.000  23101.000      1.000    41.5367   -33.1326   -65.7517     2.4985     0.4985    27.0000     7.0000     7.0000    25.0000    27.0000     7.0000     7.0000    25.0000    -6.0000    -0.9990    20.7705    41.5368     2.8669    14.4503    14.4502     0.0001   299.9880   303.9430     0.0000   300.0000   300.000
     73    -0.0000    -0.0000     5.9300      0.989   7563.000  23101.000      1.000    41.5367   -33.1482   -65.7834     2.4985     0.4985    27.0000     7.0000     7.0000    25.0000    27.0000     7.0000     7.0000    25.0000    -6.0000    -0.9990    20.7704    41.5368     2.8682    14.4503    14.4502     0.0001   299.9920   303.9320     0.0000   300.0000   300.000
     74    -0.0000    -0.0000     5.9325      0.994   8870.000  23101.000      1.000    41.5367   -33.1639   -65.8148     2.4985     0.4985    27.0000     7.0000     7.0000    25.0000    27.0000     7.0000     7.0000    25.0000    -6.0000    -0.9990    20.7705    41.5368     2.8694    14.4503    14.4502     0.0001   299.9980   303.9180     0.0000   300.0000   300.000
     75     0.0000     0.0000     5.9350      0.988   9759.000  23101.000      1.000    41.5367   -33.1795   -65.8464     2.4985     0.4985    27.0000     7.0000     7.0000    25.0000    27.0000     7.0000     7.0000    25.0000    -6.0000    -0.9990    20.7705    41.5368     2.8706    14.4503    14.4502     0.0000   300.0000   303.9060     0.0000   300.0000   300.000
     76    -0.0000    -0.0000     5.9373      0.992  11129.000  23101.000      1.000    41.5367   -33.1951   -65.8752     2.4985     0.4985    27.0000     7.0000     7.0000    25.0000    27.0000     7.0000     7.0000    25.0000    -6.0000    -0.9990    20.7705    41.5368     2.8717    14.4503    14.4502     0.0000   300.0010   303.8950     0.0000   300.0000   300.000
     77     0.0000     0.0000     5.9400      0.990  12453.000  23101.000      1.000    41.5367   -33.2107   -65.9086     2.4985     0.4985    27.0000     7.0000     7.0000    25.0000    27.0000     7.0000     7.0000    25.0000    -6.0000    -0.9990    20.7705    41.5368     2.8730    14.4503    14.4502     0.0001   300.0080   303.8830     0.0000   300.0000   300.000
     78     0.0000     0.0000     5.9425      0.982  13515.000  23101.000      1.000    41.5367   -33.2264   -65.9400     2.4985     0.4985    27.0000     7.0000     7.0000    25.0000    27.0000     7.0000     7.0000    25.0000    -6.0000    -0.9990    20.7704    41.5368     2.8742    14.4503    14.4502     0.0001   300.0060   303.8720     0.0000   300.0000   300.000
     79    -0.0000    -0.0000     5.9449      0.989  14977.000  23101.000      1.000    41.5367   -33.2420   -65.9701     2.4985     0.4985    27.0000     7.0000     7.0000    25.0000    27.0000     7.0000     7.0000    25.0000    -6.0000    -0.9990    20.7705    41.5368     2.8754    14.4503    14.4502     0.0000   300.0000   303.8590     0.0000   300.0000   300.000
     80    -0.0000    -0.0000     5.9475      0.986  15957.000  23101.000      1.000    41.5367   -33.2576   -66.0020     2.4985     0.4985    27.0000     7.0000     7.0000    25.0000    27.0000     7.0000     7.0000    25.0000    -6.0000    -0.9990    20.7705    41.5368     2.8766    14.4503    14.4502     0.0000   299.9980   303.8480     0.0000   300.0000   300.000
     81     0.0000     0.0000     5.9500      0.987  17481.000  23101.000      1.000    41.5367   -33.2733   -66.0342     2.4985     0.4985    27.0000     7.0000     7.0000    25.0000    27.0000     7.0000     7.0000    25.0000    -6.0000    -0.9990    20.7705    41.5367     2.8778    14.4503    14.4503     0.0000   300.0010   303.8350     0.0000   300.0000   300.000
     82     0.0000     0.0000     5.9525      0.987  18678.000  23101.000      1.000    41.5367   -33.2889   -66.0653     2.4985     0.4985    27.0000     7.0000     7.0000    25.0000    27.0000     7.0000     7.0000    25.0000    -6.0000    -0.9990    20.7705    41.5368     2.8791    14.4503    14.4502     0.0000   299.9970   303.8230     0.0000   300.0000   300.000
     83    -0.0000    -0.0000     5.9549      0.987  19878.000  23101.000      1.000    41.5367   -33.3046   -66.0952     2.4985     0.4985    27.0000     7.0000     7.0000    25.0000    27.0000     7.0000     7.0000    25.0000    -6.0000    -0.9990    20.7705    41.5368     2.8802    14.4503    14.4502     0.0001   299.9890   303.8100     0.0000   300.0000   300.000
     84     0.0000     0.0000     5.9576      0.982  20693.000  23101.000      1.000    41.5367   -33.3202   -66.1285     2.4985     0.4985    27.0000     7.0000     7.0000    25.0000    27.0000     7.0000     7.0000    25.0000    -6.0000    -0.9990    20.7704    41.5368     2.8815    14.4503    14.4502     0.0001   299.9920   303.7990     0.0000   300.0000   300.000
     85     0.0000     0.0000     5.9600      0.997  22323.000  23101.000      1.000    41.5367   -33.3359   -66.1593     2.4985     0.4985    27.0000     7.0000     7.0000    25.0000    27.0000     7.0000     7.0000    25.0000    -6.0000    -0.9990    20.7705    41.5368     2.8827    14.4503    14.4502     0.0001   299.9940   303.7850     0.0000   300.0000   300.000
     86     0.0000     0.0000     5.9625      0.997  23659.000  23101.000      1.000    41.5367   -33.3515   -66.1903     2.4985     0.4985    27.0000     7.0000     7.0000    25.0000    27.0000     7.0000     7.0000    25.0000    -6.0000    -0.9990    20.7704    41.5368     2.8839    14.4503    14.4502     0.0001   299.9940   303.7740     0.0000   300.0000   300.000
     87    -0.0000    -0.0000     5.9650      0.996  24855.000  23101.000      1.000    41.5367   -33.3672   -66.2210     2.4985     0.4985    27.0000     7.0000     7.0000    25.0000    27.0000     7.0000     7.0000    25.0000    -6.0000    -0.9990    20.7705    41.5368     2.8851    14.4503    14.4502     0.0000   299.9970   303.7600     0.0000   300.0000   300.000
     88     0.0000     0.0000     5.9675      1.000  26011.000  23101.000      1.000    41.5367   -33.3828   -66.2532     2.4985     0.4985    27.0000     7.0000     7.0000    25.0000    27.0000     7.0000     7.0000    25.0000    -6.0000    -0.9990    20.7705    41.5368     2.8863    14.4503    14.4502     0.0000   300.0030   303.7490     0.0000   300.0000   300.000
     89     0.0000     0.0000     5.9700      0.999  27457.000  23101.000      1.000    41.5367   -33.3985   -66.2847     2.4985     0.4985    27.0000     7.0000     7.0000    25.0000    27.0000     7.0000     7.0000    25.0000    -6.0000    -0.9990    20.7705    41.5368     2.8875    14.4503    14.4502     0.0000   300.0040   303.7390     0.0000   300.0000   300.000
     90    -0.0000    -0.0000     5.9725      0.991  27848.000  23101.000      1.000    41.5367   -33.4142   -66.3154     2.4985     0.4985    27.0000     7.0000     7.0000    25.0000    27.0000     7.0000     7.0000    25.0000    -6.0000    -0.9990    20.7705    41.5368     2.8887    14.4503    14.4502     0.0001   300.0010   303.7270     0.0000   300.0000   300.000
     91    -0.0000    -0.0000     5.9750      0.985  28489.000  23101.000      1.000    41.5367   -33.4299   -66.3469     2.4985     0.4985    27.0000     7.0000     7.0000    25.0000    27.0000     7.0000     7.0000    25.0000    -6.0000    -0.9990    20.7705    41.5368     2.8899    14.4503    14.4502     0.0000   299.9970   303.7160     0.0000   300.0000   300.000
     92     0.0000     0.0000     5.9775      0.996  29859.000  23101.000      1.000    41.5367   -33.4455   -66.3788     2.4985     0.4985    27.0000     7.0000     7.0000    25.0000    27.0000     7.0000     7.0000    25.0000    -6.0000    -0.9990    20.7705    41.5368     2.8912    14.4503    14.4502     0.0000   300.0030   303.7030     0.0000   300.0000   300.000
     93     0.0000     0.0000     5.9800      0.995  30511.000  23101.000      1.000    41.5367   -33.4612   -66.4097     2.4985     0.4985    27.0000     7.0000     7.0000    25.0000    27.0000     7.0000     7.0000    25.0000    -6.0000    -0.9990    20.7705    41.5368     2.8923    14.4503    14.4502     0.0001   300.0000   303.6930     0.0000   300.0000   300.000
     94    -0.0000    -0.0000     5.9825      0.986  30753.000  23101.000      1.000    41.5367   -33.4769   -66.4404     2.4985     0.4985    27.0000     7.0000     7.0000    25.0000    27.0000     7.0000     7.0000    25.0000    -6.0000    -0.9990    20.7705    41.5368     2.8935    14.4503    14.4502     0.0000   299.9950   303.6800     0.0000   300.0000   300.000
     95    -0.0000    -0.0000     5.9850      0.999  31559.000  23101.000      1.000    41.5367   -33.4925   -66.4721     2.4985     0.4985    27.0000     7.0000     7.0000    25.0000    27.0000     7.0000     7.0000    25.0000    -6.0000    -0.9990    20.7705    41.5368     2.8948    14.4503    14.4502     0.0000   299.9960   303.6690     0.0000   300.0000   300.000
     96     0.0000     0.0000     5.9875      1.002  31735.000  23101.000      1.000    41.5367   -33.5082   -66.5037     2.4985     0.4985    27.0000     7.0000     7.0000    25.0000    27.0000     7.0000     7.0000    25.0000    -6.0000    -0.9990    20.7705    41.5368     2.8960    14.4503    14.4502     0.0001   300.0000   303.6560     0.0000   300.0000   300.000
     97    -0.0000    -0.0000     5.9900      0.998  32004.000  23101.000      1.000    41.5367   -33.5239   -66.5348     2.4985     0.4985    27.0000     7.0000     7.0000    25.0000    27.0000     7.0000     7.0000    25.0000    -6.0000    -0.9990    20.7705    41.5367     2.8972    14.4503    14.4503     0.0000   300.0070   303.6460     0.0000   300.0000   300.000
     98    -0.0000    -0.0000     5.9924      0.988  31871.000  23101.000      1.000    41.5367   -33.5396   -66.5654     2.4985     0.4985    27.0000     7.0000     7.0000    25.0000    27.0000     7.0000     7.0000    25.0000    -6.0000    -0.9990    20.7705    41.5368     2.8983    14.4503    14.4502     0.0001   300.0030   303.6320     0.0000   300.0000   300.000
     99    -0.0000    -0.0000     5.9950      0.993  31908.000  23101.000      1.000    41.5367   -33.5553   -66.5977     2.4985     0.4985    27.0000     7.0000     7.0000    25.0000    27.0000     7.0000     7.0000    25.0000    -6.0000    -0.9990    20.7705    41.5368     2.8996    14.4503    14.4502     0.0000   300.0030   303.6210     0.0000   300.0000   300.000
    100    -0.0000    -0.0000     5.9975      0.989  31541.000  23101.000      1.000    41.5367   -33.5710   -66.6291     2.4985     0.4985    27.0000     7.0000     7.0000    25.0000    27.0000     7.0000     7.0000    25.0000    -6.0000    -0.9990    20.7705    41.5368     2.9008    14.4503    14.4502     0.0001   300.0110   303.6080     0.0000   300.0000   300.000
    101     0.0000     0.0000     6.0001      0.995  31463.000  23101.000      1.000    41.5367   -33.5867   -66.6619     2.4985     0.4985    27.0000     7.0000     7.0000    25.0000    27.0000     7.0000     7.0000    25.0000    -6.0000    -0.9990    20.7705    41.5368     2.9021    14.4503    14.4502     0.0000   300.0070   303.5980     0.0000   300.0000   300.000
    102     0.0000     0.0000     6.0025      0.988  31034.000  23101.000      1.000    41.5367   -33.6024   -66.6925     2.4985     0.4985    27.0000     7.0000     7.0000    25.0000    27.0000     7.0000     7.0000    25.0000    -6.0000    -0.9990    20.7705    41.5367     2.9032    14.4503    14.4503     0.0000   300.0100   303.5870     0.0000   300.0000   300.000
    103     0.0000     0.0000     6.0051      0.976  30213.000  23101.000      1.000    41.5367   -33.6181   -66.7244     2.4985     0.4985    27.0000     7.0000     7.0000    25.0000    27.0000     7.0000     7.0000    25.0000    -6.0000    -0.9990    20.7705    41.5368     2.9045    14.4503    14.4502     0.0000   300.0070   303.5760     0.0000   300.0000   300.000
    104    -0.0000    -0.0000     6.0075      0.997  30550.000  23101.000      1.000    41.5367   -33.6338   -66.7548     2.4985     0.4985    27.0000     7.0000     7.0000    25.0000    27.0000     7.0000     7.0000    25.0000    -6.0000    -0.9990    20.7705    41.5368     2.9056    14.4503    14.4502     0.0000   299.9970   303.5660     0.0000   300.0000   300.000
    105     0.0000     0.0000     6.0100      1.009  30072.000  23101.000      1.000    41.5367   -33.6495   -66.7866     2.4985     0.4985    27.0000     7.0000     7.0000    25.0000    27.0000     7.0000     7.0000    25.0000    -6.0000    -0.9990    20.7705    41.5368     2.9069    14.4503    14.4502     0.0000   300.0000   303.5540     0.0000   300.0000   300.000
    106     0.0000     0.0000     6.0126      0.995  29096.000  23101.000      1.000    41.5367   -33.6652   -66.8183     2.4985     0.4985    27.0000     7.0000     7.0000    25.0000    27.0000     7.0000     7.0000    25.0000    -6.0000    -0.9990    20.7705    41.5367     2.9081    14.4503    14.4503     0.0000   300.0030   303.5430     0.0000   300.0000   300.000
    107     0.0000     0.0000     6.0150      0.976  28053.000  23101.000      1.000    41.5367   -33.6809   -66.8491     2.4985     0.4985    27.0000     7.0000     7.0000    25.0000    27.0000     7.0000     7.0000    25.0000    -6.0000    -0.9990    20.7705    41.5368     2.9093    14.4503    14.4502     0.0000   300.0020   303.5310     0.0000   300.0000   300.000
    108     0.0000     0.0000     6.0175      0.985  27590.000  23101.000      1.000    41.5367   -33.6967   -66.8806     2.4985     0.4985    27.0000     7.0000     7.0000    25.0000    27.0000     7.0000     7.0000    25.0000    -6.0000    -0.9990    20.7705    41.5367     2.9105    14.4503    14.4503     0.0000   300.0000   303.5210     0.0000   300.0000   300.000
    109     0.0000     0.0000     6.0200      0.988  26900.000  23101.000      1.000    41.5367   -33.7124   -66.9121     2.4985     0.4985    27.0000     7.0000     7.0000    25.0000    27.0000     7.0000     7.0000    25.0000    -6.0000    -0.9990    20.7705    41.5368     2.9117    14.4503    14.4502     0.0001   300.0050   303.5080     0.0000   300.0000   300.000
    110     0.0000     0.0000     6.0225      0.989  26103.000  23101.000      1.000    41.5367   -33.7281   -66.9436     2.4985     0.4985    27.0000     7.0000     7.0000    25.0000    27.0000     7.0000     7.0000    25.0000    -6.0000    -0.9990    20.7705    41.5368     2.9129    14.4503    14.4502     0.0000   300.0010   303.4980     0.0000   300.0000   300.000
    111    -0.0000    -0.0000     6.0250      0.994  25173.000  23101.000      1.000    41.5367   -33.7438   -66.9744     2.4985     0.4985    27.0000     7.0000     7.0000    25.0000    27.0000     7.0000     7.0000    25.0000    -6.0000    -0.9990    20.7705    41.5368     2.9141    14.4503    14.4502     0.0001   299.9990   303.4850     0.0000   300.0000   300.000
    112     0.0000     0.0000     6.0276      0.987  24030.000  23101.000      1.000    41.5367   -33.7596   -67.0071     2.4985     0.4985    27.0000     7.0000     7.0000    25.0000    27.0000     7.0000     7.0000    25.0000    -6.0000    -0.9990    20.7705    41.5368     2.9153    14.4503    14.4502     0.0001   299.9950   303.4740     0.0000   300.0000   300.000
    113     0.0000     0.0000     6.0300      0.988  23087.000  23101.000      1.000    41.5367   -33.7753   -67.0382     2.4985     0.4985    27.0000     7.0000     7.0000    25.0000    27.0000     7.0000     7.0000    25.0000    -6.0000    -0.9990    20.7705    41.5368     2.9165    14.4503    14.4502     0.0000   299.9870   303.4620     0.0000   300.0000   300.000
    114     0.0000     0.0000     6.0325      0.988  22122.000  23101.000      1.000    41.5367   -33.7910   -67.0696     2.4985     0.4985    27.0000     7.0000     7.0000    25.0000    27.0000     7.0000     7.0000    25.0000    -6.0000    -0.9990    20.7705    41.5368     2.9177    14.4503    14.4502     0.0001   299.9900   303.4520     0.0000   300.0000   300.000
    115     0.0000     0.0000     6.0350      1.002  21236.000  23101.000      1.000    41.5367   -33.8068   -67.1012     2.4985     0.4985    27.0000     7.0000     7.0000    25.0000    27.0000     7.0000     7.0000    25.0000    -6.0000    -0.9990    20.7705    41.5367     2.9190    14.4503    14.4503     0.0000   299.9940   303.4420     0.0000   300.0000   300.000
    116     0.0000     0.0000     6.0375      0.999  19913.000  23101.000      1.000    41.5367   -33.8225   -67.1327     2.4985     0.4985    27.0000     7.0000     7.0000    25.0000    27.0000     7.0000     7.0000    25.0000    -6.0000    -0.9990    20.7705    41.5368     2.9202    14.4503    14.4502     0.0001   300.0030   303.4320     0.0000   300.0000   300.000
    117    -0.0000    -0.0000     6.0400      1.004  18901.000  23101.000      1.000    41.5367   -33.8383   -67.1636     2.4985     0.4985    27.0000     7.0000     7.0000    25.0000    27.0000     7.0000     7.0000    25.0000    -6.0000    -0.9990    20.7705    41.5368     2.9214    14.4503    14.4502     0.0001   300.0130   303.4210     0.0000   300.0000   300.000
    118    -0.0000    -0.0000     6.0425      0.982  17554.000  23101.000      1.000    41.5367   -33.8540   -67.1952     2.4985     0.4985    27.0000     7.0000     7.0000    25.0000    27.0000     7.0000     7.0000    25.0000    -6.0000    -0.9990    20.7705    41.5368     2.9226    14.4503    14.4502     0.0001   300.0070   303.4100     0.0000   300.0000   300.000
    119    -0.0000    -0.0000     6.0450      0.987  16227.000  23101.000      1.000    41.5367   -33.8698   -67.2262     2.4985     0.4985    27.0000     7.0000     7.0000    25.0000    27.0000     7.0000     7.0000    25.0000    -6.0000    -0.9990    20.7705    41.5368     2.9238    14.4503    14.4502     0.0001   299.9980   303.4000     0.0000   300.0000   300.000
    120    -0.0000    -0.0000     6.0475      0.992  15032.000  23101.000      1.000    41.5367   -33.8855   -67.2577     2.4985     0.4985    27.0000     7.0000     7.0000    25.0000    27.0000     7.0000     7.0000    25.0000    -6.0000    -0.9990    20.7704    41.5368     2.9250    14.4503    14.4502     0.0001   300.0020   303.3870     0.0000   300.0000   300.000
    121     0.0000     0.0000     6.0500      0.993  13983.000  23101.000      1.000    41.5367   -33.9013   -67.2903     2.4985     0.4985    27.0000     7.0000     7.0000    25.0000    27.0000     7.0000     7.0000    25.0000    -6.0000    -0.9990    20.7705    41.5368     2.9262    14.4503    14.4502     0.0000   300.0070   303.3780     0.0000   300.0000   300.000
    122    -0.0000    -0.0000     6.0524      0.993  12989.000  23101.000      1.000    41.5367   -33.9170   -67.3204     2.4985     0.4985    27.0000     7.0000     7.0000    25.0000    27.0000     7.0000     7.0000    25.0000    -6.0000    -0.9990    20.7705    41.5368     2.9274    14.4503    14.4502     0.0001   300.0070   303.3660     0.0000   300.0000   300.000
    123     0.0000     0.0000     6.0550      0.984  11642.000  23101.000      1.000    41.5367   -33.9328   -67.3530     2.4985     0.4985    27.0000     7.0000     7.0000    25.0000    27.0000     7.0000     7.0000    25.0000    -6.0000    -0.9990    20.7705    41.5368     2.9286    14.4503    14.4502     0.0001   300.0070   303.3560     0.0000   300.0000   300.000
    124    -0.0000    -0.0000     6.0575      0.989  10740.000  23101.000      1.000    41.5367   -33.9486   -67.3837     2.4985     0.4985    27.0000     7.0000     7.0000    25.0000    27.0000     7.0000     7.0000    25.0000    -6.0000    -0.9990    20.7705    41.5368     2.9298    14.4503    14.4502     0.0001   300.0010   303.3440     0.0000   300.0000   300.000
    125     0.0000     0.0000     6.0600      0.995   9539.000  23101.000      1.000    41.5367   -33.9643   -67.4162     2.4985     0.4985    27.0000     7.0000     7.0000    25.0000    27.0000     7.0000     7.0000    25.0000    -6.0000    -0.9990    20.7705    41.5368     2.9311    14.4503    14.4502     0.0001   299.9920   303.3340     0.0000   300.0000   300.000
    126    -0.0000    -0.0000     6.0625      0.990   8466.000  23101.000      1.000    41.5367   -33.9801   -67.4468     2.4985     0.4985    27.0000     7.0000     7.0000    25.0000    27.0000     7.0000     7.0000    25.0000    -6.0000    -0.9990    20.7705    41.5368     2.9322    14.4503    14.4502     0.0001   299.9920   303.3210     0.0000   300.0000   300.000
    127    -0.0000    -0.0000     6.0650      0.990   7402.000  23101.000      1.000    41.5367   -33.9959   -67.4787     2.4985     0.4985    27.0000     7.0000     7.0000    25.0000    27.0000     7.0000     7.0000    25.0000    -6.0000    -0.9990    20.7705    41.5368     2.9334    14.4503    14.4502     0.0001   299.9880   303.3120     0.0000   300.0000   300.000
    128    -0.0000    -0.0000     6.0674      0.993   6468.000  23101.000      1.000    41.5367   -34.0116   -67.5094     2.4985     0.4985    27.0000     7.0000     7.0000    25.0000    27.0000     7.0000     7.0000    25.0000    -6.0000    -0.9990    20.7705    41.5368     2.9346    14.4503    14.4502     0.0001   299.9790   303.3010     0.0000   300.0000   300.000
    129    -0.0000    -0.0000     6.0700      0.991   5509.000  23101.000      1.000    41.5367   -34.0274   -67.5417     2.4985     0.4985    27.0000     7.0000     7.0000    25.0000    27.0000     7.0000     7.0000    25.0000    -6.0000    -0.9990    20.7705    41.5368     2.9359    14.4503    14.4502     0.0001   299.9830   303.2920     0.0000   300.0000   300.000
    130    -0.0000    -0.0000     6.0724      0.982   4692.000  23101.000      1.000    41.5367   -34.0432   -67.5727     2.4985     0.4985    27.0000     7.0000     7.0000    25.0000    27.0000     7.0000     7.0000    25.0000    -6.0000    -0.9990    20.7705    41.5368     2.9370    14.4503    14.4502     0.0001   299.9950   303.2820     0.0000   300.0000   300.000
    131    -0.0000    -0.0000     6.0750      0.991   4002.000  23101.000      1.000    41.5367   -34.0590   -67.6049     2.4985     0.4985    27.0000     7.0000     7.0000    25.0000    27.0000     7.0000     7.0000    25.0000    -6.0000    -0.9990    20.7705    41.5368     2.9383    14.4503    14.4502     0.0001   299.9920   303.2710     0.0000   300.0000   300.000
    132    -0.0000    -0.0000     6.0774      0.998   3353.000  23101.000      1.000    41.5367   -34.0748   -67.6355     2.4985     0.4985    27.0000     7.0000     7.0000    25.0000    27.0000     7.0000     7.0000    25.0000    -6.0000    -0.9990    20.7705    41.5368     2.9395    14.4503    14.4502     0.0001   299.9910   303.2610     0.0000   300.0000   300.000
    133    -0.0000    -0.0000     6.0799      0.988   2740.000  23101.000      1.000    41.5367   -34.0906   -67.6671     2.4985     0.4985    27.0000     7.0000     7.0000    25.0000    27.0000     7.0000     7.0000    25.0000    -6.0000    -0.9990    20.7705    41.5368     2.9407    14.4503    14.4502     0.0001   299.9870   303.2500     0.0000   300.0000   300.000
    134     0.0000     0.0000     6.0826      1.008   2241.000  23101.000      1.000    41.5367   -34.1064   -67.7007     2.4985     0.4985    27.0000     7.0000     7.0000    25.0000    27.0000     7.0000     7.0000    25.0000    -6.0000    -0.9990    20.7705    41.5368     2.9420    14.4503    14.4502     0.0000   299.9830   303.2400     0.0000   300.0000   300.000
    135    -0.0000    -0.0000     6.0849      0.995   1907.000  23101.000      1.000    41.5367   -34.1221   -67.7307     2.4985     0.4985    27.0000     7.0000     7.0000    25.0000    27.0000     7.0000     7.0000    25.0000    -6.0000    -0.9990    20.7705    41.5368     2.9431    14.4503    14.4502     0.0001   299.9850   303.2290     0.0000   300.0000   300.000
    136    -0.0000    -0.0000     6.0875      1.000   1469.000  23101.000      1.000    41.5367   -34.1380   -67.7630     2.4985     0.4985    27.0000     7.0000     7.0000    25.0000    27.0000     7.0000     7.0000    25.0000    -6.0000    -0.9990    20.7705    41.5368     2.9443    14.4503    14.4502     0.0001   299.9900   303.2190     0.0000   300.0000   300.000
    137    -0.0000    -0.0000     6.0900      0.980   1128.000  23101.000      1.000    41.5367   -34.1538   -67.7945     2.4985     0.4985    27.0000     7.0000     7.0000    25.0000    27.0000     7.0000     7.0000    25.0000    -6.0000    -0.9990    20.7705    41.5368     2.9455    14.4503    14.4502     0.0001   299.9890   303.2070     0.0000   300.0000   300.000
    138     0.0000     0.0000     6.0925      0.995    903.000  23101.000      1.000    41.5367   -34.1696   -67.8268     2.4985     0.4985    27.0000     7.0000     7.0000    25.0000    27.0000     7.0000     7.0000    25.0000    -6.0000    -0.9990    20.7705    41.5368     2.9468    14.4503    14.4502     0.0001   300.0030   303.1980     0.0000   300.0000   300.000
    139    -0.0000    -0.0000     6.0950      0.990    718.000  23101.000      1.000    41.5367   -34.1854   -67.8576     2.4985     0.4985    27.0000     7.0000     7.0000    25.0000    27.0000     7.0000     7.0000    25.0000    -6.0000    -0.9990    20.7705    41.5368     2.9480    14.4503    14.4502     0.0001   300.0130   303.1870     0.0000   300.0000   300.000
    140    -0.0000    -0.0000     6.0975      0.994    536.000  23101.000      1.000    41.5367   -34.2012   -67.8892     2.4985     0.4985    27.0000     7.0000     7.0000    25.0000    27.0000     7.0000     7.0000    25.0000    -6.0000    -0.9990    20.7705    41.5367     2.9492    14.4503    14.4503     0.0000   300.0100   303.1770     0.0000   300.0000   300.000
    141     0.0000     0.0000     6.1000      0.997    414.000  23101.000      1.000    41.5367   -34.2170   -67.9217     2.4985     0.4985    27.0000     7.0000     7.0000    25.0000    27.0000     7.0000     7.0000    25.0000    -6.0000    -0.9990    20.7704    41.5368     2.9504    14.4503    14.4502     0.0000   300.0020   303.1670     0.0000   300.0000   300.000
    142     0.0000     0.0000     6.1025      0.984    321.000  23101.000      1.000    41.5367   -34.2328   -67.9534     2.4985     0.4985    27.0000     7.0000     7.0000    25.0000    27.0000     7.0000     7.0000    25.0000    -6.0000    -0.9990    20.7705    41.5368     2.9516    14.4503    14.4502     0.0001   300.0040   303.1580     0.0000   300.0000   300.000
    143     0.0000     0.0000     6.1050      0.998    233.000  23101.000      1.000    41.5367   -34.2486   -67.9848     2.4985     0.4985    27.0000     7.0000     7.0000    25.0000    27.0000     7.0000     7.0000    25.0000    -6.0000    -0.9990    20.7705    41.5368     2.9528    14.4503    14.4502     0.0000   300.0010   303.1480     0.0000   300.0000   300.000
    144     0.0000     0.0000     6.1076      0.983    196.000  23101.000      1.000    41.5367   -34.2644   -68.0172     2.4985     0.4985    27.0000     7.0000     7.0000    25.0000    27.0000     7.0000     7.0000    25.0000    -6.0000    -0.9990    20.7705    41.5368     2.9541    14.4503    14.4502     0.0000   299.9920   303.1380     0.0000   300.0000   300.000
    145    -0.0000    -0.0000     6.1100      0.983    154.000  23101.000      1.000    41.5367   -34.2803   -68.0475     2.4985     0.4985    27.0000     7.0000     7.0000    25.0000    27.0000     7.0000     7.0000    25.0000    -6.0000    -0.9990    20.7705    41.5367     2.9552    14.4503    14.4503     0.0000   299.9880   303.1280     0.0000   300.0000   300.000
    146    -0.0000    -0.0000     6.1125      0.972     91.000  23101.000      1.000    41.5367   -34.2961   -68.0788     2.4985     0.4985    27.0000     7.0000     7.0000    25.0000    27.0000     7.0000     7.0000    25.0000    -6.0000    -0.9990    20.7705    41.5367     2.9564    14.4503    14.4503     0.0000   299.9920   303.1170     0.0000   300.0000   300.000
    147     0.0000     0.0000     6.1150      0.993     55.000  23101.000      1.000    41.5367   -34.3119   -68.1113     2.4985     0.4985    27.0000     7.0000     7.0000    25.0000    27.0000     7.0000     7.0000    25.0000    -6.0000    -0.9990    20.7705    41.5368     2.9576    14.4503    14.4502     0.0000   299.9880   303.1080     0.0000   300.0000   300.000
    148    -0.0000    -0.0000     6.1175      1.002     45.000  23101.000      1.000    41.5367   -34.3278   -68.1426     2.4985     0.4985    27.0000     7.0000     7.0000    25.0000    27.0000     7.0000     7.0000    25.0000    -6.0000    -0.9990    20.7704    41.5368     2.9588    14.4503    14.4502     0.0001   299.9880   303.0960     0.0000   300.0000   300.000
    149     0.0000     0.0000     6.1200      0.995     32.000  23101.000      1.000    41.5367   -34.3436   -68.1749     2.4985     0.4985    27.0000     7.0000     7.0000    25.0000    27.0000     7.0000     7.0000    25.0000    -6.0000    -0.9990    20.7705    41.5368     2.9601    14.4503    14.4502     0.0001   299.9870   303.0870     0.0000   300.0000   300.000
    150    -0.0000    -0.0000     6.1225      0.999     39.000  23101.000      1.000    41.5367   -34.3595   -68.2057     2.4985     0.4985    27.0000     7.0000     7.0000    25.0000    27.0000     7.0000     7.0000    25.0000    -6.0000    -0.9990    20.7705    41.5368     2.9612    14.4503    14.4502     0.0001   299.9820   303.0760     0.0000   300.0000   300.000
    151     0.0000     0.0000     6.1250      0.976     28.000  23101.000      1.000    41.5367   -34.3753   -68.2383     2.4985     0.4985    27.0000     7.0000     7.0000    25.0000    27.0000     7.0000     7.0000    25.0000    -6.0000    -0.9990    20.7705    41.5368     2.9625    14.4503    14.4502     0.0000   299.9810   303.0670     0.0000   300.0000   300.000
    152     0.0000     0.0000     6.1275      0.989     22.000  23101.000      1.000    41.5367   -34.3911   -68.2697     2.4985     0.4985    27.0000     7.0000     7.0000    25.0000    27.0000     7.0000     7.0000    25.0000    -6.0000    -0.9990    20.7705    41.5368     2.9637    14.4503    14.4502     0.0001   299.9920   303.0560     0.0000   300.0000   300.000
    153     0.0000     0.0000     6.1301      0.981     13.000  23101.000      1.000    41.5367   -34.4070   -68.3023     2.4985     0.4985    27.0000     7.0000     7.0000    25.0000    27.0000     7.0000     7.0000    25.0000    -6.0000    -0.9990    20.7705    41.5368     2.9649    14.4503    14.4502     0.0000   299.9910   303.0460     0.0000   300.0000   300.000
    154    -0.0000    -0.0000     6.1325      0.991     10.000  23101.000      1.000    41.5367   -34.4228   -68.3326     2.4985     0.4985    27.0000     7.0000     7.0000    25.0000    27.0000     7.0000     7.0000    25.0000    -6.0000    -0.9990    20.7704    41.5368     2.9661    14.4503    14.4502     0.0001   300.0070   303.0380     0.0000   300.0000   300.000
    155     0.0000     0.0000     6.1351      0.991     10.000  23101.000      1.000    41.5367   -34.4387   -68.3659     2.4985     0.4985    27.0000     7.0000     7.0000    25.0000    27.0000     7.0000     7.0000    25.0000    -6.0000    -0.9990    20.7705    41.5368     2.9674    14.4503    14.4502     0.0001   300.0130   303.0260     0.0000   300.0000   300.000
    156     0.0000     0.0000     6.1375      0.985      9.000  23101.000      1.000    41.5367   -34.4546   -68.3968     2.4985     0.4985    27.0000     7.0000     7.0000    25.0000    27.0000     7.0000     7.0000    25.0000    -6.0000    -0.9990    20.7705    41.5368     2.9685    14.4503    14.4502     0.0000   300.0000   303.0180     0.0000   300.0000   300.000
    157     0.0000     0.0000     6.1401      0.982     11.000  23101.000      1.000    41.5367   -34.4705   -68.4288     2.4985     0.4985    27.0000     7.0000     7.0000    25.0000    27.0000     7.0000     7.0000    25.0000    -6.0000    -0.9990    20.7705    41.5368     2.9698    14.4503    14.4502     0.0001   299.9950   303.0090     0.0000   300.0000   300.000
    158     0.0000     0.0000     6.1425      0.982      3.000  23101.000      1.000    41.5367   -34.4863   -68.4602     2.4985     0.4985    27.0000     7.0000     7.0000    25.0000    27.0000     7.0000     7.0000    25.0000    -6.0000    -0.9990    20.7705    41.5368     2.9710    14.4503    14.4502     0.0001   299.9930   303.0000     0.0000   300.0000   300.000
    159     0.0000     0.0000     6.1451      0.981      5.000  23101.000      1.000    41.5367   -34.5021   -68.4924     2.4985     0.4985    27.0000     7.0000     7.0000    25.0000    27.0000     7.0000     7.0000    25.0000    -6.0000    -0.9990    20.7705    41.5368     2.9722    14.4503    14.4502     0.0001   300.0000   302.9890     0.0000   300.0000   300.000
    160     0.0000     0.0000     6.1475      0.989      6.000  23101.000      1.000    41.5367   -34.5180   -68.5232     2.4985     0.4985    27.0000     7.0000     7.0000    25.0000    27.0000     7.0000     7.0000    25.0000    -6.0000    -0.9990    20.7705    41.5368     2.9734    14.4503    14.4502     0.0001   300.0230   302.9800     0.0000   300.0000   300.000
    161     0.0000     0.0000     6.1500      0.984      5.000  23101.000      1.000    41.5367   -34.5339   -68.5550     2.4985     0.4985    27.0000     7.0000     7.0000    25.0000    27.0000     7.0000     7.0000    25.0000    -6.0000    -0.9990    20.7705    41.5368     2.9746    14.4503    14.4502     0.0001   300.0220   302.9690     0.0000   300.0000   300.000
    162     0.0000     0.0000     6.1526      0.988      5.000  23101.000      1.000    41.5367   -34.5498   -68.5875     2.4985     0.4985    27.0000     7.0000     7.0000    25.0000    27.0000     7.0000     7.0000    25.0000    -6.0000    -0.9990    20.7705    41.5368     2.9758    14.4503    14.4502     0.0001   300.0110   302.9600     0.0000   300.0000   300.000
    163     0.0000     0.0000     6.1551      0.998      5.000  23101.000      1.000    41.5367   -34.5656   -68.6191     2.4985     0.4985    27.0000     7.0000     7.0000    25.0000    27.0000     7.0000     7.0000    25.0000    -6.0000    -0.9990    20.7705    41.5368     2.9770    14.4503    14.4502     0.0001   300.0100   302.9500     0.0000   300.0000   300.000
    164     0.0000     0.0000     6.1576      0.991      5.000  23101.000      1.000    41.5367   -34.5815   -68.6514     2.4985     0.4985    27.0000     7.0000     7.0000    25.0000    27.0000     7.0000     7.0000    25.0000    -6.0000    -0.9990    20.7705    41.5368     2.9782    14.4503    14.4502     0.0001   300.0050   302.9410     0.0000   300.0000   300.000
    165     0.0000     0.0000     6.1600      1.007      8.000  23101.000      1.000    41.5367   -34.5974   -68.6821     2.4985     0.4985    27.0000     7.0000     7.0000    25.0000    27.0000     7.0000     7.0000    25.0000    -6.0000    -0.9990    20.7704    41.5368     2.9794    14.4503    14.4502     0.0001   300.0100   302.9310     0.0000   300.0000   300.000
    166     0.0000     0.0000     6.1626      0.991      4.000  23101.000      1.000    41.5367   -34.6133   -68.7146     2.4985     0.4985    27.0000     7.0000     7.0000    25.0000    27.0000     7.0000     7.0000    25.0000    -6.0000    -0.9990    20.7705    41.5368     2.9806    14.4503    14.4502     0.0001   300.0070   302.9220     0.0000   300.0000   300.000
    167     0.0000     0.0000     6.1651      0.994      9.000  23101.000      1.000    41.5367   -34.6292   -68.7469     2.4985     0.4985    27.0000     7.0000     7.0000    25.0000    27.0000     7.0000     7.0000    25.0000    -6.0000    -0.9990    20.7705    41.5368     2.9819    14.4503    14.4502     0.0000   300.0010   302.9140     0.0000   300.0000   300.000
    168     0.0000     0.0000     6.1676      0.992      6.000  23101.000      1.000    41.5367   -34.6451   -68.7783     2.4985     0.4985    27.0000     7.0000     7.0000    25.0000    27.0000     7.0000     7.0000    25.0000    -6.0000    -0.9990    20.7705    41.5368     2.9831    14.4503    14.4502     0.0001   299.9990   302.9050     0.0000   300.0000   300.000
    169     0.0000     0.0000     6.1701      0.992      5.000  23101.000      1.000    41.5367   -34.6610   -68.8106     2.4985     0.4985    27.0000     7.0000     7.0000    25.0000    27.0000     7.0000     7.0000    25.0000    -6.0000    -0.9990    20.7705    41.5368     2.9843    14.4503    14.4502     0.0001   299.9940   302.8960     0.0000   300.0000   300.000
    170     0.0000     0.0000     6.1725      0.995      6.000  23101.000      1.000    41.5367   -34.6769   -68.8413     2.4985     0.4985    27.0000     7.0000     7.0000    25.0000    27.0000     7.0000     7.0000    25.0000    -6.0000    -0.9990    20.7705    41.5368     2.9855    14.4503    14.4502     0.0001   299.9910   302.8870     0.0000   300.0000   300.000
    171     0.0000     0.0000     6.1750      0.995     10.000  23101.000      1.000    41.5367   -34.6928   -68.8731     2.4985     0.4985    27.0000     7.0000     7.0000    25.0000    27.0000     7.0000     7.0000    25.0000    -6.0000    -0.9990    20.7705    41.5368     2.9867    14.4503    14.4502     0.0000   299.9950   302.8780     0.0000   300.0000   300.000
    172     0.0000     0.0000     6.1775      0.981      2.000  23101.000      1.000    41.5367   -34.7087   -68.9045     2.4985     0.4985    27.0000     7.0000     7.0000    25.0000    27.0000     7.0000     7.0000    25.0000    -6.0000    -0.9990    20.7705    41.5368     2.9879    14.4503    14.4502     0.0001   300.0020   302.8680     0.0000   300.0000   300.000
    173     0.0000     0.0000     6.1801      0.993      5.000  23101.000      1.000    41.5367   -34.7246   -68.9378     2.4985     0.4985    27.0000     7.0000     7.0000    25.0000    27.0000     7.0000     7.0000    25.0000    -6.0000    -0.9990    20.7704    41.5368     2.9891    14.4503    14.4502     0.0001   299.9920   302.8590     0.0000   300.0000   300.000
    174    -0.0000    -0.0000     6.1824      0.988      6.000  23101.000      1.000    41.5367   -34.7406   -68.9673     2.4985     0.4985    27.0000     7.0000     7.0000    25.0000    27.0000     7.0000     7.0000    25.0000    -6.0000    -0.9990    20.7705    41.5368     2.9903    14.4503    14.4502     0.0001   299.9910   302.8490     0.0000   300.0000   300.000
    175    -0.0000    -0.0000     6.1850      0.988      4.000  23101.000      1.000    41.5367   -34.7564   -68.9994     2.4985     0.4985    27.0000     7.0000     7.0000    25.0000    27.0000     7.0000     7.0000    25.0000    -6.0000    -0.9990    20.7705    41.5368     2.9915    14.4503    14.4502     0.0001   299.9920   302.8400     0.0000   300.0000   300.000
    176     0.0000     0.0000     6.1876      0.997      4.000  23101.000      1.000    41.5367   -34.7723   -69.0325     2.4985     0.4985    27.0000     7.0000     7.0000    25.0000    27.0000     7.0000     7.0000    25.0000    -6.0000    -0.9990    20.7704    41.5368     2.9927    14.4503    14.4502     0.0001   299.9950   302.8300     0.0000   300.0000   300.000
    177    -0.0000    -0.0000     6.1900      0.984      5.000  23101.000      1.000    41.5367   -34.7883   -69.0632     2.4985     0.4985    27.0000     7.0000     7.0000    25.0000    27.0000     7.0000     7.0000    25.0000    -6.0000    -0.9990    20.7705    41.5368     2.9939    14.4503    14.4502     0.0001   299.9980   302.8210     0.0000   300.0000   300.000
    178    -0.0000    -0.0000     6.1925      0.992      3.000  23101.000      1.000    41.5367   -34.8042   -69.0953     2.4985     0.4985    27.0000     7.0000     7.0000    25.0000    27.0000     7.0000     7.0000    25.0000    -6.0000    -0.9990    20.7704    41.5368     2.9951    14.4503    14.4502     0.0001   299.9960   302.8110     0.0000   300.0000   300.000
    179     0.0000     0.0000     6.1950      0.993      2.000  23101.000      1.000    41.5367   -34.8201   -69.1275     2.4985     0.4985    27.0000     7.0000     7.0000    25.0000    27.0000     7.0000     7.0000    25.0000    -6.0000    -0.9990    20.7705    41.5368     2.9963    14.4503    14.4502     0.0001   299.9920   302.8020     0.0000   300.0000   300.000
    180     0.0000     0.0000     6.1975      0.990      4.000  23101.000      1.000    41.5367   -34.8361   -69.1594     2.4985     0.4985    27.0000     7.0000     7.0000    25.0000    27.0000     7.0000     7.0000    25.0000    -6.0000    -0.9990    20.7705    41.5368     2.9975    14.4503    14.4502     0.0001   299.9920   302.7930     0.0000   300.0000   300.000
    181     0.0000     0.0000     6.2000      0.995      4.000  23101.000      1.000    41.5367   -34.8520   -69.1915     2.4985     0.4985    27.0000     7.0000     7.0000    25.0000    27.0000     7.0000     7.0000    25.0000    -6.0000    -0.9990    20.7704    41.5368     2.9988    14.4503    14.4502     0.0001   299.9920   302.7850     0.0000   300.0000   300.000
    182    -0.0000    -0.0000     6.2025      0.981      6.000  23101.000      1.000    41.5367   -34.8679   -69.2225     2.4985     0.4985    27.0000     7.0000     7.0000    25.0000    27.0000     7.0000     7.0000    25.0000    -6.0000    -0.9990    20.7705    41.5368     2.9999    14.4503    14.4502     0.0001   299.9980   302.7770     0.0000   300.0000   300.000
    183     0.0000     0.0000     6.2050      0.987      4.000  23101.000      1.000    41.5367   -34.8839   -69.2555     2.4985     0.4985    27.0000     7.0000     7.0000    25.0000    27.0000     7.0000     7.0000    25.0000    -6.0000    -0.9990    20.7704    41.5368     3.0012    14.4503    14.4502     0.0001   299.9980   302.7670     0.0000   300.0000   300.000
    184    -0.0000    -0.0000     6.2075      0.983      8.000  23101.000      1.000    41.5367   -34.8998   -69.2862     2.4985     0.4985    27.0000     7.0000     7.0000    25.0000    27.0000     7.0000     7.0000    25.0000    -6.0000    -0.9990    20.7705    41.5368     3.0024    14.4503    14.4502     0.0001   299.9930   302.7580     0.0000   300.0000   300.000
    185    -0.0000    -0.0000     6.2099      0.974      3.000  23101.000      1.000    41.5367   -34.9157   -69.3175     2.4985     0.4985    27.0000     7.0000     7.0000    25.0000    27.0000     7.0000     7.0000    25.0000    -6.0000    -0.9990    20.7705    41.5368     3.0035    14.4503    14.4502     0.0001   299.9920   302.7490     0.0000   300.0000   300.000
    186     0.0000     0.0000     6.2126      0.980      2.000  23101.000      1.000    41.5367   -34.9317   -69.3513     2.4985     0.4985    27.0000     7.0000     7.0000    25.0000    27.0000     7.0000     7.0000    25.0000    -6.0000    -0.9990    20.7705    41.5368     3.0048    14.4503    14.4502     0.0001   299.9920   302.7410     0.0000   300.0000   300.000
    187    -0.0000    -0.0000     6.2150      0.992      2.000  23101.000      1.000    41.5367   -34.9477   -69.3820     2.4985     0.4985    27.0000     7.0000     7.0000    25.0000    27.0000     7.0000     7.0000    25.0000    -6.0000    -0.9990    20.7705    41.5368     3.0060    14.4503    14.4502     0.0001   299.9970   302.7310     0.0000   300.0000   300.000
    188    -0.0000    -0.0000     6.2174      0.989      8.000  23101.000      1.000    41.5367   -34.9636   -69.4133     2.4985     0.4985    27.0000     7.0000     7.0000    25.0000    27.0000     7.0000     7.0000    25.0000    -6.0000    -0.9990    20.7705    41.5368     3.0072    14.4503    14.4502     0.0001   299.9930   302.7220     0.0000   300.0000   300.000
    189     0.0000     0.0000     6.2200      0.982      5.000  23101.000      1.000    41.5367   -34.9796   -69.4464     2.4985     0.4985    27.0000     7.0000     7.0000    25.0000    27.0000     7.0000     7.0000    25.0000    -6.0000    -0.9990    20.7705    41.5368     3.0084    14.4503    14.4502     0.0001   299.9890   302.7130     0.0000   300.0000   300.000
    190    -0.0000    -0.0000     6.2225      0.988      4.000  23101.000      1.000    41.5367   -34.9955   -69.4779     2.4985     0.4985    27.0000     7.0000     7.0000    25.0000    27.0000     7.0000     7.0000    25.0000    -6.0000    -0.9990    20.7705    41.5368     3.0096    14.4503    14.4502     0.0001   299.9890   302.7040     0.0000   300.0000   300.000
    191    -0.0000    -0.0000     6.2250      0.986      6.000  23101.000      1.000    41.5367   -35.0115   -69.5100     2.4985     0.4985    27.0000     7.0000     7.0000    25.0000    27.0000     7.0000     7.0000    25.0000    -6.0000    -0.9990    20.7704    41.5368     3.0108    14.4503    14.4502     0.0001   299.9840   302.6950     0.0000   300.0000   300.000
    192    -0.0000    -0.0000     6.2274      0.983      7.000  23101.000      1.000    41.5367   -35.0275   -69.5404     2.4985     0.4985    27.0000     7.0000     7.0000    25.0000    27.0000     7.0000     7.0000    25.0000    -6.0000    -0.9990    20.7705    41.5368     3.0120    14.4503    14.4502     0.0001   299.9880   302.6860     0.0000   300.0000   300.000
    193     0.0000     0.0000     6.2300      0.992     10.000  23101.000      1.000    41.5367   -35.0434   -69.5745     2.4985     0.4985    27.0000     7.0000     7.0000    25.0000    27.0000     7.0000     7.0000    25.0000    -6.0000    -0.9990    20.7705    41.5368     3.0133    14.4503    14.4502     0.0001   299.9940   302.6780     0.0000   300.0000   300.000
    194    -0.0000    -0.0000     6.2325      0.984      4.000  23101.000      1.000    41.5367   -35.0594   -69.6057     2.4985     0.4985    27.0000     7.0000     7.0000    25.0000    27.0000     7.0000     7.0000    25.0000    -6.0000    -0.9990    20.7705    41.5368     3.0145    14.4503    14.4502     0.0001   299.9930   302.6700     0.0000   300.0000   300.000
    195     0.0000     0.0000     6.2350      0.981      6.000  23101.000      1.000    41.5367   -35.0754   -69.6383     2.4985     0.4985    27.0000     7.0000     7.0000    25.0000    27.0000     7.0000     7.0000    25.0000    -6.0000    -0.9990    20.7705    41.5368     3.0157    14.4503    14.4502     0.0001   299.9890   302.6620     0.0000   300.0000   300.000
    196    -0.0000    -0.0000     6.2374      0.984      6.000  23101.000      1.000    41.5367   -35.0914   -69.6690     2.4985     0.4985    27.0000     7.0000     7.0000    25.0000    27.0000     7.0000     7.0000    25.0000    -6.0000    -0.9990    20.7705    41.5368     3.0169    14.4503    14.4502     0.0001   299.9880   302.6520     0.0000   300.0000   300.000
    197    -0.0000    -0.0000     6.2400      0.990      7.000  23101.000      1.000    41.5367   -35.1074   -69.7017     2.4985     0.4985    27.0000     7.0000     7.0000    25.0000    27.0000     7.0000     7.0000    25.0000    -6.0000    -0.9990    20.7705    41.5368     3.0181    14.4503    14.4502     0.0001   299.9910   302.6450     0.0000   300.0000   300.000
    198    -0.0000    -0.0000     6.2425      1.001      5.000  23101.000      1.000    41.5367   -35.1233   -69.7334     2.4985     0.4985    27.0000     7.0000     7.0000    25.0000    27.0000     7.0000     7.0000    25.0000    -6.0000    -0.9990    20.7704    41.5368     3.0193    14.4503    14.4502     0.0001   299.9970   302.6350     0.0000   300.0000   300.000
    199    -0.0000    -0.0000     6.2450      0.978      5.000  23101.000      1.000    41.5367   -35.1393   -69.7653     2.4985     0.4985    27.0000     7.0000     7.0000    25.0000    27.0000     7.0000     7.0000    25.0000    -6.0000    -0.9990    20.7705    41.5368     3.0205    14.4503    14.4502     0.0001   299.9960   302.6270     0.0000   300.0000   300.000
    200    -0.0000    -0.0000     6.2474      0.994     10.000  23101.000      1.000    41.5367   -35.1553   -69.7967     2.4985     0.4985    27.0000     7.0000     7.0000    25.0000    27.0000     7.0000     7.0000    25.0000    -6.0000    -0.9990    20.7705    41.5368     3.0217    14.4503    14.4502     0.0001   299.9930   302.6180     0.0000   300.0000   300.000
    201    -0.0000    -0.0000     6.2500      0.992      5.000  23101.000      1.000    41.5367   -35.1713   -69.8295     2.4985     0.4985    27.0000     7.0000     7.0000    25.0000    27.0000     7.0000     7.0000    25.0000    -6.0000    -0.9990    20.7704    41.5368     3.0229    14.4503    14.4502     0.0001   299.9920   302.6100     0.0000   300.0000   300.000
# Sum of Counts = 1277685
# Center of Mass = 5.996691+/-0.007503
# Full Width Half-Maximum = 0.075430+/-0.001526
# 11:56:13 AM  9/11/2024   scan completed.
