# scan = 856
# date = 5/31/2023
# time = 5:36:20 PM
# proposal = 9879
# experiment = HB-1A  - Backend upgrade commissioning
# experiment_number = 978
# command = scan slita_bt 0 30 1  
# builtin_command = scan slita_bt 0 30 1
# users = Feng Ye, John Carruth, Adam Aczel, Songxue Chi, Jaime Fernandez-Baca, Masaaki Matsuda, Tao Hong, Travis Williams, Wei Tian, Michael Cox
# local_contact = Wei Tian, Adam Aczel
# scan_title = Si powder, triple axis can, slit scans
# monochromator = PG002
# analyzer = Pg002
# sense = +-+
# collimation = 40-40-40-80
# samplename = Si powdre, Si crystal, FeGa alloy, La2Ni7 crystal, Ba2.8Sr0.2CoSn2O9 crystal
# sampletype = crystal
# samplemosaic = 30.000000
# latticeconstants = 5.419666,5.419666,5.419666,90.000000,90.000000,90.000000
# ubmatrix = 0.112527,0.102287,0.104500,-0.073949,-0.073950,0.152013,0.126152,-0.134588,-0.004105
# mode = 0
# plane_normal = 0.039245,0.000005,0.999230
# ubconf = UB29May2023_80143PM.ini
# preset_type = normal 
# preset_channel = time
# preset_value = 1.000000
# def_x = slita_bt
# def_y = detector
# col_headers = 
#   Pt.   slita_bt       time   detector    monitor        mcu         m2   rad_coll         s1         s2        sgl        sgu   slitb_bt   slitb_lf   slitb_rt   slitb_tp   slita_lf   slita_rt   slita_tp        stl        stu         sz         a1         a2          q          h          k          l         ei         ef          e
      1     0.0000      1.000    244.000   7386.000      1.039    41.5367     0.0149    -9.3441   -44.5998     0.0002     0.0005    25.0000    20.0000    20.0000    25.0000    20.0000    20.0000    24.0000     0.0019    -0.0024     0.0029    20.7695    41.5355     2.0041     1.1827     1.0892     0.6349    14.4503    14.4511    -0.000
      2     1.0000      1.000    295.000   7526.000      1.059    41.5367     0.0149    -9.3441   -44.5998     0.0002     0.0005    25.0000    20.0000    20.0000    25.0000    20.0000    20.0000    24.0000     0.0019    -0.0024     0.0029    20.7695    41.5355     2.0041     1.1827     1.0892     0.6349    14.4503    14.4511    -0.000
      3     2.0000      1.000    321.000   7536.000      1.060    41.5367     0.0149    -9.3441   -44.5998     0.0002     0.0005    25.0000    20.0000    20.0000    25.0000    20.0000    20.0000    24.0000     0.0019    -0.0025     0.0029    20.7695    41.5355     2.0041     1.1827     1.0892     0.6349    14.4503    14.4511    -0.000
      4     3.0000      1.000    318.000   7486.000      1.053    41.5367     0.0149    -9.3441   -44.5998     0.0002     0.0005    25.0000    20.0000    20.0000    25.0000    20.0000    20.0000    24.0000     0.0019    -0.0025     0.0030    20.7695    41.5355     2.0041     1.1827     1.0892     0.6349    14.4503    14.4511    -0.000
      5     4.0000      1.000    330.000   7453.000      1.048    41.5367     0.0149    -9.3441   -44.5998     0.0002     0.0005    25.0000    20.0000    20.0000    25.0000    20.0000    20.0000    24.0000     0.0019    -0.0024     0.0030    20.7695    41.5355     2.0041     1.1827     1.0892     0.6349    14.4503    14.4511    -0.000
      6     5.0000      1.000    350.000   7410.000      1.042    41.5367     0.0149    -9.3441   -44.5998     0.0002     0.0005    25.0000    20.0000    20.0000    25.0000    20.0000    20.0000    24.0000     0.0019    -0.0024     0.0030    20.7695    41.5355     2.0041     1.1827     1.0892     0.6349    14.4503    14.4511    -0.000
      7     6.0000      1.000    386.000   7442.000      1.047    41.5367     0.0149    -9.3441   -44.5998     0.0002     0.0005    25.0000    20.0000    20.0000    25.0000    20.0000    20.0000    24.0000     0.0019    -0.0024     0.0029    20.7695    41.5355     2.0041     1.1827     1.0892     0.6349    14.4503    14.4511    -0.000
      8     7.0000      1.000    355.000   7346.000      1.033    41.5367     0.0149    -9.3441   -44.5998     0.0002     0.0005    25.0000    20.0000    20.0000    25.0000    20.0000    20.0000    24.0000     0.0019    -0.0025     0.0029    20.7695    41.5355     2.0041     1.1827     1.0892     0.6349    14.4503    14.4511    -0.000
      9     8.0000      1.000    410.000   7196.000      1.012    41.5367     0.0149    -9.3441   -44.5998     0.0002     0.0005    25.0000    20.0000    20.0000    25.0000    20.0000    20.0000    24.0000     0.0019    -0.0024     0.0030    20.7695    41.5355     2.0041     1.1827     1.0892     0.6349    14.4503    14.4511    -0.000
     10     9.0000      1.000    397.000   7443.000      1.047    41.5367     0.0149    -9.3441   -44.5998     0.0002     0.0005    25.0000    20.0000    20.0000    25.0000    20.0000    20.0000    24.0000     0.0019    -0.0024     0.0029    20.7695    41.5355     2.0041     1.1827     1.0892     0.6349    14.4503    14.4511    -0.000
     11    10.0000      1.000    403.000   7364.000      1.036    41.5367     0.0149    -9.3441   -44.5998     0.0002     0.0005    25.0000    20.0000    20.0000    25.0000    20.0000    20.0000    24.0000     0.0019    -0.0025     0.0029    20.7695    41.5355     2.0041     1.1827     1.0892     0.6349    14.4503    14.4511    -0.000
     12    11.0000      1.000    449.000   7205.000      1.013    41.5367     0.0149    -9.3441   -44.5998     0.0002     0.0005    25.0000    20.0000    20.0000    25.0000    20.0000    20.0000    24.0000     0.0019    -0.0025     0.0030    20.7695    41.5355     2.0041     1.1827     1.0892     0.6349    14.4503    14.4511    -0.000
     13    12.0000      1.000    469.000   7323.000      1.030    41.5367     0.0149    -9.3441   -44.5998     0.0002     0.0005    25.0000    20.0000    20.0000    25.0000    20.0000    20.0000    24.0000     0.0019    -0.0024     0.0030    20.7695    41.5355     2.0041     1.1827     1.0892     0.6349    14.4503    14.4511    -0.000
     14    13.0000      1.000    468.000   7618.000      1.071    41.5367     0.0149    -9.3441   -44.5998     0.0002     0.0005    25.0000    20.0000    20.0000    25.0000    20.0000    20.0000    24.0000     0.0019    -0.0024     0.0030    20.7695    41.5355     2.0041     1.1827     1.0892     0.6349    14.4503    14.4511    -0.000
     15    14.0000      1.000    486.000   7328.000      1.031    41.5367     0.0149    -9.3441   -44.5998     0.0002     0.0005    25.0000    20.0000    20.0000    25.0000    20.0000    20.0000    24.0000     0.0019    -0.0024     0.0029    20.7696    41.5355     2.0041     1.1827     1.0892     0.6349    14.4503    14.4511    -0.000
     16    15.0000      1.000    497.000   7469.000      1.050    41.5367     0.0149    -9.3441   -44.5998     0.0002     0.0005    25.0000    20.0000    20.0000    25.0000    20.0000    20.0000    24.0000     0.0019    -0.0025     0.0029    20.7695    41.5355     2.0041     1.1827     1.0892     0.6349    14.4503    14.4511    -0.000
     17    16.0000      1.000    546.000   7489.000      1.053    41.5367     0.0149    -9.3441   -44.5998     0.0002     0.0005    25.0000    20.0000    20.0000    25.0000    20.0000    20.0000    24.0000     0.0019    -0.0024     0.0029    20.7695    41.5355     2.0041     1.1827     1.0892     0.6349    14.4503    14.4511    -0.000
     18    17.0000      1.000    479.000   7457.000      1.049    41.5367     0.0149    -9.3441   -44.5998     0.0002     0.0005    25.0000    20.0000    20.0000    25.0000    20.0000    20.0000    24.0000     0.0019    -0.0024     0.0029    20.7695    41.5355     2.0041     1.1827     1.0892     0.6349    14.4503    14.4511    -0.000
     19    18.0000      1.000    503.000   7342.000      1.033    41.5367     0.0149    -9.3441   -44.5998     0.0002     0.0005    25.0000    20.0000    20.0000    25.0000    20.0000    20.0000    24.0000     0.0019    -0.0024     0.0029    20.7695    41.5355     2.0041     1.1827     1.0892     0.6349    14.4503    14.4511    -0.000
     20    19.0000      1.000    538.000   7505.000      1.056    41.5367     0.0149    -9.3441   -44.5998     0.0002     0.0005    25.0000    20.0000    20.0000    25.0000    20.0000    20.0000    24.0000     0.0019    -0.0024     0.0030    20.7696    41.5355     2.0041     1.1827     1.0892     0.6349    14.4503    14.4511    -0.000
     21    20.0000      1.000    541.000   7505.000      1.056    41.5367     0.0149    -9.3441   -44.5998     0.0002     0.0005    25.0000    20.0000    20.0000    25.0000    20.0000    20.0000    24.0000     0.0019    -0.0024     0.0030    20.7695    41.5355     2.0041     1.1827     1.0892     0.6349    14.4503    14.4511    -0.000
     22    21.0000      1.000    563.000   7362.000      1.035    41.5367     0.0149    -9.3441   -44.5998     0.0002     0.0005    25.0000    20.0000    20.0000    25.0000    20.0000    20.0000    24.0000     0.0019    -0.0024     0.0030    20.7695    41.5355     2.0041     1.1827     1.0892     0.6349    14.4503    14.4511    -0.000
     23    22.0000      1.000    575.000   7595.000      1.068    41.5367     0.0149    -9.3441   -44.5998     0.0002     0.0005    25.0000    20.0000    20.0000    25.0000    20.0000    20.0000    24.0000     0.0019    -0.0024     0.0030    20.7695    41.5355     2.0041     1.1827     1.0892     0.6349    14.4503    14.4511    -0.000
     24    23.0000      1.000    560.000   7502.000      1.055    41.5367     0.0149    -9.3441   -44.5998     0.0002     0.0005    25.0000    20.0000    20.0000    25.0000    20.0000    20.0000    24.0000     0.0019    -0.0024     0.0029    20.7696    41.5355     2.0041     1.1827     1.0892     0.6349    14.4503    14.4511    -0.000
     25    24.0000      1.000    550.000   7425.000      1.044    41.5367     0.0149    -9.3441   -44.5998     0.0002     0.0005    25.0000    20.0000    20.0000    25.0000    20.0000    20.0000    24.0000     0.0019    -0.0024     0.0030    20.7695    41.5355     2.0041     1.1827     1.0892     0.6349    14.4503    14.4511    -0.000
     26    25.0000      1.000    538.000   7384.000      1.039    41.5367     0.0149    -9.3441   -44.5998     0.0002     0.0005    25.0000    20.0000    20.0000    25.0000    20.0000    20.0000    24.0000     0.0019    -0.0024     0.0029    20.7696    41.5355     2.0041     1.1827     1.0892     0.6349    14.4503    14.4511    -0.000
     27    26.0000      1.000    602.000   7386.000      1.039    41.5367     0.0149    -9.3441   -44.5998     0.0002     0.0005    25.0000    20.0000    20.0000    25.0000    20.0000    20.0000    24.0000     0.0019    -0.0024     0.0030    20.7695    41.5355     2.0041     1.1827     1.0892     0.6349    14.4503    14.4511    -0.000
     28    27.0000      1.000    583.000   7337.000      1.032    41.5367     0.0149    -9.3441   -44.5998     0.0002     0.0005    25.0000    20.0000    20.0000    25.0000    20.0000    20.0000    24.0000     0.0019    -0.0024     0.0029    20.7695    41.5355     2.0041     1.1827     1.0892     0.6349    14.4503    14.4511    -0.000
     29    28.0000      1.000    609.000   7356.000      1.035    41.5367     0.0149    -9.3441   -44.5998     0.0002     0.0005    25.0000    20.0000    20.0000    25.0000    20.0000    20.0000    24.0000     0.0019    -0.0025     0.0030    20.7695    41.5355     2.0041     1.1827     1.0892     0.6349    14.4503    14.4511    -0.000
     30    29.0000      1.000    568.000   7449.000      1.048    41.5367     0.0149    -9.3441   -44.5998     0.0002     0.0005    25.0000    20.0000    20.0000    25.0000    20.0000    20.0000    24.0000     0.0019    -0.0024     0.0030    20.7695    41.5355     2.0041     1.1827     1.0892     0.6349    14.4503    14.4511    -0.000
     31    30.0000      1.000    569.000   7454.000      1.048    41.5367     0.0149    -9.3441   -44.5998     0.0002     0.0005    25.0000    20.0000    20.0000    25.0000    20.0000    20.0000    24.0000     0.0019    -0.0024     0.0030    20.7695    41.5355     2.0041     1.1827     1.0892     0.6349    14.4503    14.4511    -0.000
# Sum of Counts = 14502
# Center of Mass = 16.861123+/-0.210358
# Full Width Half-Maximum = 17.102870+/-0.142474
# 5:41:52 PM  5/31/2023   scan completed.
