# scan = 38
# date = 9/9/2024
# time = 8:44:11 PM
# proposal = 34735
# experiment = Magnons and paramagnon coupling in MnTe
# experiment_number = 813
# command = scan h 1.02 k 0.0 l 1.02 e 16 0.5 0.25 ef 14.7 preset mcu 60
# builtin_command = scan h 1.02 k 0.0 l 1.02 e 16 0.5 0.25 ef 14.7 preset mcu 60
# users = Benjamin Frandsen, Songxue Chi, George Yumnam, Huibo Cao, Michael Manley, Raphael Hermann, Eleanor Clements
# local_contact = Eleanor Clements
# scan_title = H0L scans along (101) to (1.5, 0, 1.5) at H/L = 1.02, mcu = 60
# monochromator = PG002
# analyzer = Pg002
# sense = -+-
# collimation = 48-40-40-120
# samplename = MnTe
# sampletype = crystal
# samplemosaic = 30.000000
# latticeconstants = 4.128474,4.128474,6.651507,90.000000,90.000000,120.000000
# ubmatrix = -0.000328,-0.004396,-0.150319,-0.279308,-0.152332,0.000314,-0.014647,0.234528,-0.002614
# mode = 0
# plane_normal = -0.017470,-0.052341,0.998476
# ubconf = UB09Sep2024_43441PM.ini
# preset_type = normal 
# preset_channel = mcu
# preset_value = 60.000000
# def_x = e
# def_y = detector
# col_headers = 
#   Pt.          h          k          l          e         ef       time   detector    monitor        mcu focal_length         m1         m2   mcrystal       marc     mtrans     mfocus       ampl         dc       freq     output       temp     temp_2         s1         s2        sgl        sgu        bbb        bbl        bbr        bbt        bab        bal        bar        bat        stl        stu         a1         a2          q         ei   ampl_out output_state        vti     sample
      1     1.0198     0.0000     1.0195    16.0012    14.7000     48.837      8.000 150721.000     60.000    46.2221   -20.0773   -28.1592   120.0962    -0.1480    -3.0001   -50.7492     0.0000     0.0000     0.0000     1.0000     5.0000   300.0000   -12.4530    29.9227     1.0010    -2.9998     9.0000    10.0000     5.0000    14.0000    16.0000     5.0000    10.0000    16.0000    -0.0005     0.0005   159.4164   -41.1662     2.0345    30.7012     2.0000     1.0000     4.9997     0.000
      2     1.0200     0.0000     1.0201    15.7499    14.7000     48.871     14.000 150721.000     60.000    46.4115   -20.0773   -28.2776   120.0962    -0.1480    -3.0001   -50.5260     0.0000     0.0000     0.0000     1.0000     5.0000   300.0000   -12.8574    30.2084     1.0010    -2.9998     9.0000    10.0000     5.0000    14.0000    16.0000     5.0000    10.0000    16.0000    -0.0005     0.0005   159.4164   -41.1662     2.0351    30.4499     2.0000     1.0000     5.0001     0.000
      3     1.0200     0.0000     1.0200    15.4998    14.7000     48.830     16.000 150721.000     60.000    46.6032   -20.0773   -28.3968   120.0962    -0.1480    -3.0001   -50.3021     0.0000     0.0000     0.0000     1.0000     5.0000   300.0000   -13.2613    30.4749     1.0010    -2.9998     9.0000    10.0000     5.0000    14.0000    16.0000     5.0000    10.0000    16.0000    -0.0005     0.0005   159.4164   -41.1662     2.0351    30.1998     2.0000     1.0000     5.0007     0.000
      4     1.0200     0.0000     1.0200    15.2500    14.7000     48.557      7.000 150721.000     60.000    46.7972   -20.0773   -28.5175   120.0962    -0.1480    -3.0001   -50.0773     0.0000     0.0000     0.0000     1.0000     5.0000   300.0000   -13.6640    30.7420     1.0010    -2.9998     9.0000    10.0000     5.0000    14.0000    16.0000     5.0000    10.0000    16.0000    -0.0005     0.0005   159.4164   -41.1662     2.0351    29.9500     2.0000     1.0000     4.9996     0.000
      5     1.0200     0.0000     1.0200    15.0004    14.7000      0.000      0.000      0.000     60.000    46.9938   -20.0773   -28.6396   120.0962    -0.1480    -3.0001   -49.8518     0.0000     0.0000     0.0000     1.0000     5.0000   300.0000   -14.0649    31.0064     1.0010    -2.9998     9.0000    10.0000     5.0000    14.0000    16.0000     5.0000    10.0000    16.0000    -0.0005     0.0005   159.4164   -41.1662     2.0351    29.7004     2.0000     1.0000     4.9996     0.000
# Sum of Counts = 45
# Center of Mass = 15.627889+/-3.294842
# Full Width Half-Maximum = 0.479390+/-2.932777
# 8:49:42 PM  9/9/2024   scan stopped!!
