# scan = 89
# date = 9/12/2024
# time = 2:11:06 AM
# proposal = 34735
# experiment = Magnons and paramagnon coupling in MnTe
# experiment_number = 813
# command = scan h 1.225 k 0.0 l 1.225 e 24.75 5 0.25 ef 14.7 preset mcu 60
# builtin_command = scan h 1.225 k 0.0 l 1.225 e 24.75 5 0.25 ef 14.7 preset mcu 60
# users = Benjamin Frandsen, Songxue Chi, George Yumnam, Huibo Cao, Michael Manley, Raphael Hermann, Eleanor Clements
# local_contact = Eleanor Clements
# scan_title = -H0L scans along (101) to (1.5, 0, 0.5) at H/L = 1.225, mcu = 60, E = 25 to 5 mev
# monochromator = PG002
# analyzer = Pg002
# sense = -+-
# collimation = 48-40-40-120
# samplename = MnTe
# sampletype = crystal
# samplemosaic = 30.000000
# latticeconstants = 4.128474,4.128474,6.651507,90.000000,90.000000,120.000000
# ubmatrix = -0.000328,-0.004396,-0.150319,-0.279308,-0.152332,0.000314,-0.014647,0.234528,-0.002614
# mode = 0
# plane_normal = -0.017470,-0.052341,0.998476
# ubconf = UB09Sep2024_43441PM.ini
# preset_type = normal 
# preset_channel = mcu
# preset_value = 60.000000
# def_x = e
# def_y = detector
# col_headers = 
#   Pt.          h          k          l          e         ef       time   detector    monitor        mcu focal_length         m1         m2   mcrystal       marc     mtrans     mfocus       ampl         dc       freq     output       temp     temp_2         s1         s2        sgl        sgu        bbb        bbl        bbr        bbt        bab        bal        bar        bat        stl        stu         a1         a2          q         ei   ampl_out output_state        vti     sample
      1     1.2250     0.0000     1.2250    24.7495    14.7000     38.945      7.000 150721.000     60.000    40.7751   -20.0773   -24.7850   120.0962    -0.1480    -3.0001   -58.1370     0.0000     0.0000     0.0000     1.0000     5.0000   300.0000    -4.5243    29.8515     1.0010    -2.9998     9.0000    10.0000     5.0000    14.0000    16.0000     5.0000    10.0000    16.0000    -0.0005     0.0005   159.4167   -41.1662     2.4440    39.4495     2.0000     1.0000     4.9998     0.000
      2     1.2250     0.0000     1.2250    24.5003    14.7000     39.089      5.000 150721.000     60.000    40.9049   -20.0773   -24.8649   120.0962    -0.1480    -3.0001   -57.9360     0.0000     0.0000     0.0000     1.0000     5.0000   300.0000    -4.8398    30.1334     1.0010    -2.9998     9.0000    10.0000     5.0000    14.0000    16.0000     5.0000    10.0000    16.0000    -0.0005     0.0005   159.4167   -41.1662     2.4441    39.2003     2.0000     1.0000     5.0003     0.000
      3     1.2250     0.0000     1.2250    24.2497    14.7000     39.058      4.000 150721.000     60.000    41.0360   -20.0773   -24.9460   120.0962    -0.1480    -3.0001   -57.7345     0.0000     0.0000     0.0000     1.0000     5.0000   300.0000    -5.1539    30.4119     1.0010    -2.9998     9.0000    10.0000     5.0000    14.0000    16.0000     5.0000    10.0000    16.0000    -0.0005     0.0005   159.4167   -41.1662     2.4441    38.9497     2.0000     1.0000     4.9989     0.000
      4     1.2250     0.0000     1.2250    24.0003    14.7000     39.516      9.000 150721.000     60.000    41.1683   -20.0773   -25.0276   120.0962    -0.1480    -3.0001   -57.5324     0.0000     0.0000     0.0000     1.0000     5.0000   300.0000    -5.4660    30.6883     1.0010    -2.9998     9.0000    10.0000     5.0000    14.0000    16.0000     5.0000    10.0000    16.0000    -0.0005     0.0005   159.4167   -41.1662     2.4441    38.7003     2.0000     1.0000     5.0005     0.000
      5     1.2250     0.0000     1.2250    23.7499    14.7000     39.636      8.000 150721.000     60.000    41.3020   -20.0773   -25.1103   120.0962    -0.1480    -3.0001   -57.3298     0.0000     0.0000     0.0000     1.0000     5.0000   300.0000    -5.7774    30.9651     1.0010    -2.9998     9.0000    10.0000     5.0000    14.0000    16.0000     5.0000    10.0000    16.0000    -0.0005     0.0005   159.4167   -41.1662     2.4441    38.4499     2.0000     1.0000     5.0006     0.000
      6     1.2250     0.0000     1.2250    23.5004    14.7000     39.784      3.000 150721.000     60.000    41.4369   -20.0773   -25.1935   120.0962    -0.1480    -3.0001   -57.1267     0.0000     0.0000     0.0000     1.0000     5.0000   300.0000    -6.0871    31.2393     1.0010    -2.9998     9.0000    10.0000     5.0000    14.0000    16.0000     5.0000    10.0000    16.0000    -0.0005     0.0005   159.4167   -41.1662     2.4441    38.2004     2.0000     1.0000     4.9994     0.000
      7     1.2250     0.0000     1.2250    23.2497    14.7000     40.316      2.000 150721.000     60.000    41.5732   -20.0773   -25.2779   120.0962    -0.1480    -3.0001   -56.9230     0.0000     0.0000     0.0000     1.0000     5.0000   300.0000    -6.3958    31.5121     1.0010    -2.9998     9.0000    10.0000     5.0000    14.0000    16.0000     5.0000    10.0000    16.0000    -0.0005     0.0005   159.4167   -41.1662     2.4441    37.9497     2.0000     1.0000     5.0001     0.000
      8     1.2250     0.0000     1.2251    23.0002    14.7000     40.822      4.000 150721.000     60.000    41.7108   -20.0773   -25.3628   120.0962    -0.1480    -3.0001   -56.7188     0.0000     0.0000     0.0000     1.0000     5.0000   300.0000    -6.7027    31.7857     1.0010    -2.9998     9.0000    10.0000     5.0000    14.0000    16.0000     5.0000    10.0000    16.0000    -0.0005     0.0005   159.4167   -41.1662     2.4442    37.7002     2.0000     1.0000     5.0014     0.000
      9     1.2250     0.0000     1.2250    22.7497    14.7000     41.191     14.000 150721.000     60.000    41.8497   -20.0773   -25.4489   120.0962    -0.1480    -3.0001   -56.5140     0.0000     0.0000     0.0000     1.0000     5.0000   300.0000    -7.0090    32.0531     1.0010    -2.9998     9.0000    10.0000     5.0000    14.0000    16.0000     5.0000    10.0000    16.0000    -0.0005     0.0005   159.4167   -41.1662     2.4440    37.4497     2.0000     1.0000     4.9991     0.000
     10     1.2251     0.0000     1.2250    22.5014    14.7000     41.537      3.000 150721.000     60.000    41.9902   -20.0773   -25.5352   120.0962    -0.1480    -3.0001   -56.3086     0.0000     0.0000     0.0000     1.0000     5.0000   300.0000    -7.3139    32.3243     1.0010    -2.9998     9.0000    10.0000     5.0000    14.0000    16.0000     5.0000    10.0000    16.0000    -0.0005     0.0005   159.4167   -41.1662     2.4442    37.2014     2.0000     1.0000     5.0010     0.000
     11     1.2250     0.0000     1.2251    22.2494    14.7000     42.021      6.000 150721.000     60.000    42.1320   -20.0773   -25.6236   120.0962    -0.1480    -3.0001   -56.1026     0.0000     0.0000     0.0000     1.0000     5.0000   300.0000    -7.6171    32.5924     1.0010    -2.9998     9.0000    10.0000     5.0000    14.0000    16.0000     5.0000    10.0000    16.0000    -0.0005     0.0005   159.4167   -41.1662     2.4441    36.9494     2.0000     1.0000     5.0002     0.000
     12     1.2250     0.0000     1.2250    21.9997    14.7000     42.310     11.000 150721.000     60.000    42.2752   -20.0773   -25.7121   120.0962    -0.1480    -3.0001   -55.8961     0.0000     0.0000     0.0000     1.0000     5.0000   300.0000    -7.9200    32.8562     1.0010    -2.9998     9.0000    10.0000     5.0000    14.0000    16.0000     5.0000    10.0000    16.0000    -0.0005     0.0005   159.4167   -41.1662     2.4440    36.6997     2.0000     1.0000     4.9998     0.000
     13     1.2250     0.0000     1.2250    21.7501    14.7000     42.864      7.000 150721.000     60.000    42.4200   -20.0773   -25.8014   120.0962    -0.1480    -3.0001   -55.6890     0.0000     0.0000     0.0000     1.0000     5.0000   300.0000    -8.2218    33.1237     1.0010    -2.9998     9.0000    10.0000     5.0000    14.0000    16.0000     5.0000    10.0000    16.0000    -0.0005     0.0005   159.4167   -41.1662     2.4441    36.4501     2.0000     1.0000     5.0009     0.000
     14     1.2250     0.0000     1.2251    21.4996    14.7000     42.967      8.000 150721.000     60.000    42.5662   -20.0773   -25.8921   120.0962    -0.1480    -3.0001   -55.4813     0.0000     0.0000     0.0000     1.0000     5.0000   300.0000    -8.5225    33.3891     1.0010    -2.9998     9.0000    10.0000     5.0000    14.0000    16.0000     5.0000    10.0000    16.0000    -0.0005     0.0005   159.4167   -41.1662     2.4441    36.1996     2.0000     1.0000     4.9996     0.000
     15     1.2250     0.0000     1.2250    21.2502    14.7000     42.974      7.000 150721.000     60.000    42.7139   -20.0773   -25.9834   120.0962    -0.1480    -3.0001   -55.2730     0.0000     0.0000     0.0000     1.0000     5.0000   300.0000    -8.8221    33.6515     1.0010    -2.9998     9.0000    10.0000     5.0000    14.0000    16.0000     5.0000    10.0000    16.0000    -0.0005     0.0005   159.4167   -41.1662     2.4441    35.9502     2.0000     1.0000     5.0001     0.000
     16     1.2250     0.0000     1.2250    21.0005    14.7000     42.933      8.000 150721.000     60.000    42.8632   -20.0773   -26.0757   120.0962    -0.1480    -3.0001   -55.0642     0.0000     0.0000     0.0000     1.0000     5.0000   300.0000    -9.1209    33.9141     1.0010    -2.9998     9.0000    10.0000     5.0000    14.0000    16.0000     5.0000    10.0000    16.0000    -0.0005     0.0005   159.4167   -41.1662     2.4441    35.7005     2.0000     1.0000     5.0014     0.000
     17     1.2250     0.0000     1.2251    20.7495    14.7000     43.086     11.000 150721.000     60.000    43.0141   -20.0773   -26.1695   120.0962    -0.1480    -3.0001   -54.8546     0.0000     0.0000     0.0000     1.0000     5.0000   300.0000    -9.4191    34.1781     1.0010    -2.9998     9.0000    10.0000     5.0000    14.0000    16.0000     5.0000    10.0000    16.0000    -0.0005     0.0005   159.4167   -41.1662     2.4442    35.4495     2.0000     1.0000     5.0002     0.000
     18     1.2250     0.0000     1.2250    20.4997    14.7000     43.287      4.000 150721.000     60.000    43.1666   -20.0773   -26.2638   120.0962    -0.1480    -3.0001   -54.6446     0.0000     0.0000     0.0000     1.0000     5.0000   300.0000    -9.7160    34.4359     1.0010    -2.9998     9.0000    10.0000     5.0000    14.0000    16.0000     5.0000    10.0000    16.0000    -0.0005     0.0005   159.4167   -41.1662     2.4441    35.1997     2.0000     1.0000     5.0010     0.000
     19     1.2250     0.0000     1.2250    20.2504    14.7000     43.267      9.000 150721.000     60.000    43.3207   -20.0773   -26.3590   120.0962    -0.1480    -3.0001   -54.4338     0.0000     0.0000     0.0000     1.0000     5.0000   300.0000   -10.0124    34.6946     1.0010    -2.9998     9.0000    10.0000     5.0000    14.0000    16.0000     5.0000    10.0000    16.0000    -0.0005     0.0005   159.4167   -41.1662     2.4441    34.9504     2.0000     1.0000     4.9988     0.000
     20     1.2250     0.0000     1.2251    19.9996    14.7000     43.569      5.000 150721.000     60.000    43.4765   -20.0773   -26.4558   120.0962    -0.1480    -3.0001   -54.2224     0.0000     0.0000     0.0000     1.0000     5.0000   300.0000   -10.3081    34.9566     1.0010    -2.9998     9.0000    10.0000     5.0000    14.0000    16.0000     5.0000    10.0000    16.0000    -0.0005     0.0005   159.4167   -41.1662     2.4442    34.6996     2.0000     1.0000     4.9995     0.000
     21     1.2250     0.0000     1.2251    19.7503    14.7000     43.850      6.000 150721.000     60.000    43.6339   -20.0773   -26.5531   120.0962    -0.1480    -3.0001   -54.0105     0.0000     0.0000     0.0000     1.0000     5.0000   300.0000   -10.6029    35.2131     1.0010    -2.9998     9.0000    10.0000     5.0000    14.0000    16.0000     5.0000    10.0000    16.0000    -0.0005     0.0005   159.4167   -41.1662     2.4441    34.4503     2.0000     1.0000     5.0009     0.000
     22     1.2250     0.0000     1.2250    19.4998    14.7000     44.173     10.000 150721.000     60.000    43.7931   -20.0773   -26.6519   120.0962    -0.1480    -3.0001   -53.7978     0.0000     0.0000     0.0000     1.0000     5.0000   300.0000   -10.8972    35.4676     1.0010    -2.9998     9.0000    10.0000     5.0000    14.0000    16.0000     5.0000    10.0000    16.0000    -0.0005     0.0005   159.4167   -41.1662     2.4440    34.1998     2.0000     1.0000     5.0009     0.000
     23     1.2250     0.0000     1.2250    19.2501    14.7000     44.506     11.000 150721.000     60.000    43.9541   -20.0773   -26.7516   120.0962    -0.1480    -3.0001   -53.5845     0.0000     0.0000     0.0000     1.0000     5.0000   300.0000   -11.1910    35.7255     1.0010    -2.9998     9.0000    10.0000     5.0000    14.0000    16.0000     5.0000    10.0000    16.0000    -0.0005     0.0005   159.4167   -41.1662     2.4441    33.9501     2.0000     1.0000     4.9999     0.000
     24     1.2251     0.0000     1.2251    19.0003    14.7000     44.898      5.000 150721.000     60.000    44.1168   -20.0773   -26.8524   120.0962    -0.1480    -3.0001   -53.3706     0.0000     0.0000     0.0000     1.0000     5.0000   300.0000   -11.4841    35.9828     1.0010    -2.9998     9.0000    10.0000     5.0000    14.0000    16.0000     5.0000    10.0000    16.0000    -0.0005     0.0005   159.4167   -41.1662     2.4442    33.7003     2.0000     1.0000     4.9992     0.000
     25     1.2250     0.0000     1.2251    18.7494    14.7000     45.329      7.000 150721.000     60.000    44.2813   -20.0773   -26.9548   120.0962    -0.1480    -3.0001   -53.1560     0.0000     0.0000     0.0000     1.0000     5.0000   300.0000   -11.7761    36.2355     1.0010    -2.9998     9.0000    10.0000     5.0000    14.0000    16.0000     5.0000    10.0000    16.0000    -0.0005     0.0005   159.4167   -41.1662     2.4441    33.4494     2.0000     1.0000     4.9998     0.000
     26     1.2250     0.0000     1.2250    18.5000    14.7000     45.494      5.000 150721.000     60.000    44.4478   -20.0773   -27.0578   120.0962    -0.1480    -3.0001   -52.9407     0.0000     0.0000     0.0000     1.0000     5.0000   300.0000   -12.0684    36.4879     1.0010    -2.9998     9.0000    10.0000     5.0000    14.0000    16.0000     5.0000    10.0000    16.0000    -0.0005     0.0005   159.4167   -41.1662     2.4440    33.2000     2.0000     1.0000     5.0006     0.000
     27     1.2250     0.0000     1.2250    18.2503    14.7000     45.982      9.000 150721.000     60.000    44.6161   -20.0773   -27.1621   120.0962    -0.1480    -3.0001   -52.7248     0.0000     0.0000     0.0000     1.0000     5.0000   300.0000   -12.3596    36.7418     1.0010    -2.9998     9.0000    10.0000     5.0000    14.0000    16.0000     5.0000    10.0000    16.0000    -0.0005     0.0005   159.4167   -41.1662     2.4441    32.9503     2.0000     1.0000     5.0002     0.000
     28     1.2250     0.0000     1.2251    17.9999    14.7000     45.966      5.000 150721.000     60.000    44.7863   -20.0773   -27.2678   120.0962    -0.1480    -3.0001   -52.5081     0.0000     0.0000     0.0000     1.0000     5.0000   300.0000   -12.6506    36.9972     1.0010    -2.9998     9.0000    10.0000     5.0000    14.0000    16.0000     5.0000    10.0000    16.0000    -0.0005     0.0005   159.4167   -41.1662     2.4442    32.7000     2.0000     1.0000     5.0004     0.000
     29     1.2250     0.0000     1.2250    17.7503    14.7000     46.075      7.000 150721.000     60.000    44.9585   -20.0773   -27.3745   120.0962    -0.1480    -3.0001   -52.2908     0.0000     0.0000     0.0000     1.0000     5.0000   300.0000   -12.9411    37.2460     1.0010    -2.9998     9.0000    10.0000     5.0000    14.0000    16.0000     5.0000    10.0000    16.0000    -0.0005     0.0005   159.4167   -41.1662     2.4441    32.4504     2.0000     1.0000     4.9996     0.000
     30     1.2250     0.0000     1.2250    17.4998    14.7000     46.686     12.000 150721.000     60.000    45.1326   -20.0773   -27.4829   120.0962    -0.1480    -3.0001   -52.0728     0.0000     0.0000     0.0000     1.0000     5.0000   300.0000   -13.2313    37.4979     1.0010    -2.9998     9.0000    10.0000     5.0000    14.0000    16.0000     5.0000    10.0000    16.0000    -0.0005     0.0005   159.4167   -41.1662     2.4441    32.1999     2.0000     1.0000     5.0003     0.000
     31     1.2250     0.0000     1.2250    17.2499    14.7000     46.903      5.000 150721.000     60.000    45.3089   -20.0773   -27.5923   120.0962    -0.1480    -3.0001   -51.8540     0.0000     0.0000     0.0000     1.0000     5.0000   300.0000   -13.5211    37.7485     1.0010    -2.9998     9.0000    10.0000     5.0000    14.0000    16.0000     5.0000    10.0000    16.0000    -0.0005     0.0005   159.4167   -41.1662     2.4441    31.9499     2.0000     1.0000     4.9992     0.000
     32     1.2250     0.0000     1.2250    17.0000    14.7000     47.067      7.000 150721.000     60.000    45.4872   -20.0773   -27.7030   120.0962    -0.1480    -3.0001   -51.6345     0.0000     0.0000     0.0000     1.0000     5.0000   300.0000   -13.8101    37.9987     1.0010    -2.9998     9.0000    10.0000     5.0000    14.0000    16.0000     5.0000    10.0000    16.0000    -0.0005     0.0005   159.4167   -41.1662     2.4441    31.7000     2.0000     1.0000     4.9999     0.000
     33     1.2250     0.0000     1.2250    16.7499    14.7000     47.429     11.000 150721.000     60.000    45.6676   -20.0773   -27.8151   120.0962    -0.1480    -3.0001   -51.4143     0.0000     0.0000     0.0000     1.0000     5.0000   300.0000   -14.0995    38.2472     1.0010    -2.9998     9.0000    10.0000     5.0000    14.0000    16.0000     5.0000    10.0000    16.0000    -0.0005     0.0005   159.4167   -41.1662     2.4441    31.4499     2.0000     1.0000     5.0001     0.000
     34     1.2250     0.0000     1.2250    16.5002    14.7000     47.511      8.000 150721.000     60.000    45.8503   -20.0773   -27.9285   120.0962    -0.1480    -3.0001   -51.1934     0.0000     0.0000     0.0000     1.0000     5.0000   300.0000   -14.3879    38.4958     1.0010    -2.9998     9.0000    10.0000     5.0000    14.0000    16.0000     5.0000    10.0000    16.0000    -0.0005     0.0005   159.4167   -41.1662     2.4441    31.2002     2.0000     1.0000     4.9990     0.000
     35     1.2250     0.0000     1.2251    16.2498    14.7000     47.496      5.000 150721.000     60.000    46.0351   -20.0773   -28.0435   120.0962    -0.1480    -3.0001   -50.9717     0.0000     0.0000     0.0000     1.0000     5.0000   300.0000   -14.6766    38.7466     1.0010    -2.9998     9.0000    10.0000     5.0000    14.0000    16.0000     5.0000    10.0000    16.0000    -0.0005     0.0005   159.4167   -41.1662     2.4441    30.9498     2.0000     1.0000     4.9996     0.000
     36     1.2250     0.0000     1.2251    15.9998    14.7000     47.712      7.000 150721.000     60.000    46.2221   -20.0773   -28.1598   120.0962    -0.1480    -3.0001   -50.7492     0.0000     0.0000     0.0000     1.0000     5.0000   300.0000   -14.9648    38.9950     1.0010    -2.9998     9.0000    10.0000     5.0000    14.0000    16.0000     5.0000    10.0000    16.0000    -0.0005     0.0005   159.4167   -41.1662     2.4442    30.6998     2.0000     1.0000     5.0001     0.000
     37     1.2250     0.0000     1.2250    15.7505    14.7000     47.811      9.000 150721.000     60.000    46.4115   -20.0773   -28.2773   120.0962    -0.1480    -3.0001   -50.5260     0.0000     0.0000     0.0000     1.0000     5.0000   300.0000   -15.2532    39.2397     1.0010    -2.9998     9.0000    10.0000     5.0000    14.0000    16.0000     5.0000    10.0000    16.0000    -0.0005     0.0005   159.4167   -41.1662     2.4441    30.4505     2.0000     1.0000     4.9992     0.000
     38     1.2250     0.0000     1.2250    15.4998    14.7000     48.290      1.000 150721.000     60.000    46.6032   -20.0773   -28.3968   120.0962    -0.1480    -3.0001   -50.3021     0.0000     0.0000     0.0000     1.0000     5.0000   300.0000   -15.5408    39.4865     1.0010    -2.9998     9.0000    10.0000     5.0000    14.0000    16.0000     5.0000    10.0000    16.0000    -0.0005     0.0005   159.4167   -41.1662     2.4440    30.1998     2.0000     1.0000     4.9996     0.000
     39     1.2250     0.0000     1.2250    15.2502    14.7000     48.704      6.000 150721.000     60.000    46.7972   -20.0773   -28.5174   120.0962    -0.1480    -3.0001   -50.0773     0.0000     0.0000     0.0000     1.0000     5.0000   300.0000   -15.8288    39.7344     1.0010    -2.9998     9.0000    10.0000     5.0000    14.0000    16.0000     5.0000    10.0000    16.0000    -0.0005     0.0005   159.4167   -41.1662     2.4441    29.9502     2.0000     1.0000     5.0025     0.000
     40     1.2251     0.0000     1.2251    14.9999    14.7000     48.594     10.000 150721.000     60.000    46.9938   -20.0773   -28.6399   120.0962    -0.1480    -3.0001   -49.8518     0.0000     0.0000     0.0000     1.0000     5.0000   300.0000   -16.1160    39.9826     1.0010    -2.9998     9.0000    10.0000     5.0000    14.0000    16.0000     5.0000    10.0000    16.0000    -0.0005     0.0005   159.4167   -41.1662     2.4442    29.6999     2.0000     1.0000     4.9995     0.000
     41     1.2250     0.0000     1.2250    14.7500    14.7000     48.637      5.000 150721.000     60.000    47.1929   -20.0773   -28.7637   120.0962    -0.1480    -3.0001   -49.6254     0.0000     0.0000     0.0000     1.0000     5.0000   300.0000   -16.4040    40.2251     1.0010    -2.9998     9.0000    10.0000     5.0000    14.0000    16.0000     5.0000    10.0000    16.0000    -0.0005     0.0005   159.4167   -41.1662     2.4441    29.4501     2.0000     1.0000     4.9996     0.000
     42     1.2249     0.0000     1.2250    14.4998    14.7000     48.095      4.000 150721.000     60.000    47.3944   -20.0773   -28.8894   120.0962    -0.1480    -3.0001   -49.3982     0.0000     0.0000     0.0000     1.0000     5.0000   300.0000   -16.6911    40.4688     1.0010    -2.9998     9.0000    10.0000     5.0000    14.0000    16.0000     5.0000    10.0000    16.0000    -0.0005     0.0005   159.4167   -41.1662     2.4440    29.1998     2.0000     1.0000     4.9986     0.000
     43     1.2250     0.0000     1.2250    14.2506    14.7000     47.664      8.000 150721.000     60.000    47.5986   -20.0773   -29.0161   120.0962    -0.1480    -3.0001   -49.1702     0.0000     0.0000     0.0000     1.0000     5.0000   300.0000   -16.9790    40.7161     1.0010    -2.9998     9.0000    10.0000     5.0000    14.0000    16.0000     5.0000    10.0000    16.0000    -0.0005     0.0005   159.4167   -41.1662     2.4441    28.9507     2.0000     1.0000     5.0007     0.000
     44     1.2250     0.0000     1.2250    13.9994    14.7000     46.868     11.000 150721.000     60.000    47.8055   -20.0773   -29.1456   120.0962    -0.1480    -3.0001   -48.9414     0.0000     0.0000     0.0000     1.0000     5.0000   300.0000   -17.2659    40.9601     1.0010    -2.9998     9.0000    10.0000     5.0000    14.0000    16.0000     5.0000    10.0000    16.0000    -0.0005     0.0005   159.4167   -41.1662     2.4441    28.6995     2.0000     1.0000     4.9993     0.000
     45     1.2251     0.0000     1.2251    13.7503    14.7000     45.864      6.000 150721.000     60.000    48.0151   -20.0773   -29.2758   120.0962    -0.1480    -3.0001   -48.7117     0.0000     0.0000     0.0000     1.0000     5.0000   300.0000   -17.5541    41.2070     1.0010    -2.9998     9.0000    10.0000     5.0000    14.0000    16.0000     5.0000    10.0000    16.0000    -0.0005     0.0005   159.4167   -41.1662     2.4442    28.4503     2.0000     1.0000     4.9986     0.000
     46     1.2250     0.0000     1.2250    13.5003    14.7000     45.699      2.000 150721.000     60.000    48.2274   -20.0773   -29.4082   120.0962    -0.1480    -3.0001   -48.4811     0.0000     0.0000     0.0000     1.0000     5.0000   300.0000   -17.8410    41.4489     1.0010    -2.9998     9.0000    10.0000     5.0000    14.0000    16.0000     5.0000    10.0000    16.0000    -0.0005     0.0005   159.4167   -41.1662     2.4441    28.2003     2.0000     1.0000     4.9992     0.000
     47     1.2250     0.0000     1.2250    13.2497    14.7000     45.657     13.000 150721.000     60.000    48.4427   -20.0773   -29.5428   120.0962    -0.1480    -3.0001   -48.2497     0.0000     0.0000     0.0000     1.0000     5.0000   300.0000   -18.1291    41.6912     1.0010    -2.9998     9.0000    10.0000     5.0000    14.0000    16.0000     5.0000    10.0000    16.0000    -0.0005     0.0005   159.4167   -41.1662     2.4440    27.9497     2.0000     1.0000     4.9996     0.000
     48     1.2250     0.0000     1.2250    12.9999    14.7000     46.212      4.000 150721.000     60.000    48.6608   -20.0773   -29.6787   120.0962    -0.1480    -3.0001   -48.0174     0.0000     0.0000     0.0000     1.0000     5.0000   300.0000   -18.4165    41.9363     1.0010    -2.9998     9.0000    10.0000     5.0000    14.0000    16.0000     5.0000    10.0000    16.0000    -0.0005     0.0005   159.4167   -41.1662     2.4441    27.7000     2.0000     1.0000     5.0020     0.000
     49     1.2250     0.0000     1.2250    12.7500    14.7000     46.759     10.000 150721.000     60.000    48.8819   -20.0773   -29.8166   120.0962    -0.1480    -3.0001   -47.7842     0.0000     0.0000     0.0000     1.0000     5.0000   300.0000   -18.7046    42.1804     1.0010    -2.9998     9.0000    10.0000     5.0000    14.0000    16.0000     5.0000    10.0000    16.0000    -0.0005     0.0005   159.4167   -41.1662     2.4442    27.4500     2.0000     1.0000     4.9995     0.000
     50     1.2250     0.0000     1.2250    12.4998    14.7000     47.641      4.000 150721.000     60.000    49.1060   -20.0773   -29.9566   120.0962    -0.1480    -3.0001   -47.5501     0.0000     0.0000     0.0000     1.0000     5.0000   300.0000   -18.9924    42.4214     1.0010    -2.9998     9.0000    10.0000     5.0000    14.0000    16.0000     5.0000    10.0000    16.0000    -0.0005     0.0005   159.4167   -41.1662     2.4441    27.1998     2.0000     1.0000     5.0011     0.000
     51     1.2250     0.0000     1.2250    12.2505    14.7000     48.398      2.000 150721.000     60.000    49.3332   -20.0773   -30.0981   120.0962    -0.1480    -3.0001   -47.3151     0.0000     0.0000     0.0000     1.0000     5.0000   300.0000   -19.2810    42.6631     1.0010    -2.9998     9.0000    10.0000     5.0000    14.0000    16.0000     5.0000    10.0000    16.0000    -0.0005     0.0005   159.4167   -41.1662     2.4440    26.9505     2.0000     1.0000     5.0013     0.000
     52     1.2250     0.0000     1.2250    11.9996    14.7000     48.837      6.000 150721.000     60.000    49.5636   -20.0773   -30.2426   120.0962    -0.1480    -3.0001   -47.0791     0.0000     0.0000     0.0000     1.0000     5.0000   300.0000   -19.5694    42.9066     1.0010    -2.9998     9.0000    10.0000     5.0000    14.0000    16.0000     5.0000    10.0000    16.0000    -0.0005     0.0005   159.4167   -41.1662     2.4441    26.6996     2.0000     1.0000     4.9982     0.000
     53     1.2250     0.0000     1.2250    11.7500    14.7000     48.975      3.000 150721.000     60.000    49.7973   -20.0773   -30.3884   120.0962    -0.1480    -3.0001   -46.8422     0.0000     0.0000     0.0000     1.0000     5.0000   300.0000   -19.8580    43.1503     1.0010    -2.9998     9.0000    10.0000     5.0000    14.0000    16.0000     5.0000    10.0000    16.0000    -0.0005     0.0005   159.4167   -41.1662     2.4441    26.4500     2.0000     1.0000     4.9994     0.000
     54     1.2251     0.0000     1.2251    11.5002    14.7000     48.909      2.000 150721.000     60.000    50.0343   -20.0773   -30.5364   120.0962    -0.1480    -3.0001   -46.6044     0.0000     0.0000     0.0000     1.0000     5.0000   300.0000   -20.1469    43.3934     1.0010    -2.9998     9.0000    10.0000     5.0000    14.0000    16.0000     5.0000    10.0000    16.0000    -0.0005     0.0005   159.4167   -41.1662     2.4442    26.2002     2.0000     1.0000     5.0002     0.000
     55     1.2250     0.0000     1.2250    11.2499    14.7000     48.572      4.000 150721.000     60.000    50.2748   -20.0773   -30.6869   120.0962    -0.1480    -3.0001   -46.3655     0.0000     0.0000     0.0000     1.0000     5.0000   300.0000   -20.4365    43.6326     1.0010    -2.9998     9.0000    10.0000     5.0000    14.0000    16.0000     5.0000    10.0000    16.0000    -0.0005     0.0005   159.4167   -41.1662     2.4440    25.9499     2.0000     1.0000     4.9997     0.000
     56     1.2250     0.0000     1.2250    10.9999    14.7000     48.201      6.000 150721.000     60.000    50.5187   -20.0773   -30.8395   120.0962    -0.1480    -3.0001   -46.1257     0.0000     0.0000     0.0000     1.0000     5.0000   300.0000   -20.7259    43.8739     1.0010    -2.9998     9.0000    10.0000     5.0000    14.0000    16.0000     5.0000    10.0000    16.0000    -0.0005     0.0005   159.4167   -41.1662     2.4440    25.6999     2.0000     1.0000     4.9998     0.000
     57     1.2250     0.0000     1.2250    10.7500    14.7000     47.732     12.000 150721.000     60.000    50.7662   -20.0773   -30.9943   120.0962    -0.1480    -3.0001   -45.8849     0.0000     0.0000     0.0000     1.0000     5.0000   300.0000   -21.0161    44.1174     1.0010    -2.9998     9.0000    10.0000     5.0000    14.0000    16.0000     5.0000    10.0000    16.0000    -0.0005     0.0005   159.4167   -41.1662     2.4441    25.4500     2.0000     1.0000     5.0001     0.000
     58     1.2250     0.0000     1.2250    10.5001    14.7000     48.020      5.000 150721.000     60.000    51.0174   -20.0773   -31.1515   120.0962    -0.1480    -3.0001   -45.6430     0.0000     0.0000     0.0000     1.0000     5.0000   300.0000   -21.3065    44.3590     1.0010    -2.9998     9.0000    10.0000     5.0000    14.0000    16.0000     5.0000    10.0000    16.0000    -0.0005     0.0005   159.4167   -41.1662     2.4441    25.2001     2.0000     1.0000     5.0003     0.000
     59     1.2250     0.0000     1.2250    10.2502    14.7000     48.143      6.000 150721.000     60.000    51.2724   -20.0773   -31.3111   120.0962    -0.1480    -3.0001   -45.4002     0.0000     0.0000     0.0000     1.0000     5.0000   300.0000   -21.5972    44.6009     1.0010    -2.9998     9.0000    10.0000     5.0000    14.0000    16.0000     5.0000    10.0000    16.0000    -0.0005     0.0005   159.4167   -41.1662     2.4441    24.9502     2.0000     1.0000     5.0012     0.000
     60     1.2250     0.0000     1.2250    10.0001    14.7000     48.754      6.000 150721.000     60.000    51.5312   -20.0773   -31.4733   120.0962    -0.1480    -3.0001   -45.1562     0.0000     0.0000     0.0000     1.0000     5.0000   300.0000   -21.8890    44.8416     1.0010    -2.9998     9.0000    10.0000     5.0000    14.0000    16.0000     5.0000    10.0000    16.0000    -0.0005     0.0005   159.4167   -41.1662     2.4441    24.7001     2.0000     1.0000     5.0007     0.000
     61     1.2250     0.0000     1.2250     9.7498    14.7000     49.619      4.000 150721.000     60.000    51.7940   -20.0773   -31.6382   120.0962    -0.1480    -3.0001   -44.9112     0.0000     0.0000     0.0000     1.0000     5.0000   300.0000   -22.1804    45.0818     1.0010    -2.9998     9.0000    10.0000     5.0000    14.0000    16.0000     5.0000    10.0000    16.0000    -0.0005     0.0005   159.4167   -41.1662     2.4440    24.4498     2.0000     1.0000     5.0003     0.000
     62     1.2250     0.0000     1.2250     9.4997    14.7000     50.679      6.000 150721.000     60.000    52.0609   -20.0773   -31.8056   120.0962    -0.1480    -3.0001   -44.6652     0.0000     0.0000     0.0000     1.0000     5.0000   300.0000   -22.4729    45.3249     1.0010    -2.9998     9.0000    10.0000     5.0000    14.0000    16.0000     5.0000    10.0000    16.0000    -0.0005     0.0005   159.4167   -41.1662     2.4441    24.1997     2.0000     1.0000     4.9998     0.000
     63     1.2250     0.0000     1.2250     9.2503    14.7000     51.208      7.000 150721.000     60.000    52.3319   -20.0773   -31.9752   120.0962    -0.1480    -3.0001   -44.4180     0.0000     0.0000     0.0000     1.0000     5.0000   300.0000   -22.7656    45.5668     1.0010    -2.9998     9.0000    10.0000     5.0000    14.0000    16.0000     5.0000    10.0000    16.0000    -0.0005     0.0005   159.4167   -41.1662     2.4441    23.9503     2.0000     1.0000     5.0001     0.000
     64     1.2250     0.0000     1.2250     8.9998    14.7000     50.727      1.000 150721.000     60.000    52.6071   -20.0773   -32.1482   120.0962    -0.1480    -3.0001   -44.1697     0.0000     0.0000     0.0000     1.0000     5.0000   300.0000   -23.0595    45.8082     1.0010    -2.9998     9.0000    10.0000     5.0000    14.0000    16.0000     5.0000    10.0000    16.0000    -0.0005     0.0005   159.4167   -41.1662     2.4441    23.6998     2.0000     1.0000     5.0001     0.000
     65     1.2250     0.0000     1.2250     8.7501    14.7000     49.513      6.000 150721.000     60.000    52.8868   -20.0773   -32.3237   120.0962    -0.1480    -3.0001   -43.9203     0.0000     0.0000     0.0000     1.0000     5.0000   300.0000   -23.3535    46.0470     1.0010    -2.9998     9.0000    10.0000     5.0000    14.0000    16.0000     5.0000    10.0000    16.0000    -0.0005     0.0005   159.4167   -41.1662     2.4440    23.4501     2.0000     1.0000     5.0000     0.000
     66     1.2250     0.0000     1.2250     8.5002    14.7000     47.794      7.000 150721.000     60.000    53.1710   -20.0773   -32.5021   120.0962    -0.1480    -3.0001   -43.6697     0.0000     0.0000     0.0000     1.0000     5.0000   300.0000   -23.6479    46.2891     1.0010    -2.9998     9.0000    10.0000     5.0000    14.0000    16.0000     5.0000    10.0000    16.0000    -0.0005     0.0005   159.4167   -41.1662     2.4440    23.2002     2.0000     1.0000     4.9999     0.000
     67     1.2250     0.0000     1.2250     8.2498    14.7000     46.023      5.000 150721.000     60.000    53.4598   -20.0773   -32.6838   120.0962    -0.1480    -3.0001   -43.4180     0.0000     0.0000     0.0000     1.0000     5.0000   300.0000   -23.9439    46.5332     1.0010    -2.9998     9.0000    10.0000     5.0000    14.0000    16.0000     5.0000    10.0000    16.0000    -0.0005     0.0005   159.4167   -41.1662     2.4442    22.9498     2.0000     1.0000     5.0000     0.000
     68     1.2250     0.0000     1.2250     8.0000    14.7000     45.025      1.000 150721.000     60.000    53.7534   -20.0773   -32.8682   120.0962    -0.1480    -3.0001   -43.1651     0.0000     0.0000     0.0000     1.0000     5.0000   300.0000   -24.2396    46.7741     1.0010    -2.9998     9.0000    10.0000     5.0000    14.0000    16.0000     5.0000    10.0000    16.0000    -0.0005     0.0005   159.4167   -41.1662     2.4441    22.7000     2.0000     1.0000     4.9993     0.000
     69     1.2250     0.0000     1.2250     7.7500    14.7000     44.366      3.000 150721.000     60.000    54.0519   -20.0773   -33.0560   120.0962    -0.1480    -3.0001   -42.9109     0.0000     0.0000     0.0000     1.0000     5.0000   300.0000   -24.5368    47.0162     1.0010    -2.9998     9.0000    10.0000     5.0000    14.0000    16.0000     5.0000    10.0000    16.0000    -0.0005     0.0005   159.4167   -41.1662     2.4442    22.4500     2.0000     1.0000     5.0000     0.000
     70     1.2250     0.0000     1.2250     7.5000    14.7000     44.195      7.000 150721.000     60.000    54.3554   -20.0773   -33.2469   120.0962    -0.1480    -3.0001   -42.6556     0.0000     0.0000     0.0000     1.0000     5.0000   300.0000   -24.8346    47.2546     1.0010    -2.9998     9.0000    10.0000     5.0000    14.0000    16.0000     5.0000    10.0000    16.0000    -0.0005     0.0005   159.4167   -41.1662     2.4440    22.2000     2.0000     1.0000     5.0004     0.000
     71     1.2250     0.0000     1.2250     7.2502    14.7000     44.340      6.000 150721.000     60.000    54.6640   -20.0773   -33.4411   120.0962    -0.1480    -3.0001   -42.3989     0.0000     0.0000     0.0000     1.0000     5.0000   300.0000   -25.1331    47.4974     1.0010    -2.9998     9.0000    10.0000     5.0000    14.0000    16.0000     5.0000    10.0000    16.0000    -0.0005     0.0005   159.4167   -41.1662     2.4441    21.9502     2.0000     1.0000     4.9990     0.000
     72     1.2250     0.0000     1.2250     6.9996    14.7000     44.482      7.000 150721.000     60.000    54.9780   -20.0773   -33.6393   120.0962    -0.1480    -3.0001   -42.1410     0.0000     0.0000     0.0000     1.0000     5.0000   300.0000   -25.4325    47.7399     1.0010    -2.9998     9.0000    10.0000     5.0000    14.0000    16.0000     5.0000    10.0000    16.0000    -0.0005     0.0005   159.4167   -41.1662     2.4441    21.6996     2.0000     1.0000     4.9995     0.000
     73     1.2251     0.0000     1.2250     6.7503    14.7000     44.854      6.000 150721.000     60.000    55.2975   -20.0773   -33.8401   120.0962    -0.1480    -3.0001   -41.8818     0.0000     0.0000     0.0000     1.0000     5.0000   300.0000   -25.7331    47.9838     1.0010    -2.9998     9.0000    10.0000     5.0000    14.0000    16.0000     5.0000    10.0000    16.0000    -0.0005     0.0005   159.4167   -41.1662     2.4442    21.4503     2.0000     1.0000     4.9998     0.000
     74     1.2250     0.0000     1.2250     6.4998    14.7000     45.245      7.000 150721.000     60.000    55.6225   -20.0773   -34.0456   120.0962    -0.1480    -3.0001   -41.6214     0.0000     0.0000     0.0000     1.0000     5.0000   300.0000   -26.0343    48.2231     1.0010    -2.9998     9.0000    10.0000     5.0000    14.0000    16.0000     5.0000    10.0000    16.0000    -0.0005     0.0005   159.4167   -41.1662     2.4440    21.1998     2.0000     1.0000     4.9988     0.000
     75     1.2249     0.0000     1.2250     6.2501    14.7000     45.949      5.000 150721.000     60.000    55.9535   -20.0773   -34.2540   120.0962    -0.1480    -3.0001   -41.3595     0.0000     0.0000     0.0000     1.0000     5.0000   300.0000   -26.3364    48.4639     1.0010    -2.9998     9.0000    10.0000     5.0000    14.0000    16.0000     5.0000    10.0000    16.0000    -0.0005     0.0005   159.4167   -41.1662     2.4440    20.9501     2.0000     1.0000     5.0003     0.000
     76     1.2250     0.0000     1.2250     6.0000    14.7000     46.907      2.000 150721.000     60.000    56.2903   -20.0773   -34.4668   120.0962    -0.1480    -3.0001   -41.0963     0.0000     0.0000     0.0000     1.0000     5.0000   300.0000   -26.6399    48.7084     1.0010    -2.9998     9.0000    10.0000     5.0000    14.0000    16.0000     5.0000    10.0000    16.0000    -0.0005     0.0005   159.4167   -41.1662     2.4441    20.7000     2.0000     1.0000     5.0033     0.000
     77     1.2250     0.0000     1.2250     5.7501    14.7000     47.663      5.000 150721.000     60.000    56.6333   -20.0773   -34.6834   120.0962    -0.1480    -3.0001   -40.8317     0.0000     0.0000     0.0000     1.0000     5.0000   300.0000   -26.9445    48.9517     1.0010    -2.9998     9.0000    10.0000     5.0000    14.0000    16.0000     5.0000    10.0000    16.0000    -0.0005     0.0005   159.4167   -41.1662     2.4441    20.4501     2.0000     1.0000     4.9998     0.000
     78     1.2251     0.0000     1.2251     5.4999    14.7000     48.907      8.000 150721.000     60.000    56.9827   -20.0773   -34.9044   120.0962    -0.1480    -3.0001   -40.5656     0.0000     0.0000     0.0000     1.0000     5.0000   300.0000   -27.2496    49.1970     1.0010    -2.9998     9.0000    10.0000     5.0000    14.0000    16.0000     5.0000    10.0000    16.0000    -0.0005     0.0005   159.4167   -41.1662     2.4442    20.1999     2.0000     1.0000     5.0000     0.000
     79     1.2250     0.0000     1.2250     5.2500    14.7000     49.484      8.000 150721.000     60.000    57.3387   -20.0773   -35.1293   120.0962    -0.1480    -3.0001   -40.2982     0.0000     0.0000     0.0000     1.0000     5.0000   300.0000   -27.5566    49.4373     1.0010    -2.9998     9.0000    10.0000     5.0000    14.0000    16.0000     5.0000    10.0000    16.0000    -0.0005     0.0005   159.4167   -41.1662     2.4441    19.9500     2.0000     1.0000     4.9996     0.000
     80     1.2250     0.0000     1.2250     5.0000    14.7000     50.067      5.000 150721.000     60.000    57.7013   -20.0773   -35.3589   120.0962    -0.1480    -3.0001   -40.0292     0.0000     0.0000     0.0000     1.0000     5.0000   300.0000   -27.8646    49.6788     1.0010    -2.9998     9.0000    10.0000     5.0000    14.0000    16.0000     5.0000    10.0000    16.0000    -0.0005     0.0005   159.4167   -41.1662     2.4440    19.7000     2.0000     1.0000     4.9998     0.000
# Sum of Counts = 506
# Center of Mass = 15.408572+/-1.000605
# Full Width Half-Maximum = 11.272011+/-0.488004
# 3:31:26 AM  9/12/2024   scan completed.
