# scan = 57
# date = 9/10/2024
# time = 9:06:29 PM
# proposal = 34735
# experiment = Magnons and paramagnon coupling in MnTe
# experiment_number = 813
# command = scan h 1.375 k 0.0 l 1.375 e 29.75 5 0.25 ef 14.7 preset mcu 60
# builtin_command = scan h 1.375 k 0.0 l 1.375 e 29.75 5 0.25 ef 14.7 preset mcu 60
# users = Benjamin Frandsen, Songxue Chi, George Yumnam, Huibo Cao, Michael Manley, Raphael Hermann, Eleanor Clements
# local_contact = Eleanor Clements
# scan_title = H0L scans along (101) to (1.5, 0, 1.5) at H/L = 1.375, mcu = 60, E = 30 to 5 mev
# monochromator = PG002
# analyzer = Pg002
# sense = -+-
# collimation = 48-40-40-120
# samplename = MnTe
# sampletype = crystal
# samplemosaic = 30.000000
# latticeconstants = 4.128474,4.128474,6.651507,90.000000,90.000000,120.000000
# ubmatrix = -0.000328,-0.004396,-0.150319,-0.279308,-0.152332,0.000314,-0.014647,0.234528,-0.002614
# mode = 0
# plane_normal = -0.017470,-0.052341,0.998476
# ubconf = UB09Sep2024_43441PM.ini
# preset_type = normal 
# preset_channel = mcu
# preset_value = 60.000000
# def_x = e
# def_y = detector
# col_headers = 
#   Pt.          h          k          l          e         ef       time   detector    monitor        mcu focal_length         m1         m2   mcrystal       marc     mtrans     mfocus       ampl         dc       freq     output       temp     temp_2         s1         s2        sgl        sgu        bbb        bbl        bbr        bbt        bab        bal        bar        bat        stl        stu         a1         a2          q         ei   ampl_out output_state        vti     sample
      1     1.3750     0.0000     1.3751    29.7495    14.7000     43.683      8.000 150721.000     60.000    38.4134   -20.0773   -23.3286   120.0962    -0.1480    -3.0001   -62.0538     0.0000     0.0000     0.0000     1.0000     5.0000   300.0000    -2.2291    31.5775     1.0010    -2.9998     9.0000    10.0000     5.0000    14.0000    16.0000     5.0000    10.0000    16.0000    -0.0005     0.0005   159.4164   -41.1662     2.7434    44.4495     2.0000     1.0000     4.9996     0.000
      2     1.3750     0.0000     1.3750    29.5002    14.7000     43.716      7.000 150721.000     60.000    38.5219   -20.0773   -23.3952   120.0962    -0.1480    -3.0001   -61.8623     0.0000     0.0000     0.0000     1.0000     5.0000   300.0000    -2.4904    31.8464     1.0010    -2.9998     9.0000    10.0000     5.0000    14.0000    16.0000     5.0000    10.0000    16.0000    -0.0005     0.0005   159.4164   -41.1662     2.7433    44.2002     2.0000     1.0000     5.0013     0.000
      3     1.3750     0.0000     1.3750    29.2507    14.7000     43.625      8.000 150721.000     60.000    38.6313   -20.0773   -23.4625   120.0962    -0.1480    -3.0001   -61.6704     0.0000     0.0000     0.0000     1.0000     5.0000   300.0000    -2.7506    32.1192     1.0010    -2.9998     9.0000    10.0000     5.0000    14.0000    16.0000     5.0000    10.0000    16.0000    -0.0005     0.0005   159.4164   -41.1662     2.7434    43.9507     2.0000     1.0000     5.0005     0.000
      4     1.3750     0.0000     1.3751    28.9994    14.7000     43.410      9.000 150721.000     60.000    38.7417   -20.0773   -23.5308   120.0962    -0.1480    -3.0001   -61.4781     0.0000     0.0000     0.0000     1.0000     5.0000   300.0000    -3.0096    32.3901     1.0010    -2.9998     9.0000    10.0000     5.0000    14.0000    16.0000     5.0000    10.0000    16.0000    -0.0005     0.0005   159.4164   -41.1662     2.7434    43.6994     2.0000     1.0000     5.0002     0.000
      5     1.3750     0.0000     1.3750    28.7501    14.7000     43.101      7.000 150721.000     60.000    38.8530   -20.0773   -23.5992   120.0962    -0.1480    -3.0001   -61.2854     0.0000     0.0000     0.0000     1.0000     5.0000   300.0000    -3.2674    32.6550     1.0010    -2.9998     9.0000    10.0000     5.0000    14.0000    16.0000     5.0000    10.0000    16.0000    -0.0005     0.0005   159.4164   -41.1662     2.7433    43.4502     2.0000     1.0000     4.9999     0.000
      6     1.3750     0.0000     1.3750    28.4999    14.7000     43.385      7.000 150721.000     60.000    38.9652   -20.0773   -23.6684   120.0962    -0.1480    -3.0001   -61.0922     0.0000     0.0000     0.0000     1.0000     5.0000   300.0000    -3.5242    32.9243     1.0010    -2.9998     9.0000    10.0000     5.0000    14.0000    16.0000     5.0000    10.0000    16.0000    -0.0005     0.0005   159.4164   -41.1662     2.7433    43.1999     2.0000     1.0000     4.9999     0.000
      7     1.3750     0.0000     1.3751    28.2503    14.7000     43.098      5.000 150721.000     60.000    39.0785   -20.0773   -23.7381   120.0962    -0.1480    -3.0001   -60.8985     0.0000     0.0000     0.0000     1.0000     5.0000   300.0000    -3.7795    33.1916     1.0010    -2.9998     9.0000    10.0000     5.0000    14.0000    16.0000     5.0000    10.0000    16.0000    -0.0005     0.0005   159.4164   -41.1662     2.7434    42.9503     2.0000     1.0000     5.0010     0.000
      8     1.3750     0.0000     1.3750    27.9997    14.7000     43.045      4.000 150721.000     60.000    39.1927   -20.0773   -23.8086   120.0962    -0.1480    -3.0001   -60.7044     0.0000     0.0000     0.0000     1.0000     5.0000   300.0000    -4.0340    33.4544     1.0010    -2.9998     9.0000    10.0000     5.0000    14.0000    16.0000     5.0000    10.0000    16.0000    -0.0005     0.0005   159.4164   -41.1662     2.7433    42.6997     2.0000     1.0000     5.0006     0.000
      9     1.3750     0.0000     1.3751    27.7506    14.7000     42.684      3.000 150721.000     60.000    39.3079   -20.0773   -23.8794   120.0962    -0.1480    -3.0001   -60.5098     0.0000     0.0000     0.0000     1.0000     5.0000   300.0000    -4.2869    33.7214     1.0010    -2.9998     9.0000    10.0000     5.0000    14.0000    16.0000     5.0000    10.0000    16.0000    -0.0005     0.0005   159.4164   -41.1662     2.7434    42.4506     2.0000     1.0000     5.0006     0.000
     10     1.3750     0.0000     1.3751    27.4996    14.7000     42.486      7.000 150721.000     60.000    39.4242   -20.0773   -23.9514   120.0962    -0.1480    -3.0001   -60.3147     0.0000     0.0000     0.0000     1.0000     5.0000   300.0000    -4.5396    33.9844     1.0010    -2.9998     9.0000    10.0000     5.0000    14.0000    16.0000     5.0000    10.0000    16.0000    -0.0005     0.0005   159.4164   -41.1662     2.7434    42.1996     2.0000     1.0000     4.9999     0.000
     11     1.3750     0.0000     1.3750    27.2498    14.7000     42.488      7.000 150721.000     60.000    39.5415   -20.0773   -24.0236   120.0962    -0.1480    -3.0001   -60.1192     0.0000     0.0000     0.0000     1.0000     5.0000   300.0000    -4.7908    34.2458     1.0010    -2.9998     9.0000    10.0000     5.0000    14.0000    16.0000     5.0000    10.0000    16.0000    -0.0005     0.0005   159.4164   -41.1662     2.7434    41.9498     2.0000     1.0000     4.9992     0.000
     12     1.3750     0.0000     1.3750    27.0010    14.7000     42.087      7.000 150721.000     60.000    39.6598   -20.0773   -24.0963   120.0962    -0.1480    -3.0001   -59.9232     0.0000     0.0000     0.0000     1.0000     5.0000   300.0000    -5.0410    34.5066     1.0010    -2.9998     9.0000    10.0000     5.0000    14.0000    16.0000     5.0000    10.0000    16.0000    -0.0005     0.0005   159.4164   -41.1662     2.7434    41.7010     2.0000     1.0000     5.0012     0.000
     13     1.3750     0.0000     1.3751    26.7501    14.7000     41.431     10.000 150721.000     60.000    39.7792   -20.0773   -24.1702   120.0962    -0.1480    -3.0001   -59.7267     0.0000     0.0000     0.0000     1.0000     5.0000   300.0000    -5.2905    34.7694     1.0010    -2.9998     9.0000    10.0000     5.0000    14.0000    16.0000     5.0000    10.0000    16.0000    -0.0005     0.0005   159.4164   -41.1662     2.7435    41.4501     2.0000     1.0000     4.9987     0.000
     14     1.3750     0.0000     1.3750    26.4993    14.7000     40.998      6.000 150721.000     60.000    39.8998   -20.0773   -24.2448   120.0962    -0.1480    -3.0001   -59.5297     0.0000     0.0000     0.0000     1.0000     5.0000   300.0000    -5.5391    35.0267     1.0010    -2.9998     9.0000    10.0000     5.0000    14.0000    16.0000     5.0000    10.0000    16.0000    -0.0005     0.0005   159.4164   -41.1662     2.7433    41.1993     2.0000     1.0000     5.0017     0.000
     15     1.3750     0.0000     1.3751    26.2500    14.7000     40.531     10.000 150721.000     60.000    40.0214   -20.0773   -24.3196   120.0962    -0.1480    -3.0001   -59.3323     0.0000     0.0000     0.0000     1.0000     5.0000   300.0000    -5.7861    35.2855     1.0010    -2.9998     9.0000    10.0000     5.0000    14.0000    16.0000     5.0000    10.0000    16.0000    -0.0005     0.0005   159.4164   -41.1662     2.7434    40.9500     2.0000     1.0000     4.9993     0.000
     16     1.3750     0.0000     1.3751    26.0001    14.7000     39.948      6.000 150721.000     60.000    40.1441   -20.0773   -24.3953   120.0962    -0.1480    -3.0001   -59.1343     0.0000     0.0000     0.0000     1.0000     5.0000   300.0000    -6.0336    35.5446     1.0010    -2.9998     9.0000    10.0000     5.0000    14.0000    16.0000     5.0000    10.0000    16.0000    -0.0005     0.0005   159.4164   -41.1662     2.7434    40.7001     2.0000     1.0000     4.9987     0.000
     17     1.3750     0.0000     1.3751    25.7498    14.7000     39.664      6.000 150721.000     60.000    40.2680   -20.0773   -24.4718   120.0962    -0.1480    -3.0001   -58.9359     0.0000     0.0000     0.0000     1.0000     5.0000   300.0000    -6.2791    35.8021     1.0010    -2.9998     9.0000    10.0000     5.0000    14.0000    16.0000     5.0000    10.0000    16.0000    -0.0005     0.0005   159.4164   -41.1662     2.7434    40.4498     2.0000     1.0000     5.0007     0.000
     18     1.3750     0.0000     1.3750    25.5007    14.7000     39.426      6.000 150721.000     60.000    40.3930   -20.0773   -24.5487   120.0962    -0.1480    -3.0001   -58.7370     0.0000     0.0000     0.0000     1.0000     5.0000   300.0000    -6.5241    36.0552     1.0010    -2.9998     9.0000    10.0000     5.0000    14.0000    16.0000     5.0000    10.0000    16.0000    -0.0005     0.0005   159.4164   -41.1662     2.7433    40.2007     2.0000     1.0000     4.9996     0.000
     19     1.3750     0.0000     1.3751    25.2503    14.7000     39.300      7.000 150721.000     60.000    40.5192   -20.0773   -24.6267   120.0962    -0.1480    -3.0001   -58.5375     0.0000     0.0000     0.0000     1.0000     5.0000   300.0000    -6.7685    36.3125     1.0010    -2.9998     9.0000    10.0000     5.0000    14.0000    16.0000     5.0000    10.0000    16.0000    -0.0005     0.0005   159.4164   -41.1662     2.7434    39.9503     2.0000     1.0000     4.9997     0.000
     20     1.3750     0.0000     1.3751    25.0001    14.7000     39.231      6.000 150721.000     60.000    40.6465   -20.0773   -24.7054   120.0962    -0.1480    -3.0001   -58.3375     0.0000     0.0000     0.0000     1.0000     5.0000   300.0000    -7.0121    36.5686     1.0010    -2.9998     9.0000    10.0000     5.0000    14.0000    16.0000     5.0000    10.0000    16.0000    -0.0005     0.0005   159.4164   -41.1662     2.7435    39.7001     2.0000     1.0000     4.9995     0.000
     21     1.3750     0.0000     1.3750    24.7495    14.7000     39.205      6.000 150721.000     60.000    40.7751   -20.0773   -24.7850   120.0962    -0.1480    -3.0001   -58.1370     0.0000     0.0000     0.0000     1.0000     5.0000   300.0000    -7.2550    36.8196     1.0010    -2.9998     9.0000    10.0000     5.0000    14.0000    16.0000     5.0000    10.0000    16.0000    -0.0005     0.0005   159.4164   -41.1662     2.7433    39.4495     2.0000     1.0000     5.0009     0.000
     22     1.3750     0.0000     1.3750    24.5003    14.7000     39.112      5.000 150721.000     60.000    40.9049   -20.0773   -24.8649   120.0962    -0.1480    -3.0001   -57.9360     0.0000     0.0000     0.0000     1.0000     5.0000   300.0000    -7.4971    37.0733     1.0010    -2.9998     9.0000    10.0000     5.0000    14.0000    16.0000     5.0000    10.0000    16.0000    -0.0005     0.0005   159.4164   -41.1662     2.7433    39.2003     2.0000     1.0000     5.0014     0.000
     23     1.3750     0.0000     1.3750    24.2497    14.7000     39.270      5.000 150721.000     60.000    41.0360   -20.0773   -24.9460   120.0962    -0.1480    -3.0001   -57.7345     0.0000     0.0000     0.0000     1.0000     5.0000   300.0000    -7.7389    37.3271     1.0010    -2.9998     9.0000    10.0000     5.0000    14.0000    16.0000     5.0000    10.0000    16.0000    -0.0005     0.0005   159.4164   -41.1662     2.7434    38.9497     2.0000     1.0000     4.9996     0.000
     24     1.3750     0.0000     1.3751    24.0003    14.7000     39.246     10.000 150721.000     60.000    41.1683   -20.0773   -25.0276   120.0962    -0.1480    -3.0001   -57.5324     0.0000     0.0000     0.0000     1.0000     5.0000   300.0000    -7.9794    37.5810     1.0010    -2.9998     9.0000    10.0000     5.0000    14.0000    16.0000     5.0000    10.0000    16.0000    -0.0005     0.0005   159.4164   -41.1662     2.7435    38.7003     2.0000     1.0000     5.0002     0.000
     25     1.3750     0.0000     1.3750    23.7499    14.7000     39.556      6.000 150721.000     60.000    41.3020   -20.0773   -25.1103   120.0962    -0.1480    -3.0001   -57.3298     0.0000     0.0000     0.0000     1.0000     5.0000   300.0000    -8.2196    37.8290     1.0010    -2.9998     9.0000    10.0000     5.0000    14.0000    16.0000     5.0000    10.0000    16.0000    -0.0005     0.0005   159.4164   -41.1662     2.7433    38.4499     2.0000     1.0000     4.9986     0.000
     26     1.3750     0.0000     1.3750    23.4999    14.7000     39.909      6.000 150721.000     60.000    41.4369   -20.0773   -25.1936   120.0962    -0.1480    -3.0001   -57.1267     0.0000     0.0000     0.0000     1.0000     5.0000   300.0000    -8.4593    38.0810     1.0010    -2.9998     9.0000    10.0000     5.0000    14.0000    16.0000     5.0000    10.0000    16.0000    -0.0005     0.0005   159.4164   -41.1662     2.7433    38.1999     2.0000     1.0000     5.0009     0.000
     27     1.3750     0.0000     1.3750    23.2499    14.7000     40.212      6.000 150721.000     60.000    41.5732   -20.0773   -25.2779   120.0962    -0.1480    -3.0001   -56.9230     0.0000     0.0000     0.0000     1.0000     5.0000   300.0000    -8.6981    38.3324     1.0010    -2.9998     9.0000    10.0000     5.0000    14.0000    16.0000     5.0000    10.0000    16.0000    -0.0005     0.0005   159.4164   -41.1662     2.7434    37.9499     2.0000     1.0000     4.9994     0.000
     28     1.3751     0.0000     1.3751    23.0002    14.7000     40.758      7.000 150721.000     60.000    41.7108   -20.0773   -25.3628   120.0962    -0.1480    -3.0001   -56.7188     0.0000     0.0000     0.0000     1.0000     5.0000   300.0000    -8.9366    38.5848     1.0010    -2.9998     9.0000    10.0000     5.0000    14.0000    16.0000     5.0000    10.0000    16.0000    -0.0005     0.0005   159.4164   -41.1662     2.7435    37.7002     2.0000     1.0000     5.0007     0.000
     29     1.3750     0.0000     1.3750    22.7496    14.7000     41.403      5.000 150721.000     60.000    41.8497   -20.0773   -25.4490   120.0962    -0.1480    -3.0001   -56.5140     0.0000     0.0000     0.0000     1.0000     5.0000   300.0000    -9.1746    38.8300     1.0010    -2.9998     9.0000    10.0000     5.0000    14.0000    16.0000     5.0000    10.0000    16.0000    -0.0005     0.0005   159.4164   -41.1662     2.7433    37.4496     2.0000     1.0000     5.0013     0.000
     30     1.3751     0.0000     1.3750    22.5017    14.7000     41.440     12.000 150721.000     60.000    41.9902   -20.0773   -25.5351   120.0962    -0.1480    -3.0001   -56.3086     0.0000     0.0000     0.0000     1.0000     5.0000   300.0000    -9.4116    39.0814     1.0010    -2.9998     9.0000    10.0000     5.0000    14.0000    16.0000     5.0000    10.0000    16.0000    -0.0005     0.0005   159.4164   -41.1662     2.7435    37.2017     2.0000     1.0000     4.9997     0.000
     31     1.3750     0.0000     1.3750    22.2492    14.7000     41.945      6.000 150721.000     60.000    42.1320   -20.0773   -25.6236   120.0962    -0.1480    -3.0001   -56.1026     0.0000     0.0000     0.0000     1.0000     5.0000   300.0000    -9.6487    39.3292     1.0010    -2.9998     9.0000    10.0000     5.0000    14.0000    16.0000     5.0000    10.0000    16.0000    -0.0005     0.0005   159.4164   -41.1662     2.7433    36.9493     2.0000     1.0000     5.0003     0.000
     32     1.3750     0.0000     1.3751    21.9996    14.7000     42.186      5.000 150721.000     60.000    42.2752   -20.0773   -25.7121   120.0962    -0.1480    -3.0001   -55.8961     0.0000     0.0000     0.0000     1.0000     5.0000   300.0000    -9.8848    39.5785     1.0010    -2.9998     9.0000    10.0000     5.0000    14.0000    16.0000     5.0000    10.0000    16.0000    -0.0005     0.0005   159.4164   -41.1662     2.7434    36.6996     2.0000     1.0000     4.9997     0.000
     33     1.3750     0.0000     1.3750    21.7501    14.7000     42.568      7.000 150721.000     60.000    42.4200   -20.0773   -25.8014   120.0962    -0.1480    -3.0001   -55.6890     0.0000     0.0000     0.0000     1.0000     5.0000   300.0000   -10.1210    39.8237     1.0010    -2.9998     9.0000    10.0000     5.0000    14.0000    16.0000     5.0000    10.0000    16.0000    -0.0005     0.0005   159.4164   -41.1662     2.7433    36.4501     2.0000     1.0000     5.0005     0.000
     34     1.3750     0.0000     1.3750    21.4994    14.7000     42.854      5.000 150721.000     60.000    42.5662   -20.0773   -25.8922   120.0962    -0.1480    -3.0001   -55.4813     0.0000     0.0000     0.0000     1.0000     5.0000   300.0000   -10.3563    40.0708     1.0010    -2.9998     9.0000    10.0000     5.0000    14.0000    16.0000     5.0000    10.0000    16.0000    -0.0005     0.0005   159.4164   -41.1662     2.7433    36.1994     2.0000     1.0000     4.9993     0.000
     35     1.3750     0.0000     1.3751    21.2500    14.7000     42.993      9.000 150721.000     60.000    42.7139   -20.0773   -25.9834   120.0962    -0.1480    -3.0001   -55.2730     0.0000     0.0000     0.0000     1.0000     5.0000   300.0000   -10.5913    40.3208     1.0010    -2.9998     9.0000    10.0000     5.0000    14.0000    16.0000     5.0000    10.0000    16.0000    -0.0005     0.0005   159.4164   -41.1662     2.7434    35.9500     2.0000     1.0000     5.0008     0.000
     36     1.3751     0.0000     1.3751    21.0006    14.7000     42.945      6.000 150721.000     60.000    42.8632   -20.0773   -26.0756   120.0962    -0.1480    -3.0001   -55.0642     0.0000     0.0000     0.0000     1.0000     5.0000   300.0000   -10.8256    40.5672     1.0010    -2.9998     9.0000    10.0000     5.0000    14.0000    16.0000     5.0000    10.0000    16.0000    -0.0005     0.0005   159.4164   -41.1662     2.7435    35.7006     2.0000     1.0000     4.9992     0.000
     37     1.3750     0.0000     1.3751    20.7495    14.7000     42.970     10.000 150721.000     60.000    43.0141   -20.0773   -26.1695   120.0962    -0.1480    -3.0001   -54.8546     0.0000     0.0000     0.0000     1.0000     5.0000   300.0000   -11.0599    40.8131     1.0010    -2.9998     9.0000    10.0000     5.0000    14.0000    16.0000     5.0000    10.0000    16.0000    -0.0005     0.0005   159.4164   -41.1662     2.7434    35.4495     2.0000     1.0000     4.9992     0.000
     38     1.3750     0.0000     1.3750    20.4996    14.7000     43.017      7.000 150721.000     60.000    43.1666   -20.0773   -26.2638   120.0962    -0.1480    -3.0001   -54.6446     0.0000     0.0000     0.0000     1.0000     5.0000   300.0000   -11.2941    41.0586     1.0010    -2.9998     9.0000    10.0000     5.0000    14.0000    16.0000     5.0000    10.0000    16.0000    -0.0005     0.0005   159.4164   -41.1662     2.7434    35.1996     2.0000     1.0000     5.0000     0.000
     39     1.3750     0.0000     1.3750    20.2505    14.7000     43.222      5.000 150721.000     60.000    43.3207   -20.0773   -26.3589   120.0962    -0.1480    -3.0001   -54.4338     0.0000     0.0000     0.0000     1.0000     5.0000   300.0000   -11.5267    41.3033     1.0010    -2.9998     9.0000    10.0000     5.0000    14.0000    16.0000     5.0000    10.0000    16.0000    -0.0005     0.0005   159.4164   -41.1662     2.7434    34.9505     2.0000     1.0000     4.9993     0.000
     40     1.3750     0.0000     1.3751    19.9996    14.7000     43.274     10.000 150721.000     60.000    43.4765   -20.0773   -26.4558   120.0962    -0.1480    -3.0001   -54.2224     0.0000     0.0000     0.0000     1.0000     5.0000   300.0000   -11.7603    41.5497     1.0010    -2.9998     9.0000    10.0000     5.0000    14.0000    16.0000     5.0000    10.0000    16.0000    -0.0005     0.0005   159.4164   -41.1662     2.7434    34.6996     2.0000     1.0000     5.0005     0.000
     41     1.3751     0.0000     1.3751    19.7502    14.7000     43.866      7.000 150721.000     60.000    43.6339   -20.0773   -26.5531   120.0962    -0.1480    -3.0001   -54.0105     0.0000     0.0000     0.0000     1.0000     5.0000   300.0000   -11.9930    41.7960     1.0010    -2.9998     9.0000    10.0000     5.0000    14.0000    16.0000     5.0000    10.0000    16.0000    -0.0005     0.0005   159.4164   -41.1662     2.7435    34.4502     2.0000     1.0000     5.0005     0.000
     42     1.3750     0.0000     1.3750    19.4999    14.7000     43.901      5.000 150721.000     60.000    43.7931   -20.0773   -26.6519   120.0962    -0.1480    -3.0001   -53.7978     0.0000     0.0000     0.0000     1.0000     5.0000   300.0000   -12.2251    42.0369     1.0010    -2.9998     9.0000    10.0000     5.0000    14.0000    16.0000     5.0000    10.0000    16.0000    -0.0005     0.0005   159.4164   -41.1662     2.7433    34.1999     2.0000     1.0000     4.9994     0.000
     43     1.3750     0.0000     1.3750    19.2499    14.7000     44.473      6.000 150721.000     60.000    43.9541   -20.0773   -26.7516   120.0962    -0.1480    -3.0001   -53.5845     0.0000     0.0000     0.0000     1.0000     5.0000   300.0000   -12.4575    42.2830     1.0010    -2.9998     9.0000    10.0000     5.0000    14.0000    16.0000     5.0000    10.0000    16.0000    -0.0005     0.0005   159.4164   -41.1662     2.7433    33.9499     2.0000     1.0000     4.9984     0.000
     44     1.3750     0.0000     1.3750    19.0004    14.7000     44.827      9.000 150721.000     60.000    44.1168   -20.0773   -26.8523   120.0962    -0.1480    -3.0001   -53.3706     0.0000     0.0000     0.0000     1.0000     5.0000   300.0000   -12.6895    42.5271     1.0010    -2.9998     9.0000    10.0000     5.0000    14.0000    16.0000     5.0000    10.0000    16.0000    -0.0005     0.0005   159.4164   -41.1662     2.7434    33.7005     2.0000     1.0000     4.9998     0.000
     45     1.3750     0.0000     1.3751    18.7494    14.7000     45.346      8.000 150721.000     60.000    44.2813   -20.0773   -26.9548   120.0962    -0.1480    -3.0001   -53.1560     0.0000     0.0000     0.0000     1.0000     5.0000   300.0000   -12.9207    42.7733     1.0010    -2.9998     9.0000    10.0000     5.0000    14.0000    16.0000     5.0000    10.0000    16.0000    -0.0005     0.0005   159.4164   -41.1662     2.7434    33.4494     2.0000     1.0000     5.0000     0.000
     46     1.3750     0.0000     1.3750    18.5002    14.7000     45.406      6.000 150721.000     60.000    44.4478   -20.0773   -27.0577   120.0962    -0.1480    -3.0001   -52.9407     0.0000     0.0000     0.0000     1.0000     5.0000   300.0000   -13.1521    43.0164     1.0010    -2.9998     9.0000    10.0000     5.0000    14.0000    16.0000     5.0000    10.0000    16.0000    -0.0005     0.0005   159.4164   -41.1662     2.7434    33.2002     2.0000     1.0000     4.9999     0.000
     47     1.3750     0.0000     1.3750    18.2502    14.7000     45.570      6.000 150721.000     60.000    44.6161   -20.0773   -27.1621   120.0962    -0.1480    -3.0001   -52.7248     0.0000     0.0000     0.0000     1.0000     5.0000   300.0000   -13.3835    43.2599     1.0010    -2.9998     9.0000    10.0000     5.0000    14.0000    16.0000     5.0000    10.0000    16.0000    -0.0005     0.0005   159.4164   -41.1662     2.7434    32.9502     2.0000     1.0000     5.0001     0.000
     48     1.3750     0.0000     1.3750    17.9999    14.7000     45.991      6.000 150721.000     60.000    44.7863   -20.0773   -27.2678   120.0962    -0.1480    -3.0001   -52.5081     0.0000     0.0000     0.0000     1.0000     5.0000   300.0000   -13.6143    43.5038     1.0010    -2.9998     9.0000    10.0000     5.0000    14.0000    16.0000     5.0000    10.0000    16.0000    -0.0005     0.0005   159.4164   -41.1662     2.7434    32.7000     2.0000     1.0000     5.0002     0.000
     49     1.3750     0.0000     1.3750    17.7503    14.7000     46.184      7.000 150721.000     60.000    44.9585   -20.0773   -27.3745   120.0962    -0.1480    -3.0001   -52.2908     0.0000     0.0000     0.0000     1.0000     5.0000   300.0000   -13.8446    43.7485     1.0010    -2.9998     9.0000    10.0000     5.0000    14.0000    16.0000     5.0000    10.0000    16.0000    -0.0005     0.0005   159.4164   -41.1662     2.7434    32.4504     2.0000     1.0000     5.0010     0.000
     50     1.3751     0.0000     1.3751    17.4998    14.7000     46.610      3.000 150721.000     60.000    45.1326   -20.0773   -27.4829   120.0962    -0.1480    -3.0001   -52.0728     0.0000     0.0000     0.0000     1.0000     5.0000   300.0000   -14.0754    43.9936     1.0010    -2.9998     9.0000    10.0000     5.0000    14.0000    16.0000     5.0000    10.0000    16.0000    -0.0005     0.0005   159.4164   -41.1662     2.7435    32.1999     2.0000     1.0000     5.0006     0.000
     51     1.3750     0.0000     1.3750    17.2500    14.7000     46.943     14.000 150721.000     60.000    45.3089   -20.0773   -27.5923   120.0962    -0.1480    -3.0001   -51.8540     0.0000     0.0000     0.0000     1.0000     5.0000   300.0000   -14.3056    44.2346     1.0010    -2.9998     9.0000    10.0000     5.0000    14.0000    16.0000     5.0000    10.0000    16.0000    -0.0005     0.0005   159.4164   -41.1662     2.7434    31.9500     2.0000     1.0000     4.9992     0.000
     52     1.3750     0.0000     1.3750    17.0001    14.7000     47.147      7.000 150721.000     60.000    45.4872   -20.0773   -27.7029   120.0962    -0.1480    -3.0001   -51.6345     0.0000     0.0000     0.0000     1.0000     5.0000   300.0000   -14.5358    44.4781     1.0010    -2.9998     9.0000    10.0000     5.0000    14.0000    16.0000     5.0000    10.0000    16.0000    -0.0005     0.0005   159.4164   -41.1662     2.7434    31.7001     2.0000     1.0000     4.9990     0.000
     53     1.3750     0.0000     1.3750    16.7498    14.7000     47.347      7.000 150721.000     60.000    45.6676   -20.0773   -27.8152   120.0962    -0.1480    -3.0001   -51.4143     0.0000     0.0000     0.0000     1.0000     5.0000   300.0000   -14.7659    44.7216     1.0010    -2.9998     9.0000    10.0000     5.0000    14.0000    16.0000     5.0000    10.0000    16.0000    -0.0005     0.0005   159.4164   -41.1662     2.7434    31.4498     2.0000     1.0000     4.9988     0.000
     54     1.3750     0.0000     1.3750    16.5003    14.7000     47.513      6.000 150721.000     60.000    45.8503   -20.0773   -27.9284   120.0962    -0.1480    -3.0001   -51.1934     0.0000     0.0000     0.0000     1.0000     5.0000   300.0000   -14.9958    44.9659     1.0010    -2.9998     9.0000    10.0000     5.0000    14.0000    16.0000     5.0000    10.0000    16.0000    -0.0005     0.0005   159.4164   -41.1662     2.7434    31.2003     2.0000     1.0000     5.0009     0.000
     55     1.3750     0.0000     1.3750    16.2499    14.7000     47.427      2.000 150721.000     60.000    46.0351   -20.0773   -28.0435   120.0962    -0.1480    -3.0001   -50.9717     0.0000     0.0000     0.0000     1.0000     5.0000   300.0000   -15.2255    45.2088     1.0010    -2.9998     9.0000    10.0000     5.0000    14.0000    16.0000     5.0000    10.0000    16.0000    -0.0005     0.0005   159.4164   -41.1662     2.7434    30.9499     2.0000     1.0000     5.0003     0.000
     56     1.3750     0.0000     1.3750    15.9999    14.7000     47.620      6.000 150721.000     60.000    46.2221   -20.0773   -28.1598   120.0962    -0.1480    -3.0001   -50.7492     0.0000     0.0000     0.0000     1.0000     5.0000   300.0000   -15.4552    45.4511     1.0010    -2.9998     9.0000    10.0000     5.0000    14.0000    16.0000     5.0000    10.0000    16.0000    -0.0005     0.0005   159.4164   -41.1662     2.7433    30.6999     2.0000     1.0000     5.0003     0.000
     57     1.3750     0.0000     1.3750    15.7502    14.7000     47.970      4.000 150721.000     60.000    46.4115   -20.0773   -28.2774   120.0962    -0.1480    -3.0001   -50.5260     0.0000     0.0000     0.0000     1.0000     5.0000   300.0000   -15.6848    45.6946     1.0010    -2.9998     9.0000    10.0000     5.0000    14.0000    16.0000     5.0000    10.0000    16.0000    -0.0005     0.0005   159.4164   -41.1662     2.7433    30.4502     2.0000     1.0000     5.0007     0.000
     58     1.3750     0.0000     1.3750    15.4998    14.7000     48.094      8.000 150721.000     60.000    46.6032   -20.0773   -28.3968   120.0962    -0.1480    -3.0001   -50.3021     0.0000     0.0000     0.0000     1.0000     5.0000   300.0000   -15.9146    45.9389     1.0010    -2.9998     9.0000    10.0000     5.0000    14.0000    16.0000     5.0000    10.0000    16.0000    -0.0005     0.0005   159.4164   -41.1662     2.7434    30.1998     2.0000     1.0000     5.0002     0.000
     59     1.3750     0.0000     1.3750    15.2503    14.7000     48.755      4.000 150721.000     60.000    46.7972   -20.0773   -28.5174   120.0962    -0.1480    -3.0001   -50.0773     0.0000     0.0000     0.0000     1.0000     5.0000   300.0000   -16.1438    46.1836     1.0010    -2.9998     9.0000    10.0000     5.0000    14.0000    16.0000     5.0000    10.0000    16.0000    -0.0005     0.0005   159.4164   -41.1662     2.7434    29.9503     2.0000     1.0000     4.9998     0.000
     60     1.3750     0.0000     1.3750    15.0000    14.7000     48.430      5.000 150721.000     60.000    46.9938   -20.0773   -28.6398   120.0962    -0.1480    -3.0001   -49.8518     0.0000     0.0000     0.0000     1.0000     5.0000   300.0000   -16.3731    46.4253     1.0010    -2.9998     9.0000    10.0000     5.0000    14.0000    16.0000     5.0000    10.0000    16.0000    -0.0005     0.0005   159.4164   -41.1662     2.7433    29.7000     2.0000     1.0000     4.9984     0.000
     61     1.3750     0.0000     1.3750    14.7499    14.7000     48.614     10.000 150721.000     60.000    47.1929   -20.0773   -28.7638   120.0962    -0.1480    -3.0001   -49.6254     0.0000     0.0000     0.0000     1.0000     5.0000   300.0000   -16.6025    46.6684     1.0010    -2.9998     9.0000    10.0000     5.0000    14.0000    16.0000     5.0000    10.0000    16.0000    -0.0005     0.0005   159.4164   -41.1662     2.7433    29.4500     2.0000     1.0000     5.0003     0.000
     62     1.3750     0.0000     1.3750    14.4998    14.7000     48.306      3.000 150721.000     60.000    47.3944   -20.0773   -28.8894   120.0962    -0.1480    -3.0001   -49.3982     0.0000     0.0000     0.0000     1.0000     5.0000   300.0000   -16.8323    46.9139     1.0010    -2.9998     9.0000    10.0000     5.0000    14.0000    16.0000     5.0000    10.0000    16.0000    -0.0005     0.0005   159.4164   -41.1662     2.7434    29.1998     2.0000     1.0000     4.9996     0.000
     63     1.3750     0.0000     1.3750    14.2506    14.7000     47.252      5.000 150721.000     60.000    47.5986   -20.0773   -29.0161   120.0962    -0.1480    -3.0001   -49.1702     0.0000     0.0000     0.0000     1.0000     5.0000   300.0000   -17.0616    47.1582     1.0010    -2.9998     9.0000    10.0000     5.0000    14.0000    16.0000     5.0000    10.0000    16.0000    -0.0005     0.0005   159.4164   -41.1662     2.7434    28.9507     2.0000     1.0000     4.9997     0.000
     64     1.3750     0.0000     1.3750    13.9994    14.7000     46.789      6.000 150721.000     60.000    47.8055   -20.0773   -29.1457   120.0962    -0.1480    -3.0001   -48.9414     0.0000     0.0000     0.0000     1.0000     5.0000   300.0000   -17.2910    47.4025     1.0010    -2.9998     9.0000    10.0000     5.0000    14.0000    16.0000     5.0000    10.0000    16.0000    -0.0005     0.0005   159.4164   -41.1662     2.7434    28.6994     2.0000     1.0000     5.0011     0.000
     65     1.3750     0.0000     1.3750    13.7502    14.7000     45.869      4.000 150721.000     60.000    48.0151   -20.0773   -29.2759   120.0962    -0.1480    -3.0001   -48.7117     0.0000     0.0000     0.0000     1.0000     5.0000   300.0000   -17.5206    47.6452     1.0010    -2.9998     9.0000    10.0000     5.0000    14.0000    16.0000     5.0000    10.0000    16.0000    -0.0005     0.0005   159.4164   -41.1662     2.7433    28.4502     2.0000     1.0000     5.0000     0.000
     66     1.3750     0.0000     1.3750    13.5004    14.7000     45.385     11.000 150721.000     60.000    48.2274   -20.0773   -29.4082   120.0962    -0.1480    -3.0001   -48.4811     0.0000     0.0000     0.0000     1.0000     5.0000   300.0000   -17.7499    47.8893     1.0010    -2.9998     9.0000    10.0000     5.0000    14.0000    16.0000     5.0000    10.0000    16.0000    -0.0005     0.0005   159.4164   -41.1662     2.7433    28.2004     2.0000     1.0000     5.0002     0.000
     67     1.3750     0.0000     1.3750    13.2497    14.7000     45.746      4.000 150721.000     60.000    48.4427   -20.0773   -29.5428   120.0962    -0.1480    -3.0001   -48.2497     0.0000     0.0000     0.0000     1.0000     5.0000   300.0000   -17.9796    48.1365     1.0010    -2.9998     9.0000    10.0000     5.0000    14.0000    16.0000     5.0000    10.0000    16.0000    -0.0005     0.0005   159.4164   -41.1662     2.7434    27.9497     2.0000     1.0000     5.0006     0.000
     68     1.3751     0.0000     1.3751    12.9999    14.7000     45.764      4.000 150721.000     60.000    48.6608   -20.0773   -29.6787   120.0962    -0.1480    -3.0001   -48.0174     0.0000     0.0000     0.0000     1.0000     5.0000   300.0000   -18.2094    48.3832     1.0010    -2.9998     9.0000    10.0000     5.0000    14.0000    16.0000     5.0000    10.0000    16.0000    -0.0005     0.0005   159.4164   -41.1662     2.7435    27.7000     2.0000     1.0000     5.0001     0.000
     69     1.3750     0.0000     1.3750    12.7500    14.7000     46.543      4.000 150721.000     60.000    48.8819   -20.0773   -29.8166   120.0962    -0.1480    -3.0001   -47.7842     0.0000     0.0000     0.0000     1.0000     5.0000   300.0000   -18.4391    48.6243     1.0010    -2.9998     9.0000    10.0000     5.0000    14.0000    16.0000     5.0000    10.0000    16.0000    -0.0005     0.0005   159.4164   -41.1662     2.7433    27.4500     2.0000     1.0000     5.0002     0.000
     70     1.3750     0.0000     1.3750    12.4998    14.7000     47.842      6.000 150721.000     60.000    49.1060   -20.0773   -29.9566   120.0962    -0.1480    -3.0001   -47.5501     0.0000     0.0000     0.0000     1.0000     5.0000   300.0000   -18.6689    48.8692     1.0010    -2.9998     9.0000    10.0000     5.0000    14.0000    16.0000     5.0000    10.0000    16.0000    -0.0005     0.0005   159.4164   -41.1662     2.7433    27.1998     2.0000     1.0000     5.0004     0.000
     71     1.3750     0.0000     1.3750    12.2504    14.7000     48.545      9.000 150721.000     60.000    49.3332   -20.0773   -30.0982   120.0962    -0.1480    -3.0001   -47.3151     0.0000     0.0000     0.0000     1.0000     5.0000   300.0000   -18.8991    49.1168     1.0010    -2.9998     9.0000    10.0000     5.0000    14.0000    16.0000     5.0000    10.0000    16.0000    -0.0005     0.0005   159.4164   -41.1662     2.7434    26.9504     2.0000     1.0000     5.0009     0.000
     72     1.3750     0.0000     1.3751    11.9998    14.7000     49.059      3.000 150721.000     60.000    49.5636   -20.0773   -30.2425   120.0962    -0.1480    -3.0001   -47.0791     0.0000     0.0000     0.0000     1.0000     5.0000   300.0000   -19.1290    49.3643     1.0010    -2.9998     9.0000    10.0000     5.0000    14.0000    16.0000     5.0000    10.0000    16.0000    -0.0005     0.0005   159.4164   -41.1662     2.7434    26.6998     2.0000     1.0000     5.0000     0.000
     73     1.3750     0.0000     1.3750    11.7499    14.7000     49.156      6.000 150721.000     60.000    49.7973   -20.0773   -30.3884   120.0962    -0.1480    -3.0001   -46.8422     0.0000     0.0000     0.0000     1.0000     5.0000   300.0000   -19.3594    49.6086     1.0010    -2.9998     9.0000    10.0000     5.0000    14.0000    16.0000     5.0000    10.0000    16.0000    -0.0005     0.0005   159.4164   -41.1662     2.7433    26.4499     2.0000     1.0000     5.0006     0.000
     74     1.3750     0.0000     1.3750    11.5001    14.7000     48.862      5.000 150721.000     60.000    50.0343   -20.0773   -30.5364   120.0962    -0.1480    -3.0001   -46.6044     0.0000     0.0000     0.0000     1.0000     5.0000   300.0000   -19.5896    49.8554     1.0010    -2.9998     9.0000    10.0000     5.0000    14.0000    16.0000     5.0000    10.0000    16.0000    -0.0005     0.0005   159.4164   -41.1662     2.7434    26.2001     2.0000     1.0000     5.0008     0.000
     75     1.3750     0.0000     1.3750    11.2501    14.7000     48.441      7.000 150721.000     60.000    50.2748   -20.0773   -30.6868   120.0962    -0.1480    -3.0001   -46.3655     0.0000     0.0000     0.0000     1.0000     5.0000   300.0000   -19.8206    50.1021     1.0010    -2.9998     9.0000    10.0000     5.0000    14.0000    16.0000     5.0000    10.0000    16.0000    -0.0005     0.0005   159.4164   -41.1662     2.7433    25.9501     2.0000     1.0000     4.9986     0.000
     76     1.3751     0.0000     1.3751    10.9999    14.7000     47.970      9.000 150721.000     60.000    50.5187   -20.0773   -30.8395   120.0962    -0.1480    -3.0001   -46.1257     0.0000     0.0000     0.0000     1.0000     5.0000   300.0000   -20.0512    50.3521     1.0010    -2.9998     9.0000    10.0000     5.0000    14.0000    16.0000     5.0000    10.0000    16.0000    -0.0005     0.0005   159.4164   -41.1662     2.7435    25.6999     2.0000     1.0000     5.0000     0.000
     77     1.3750     0.0000     1.3750    10.7500    14.7000     47.987      5.000 150721.000     60.000    50.7662   -20.0773   -30.9943   120.0962    -0.1480    -3.0001   -45.8849     0.0000     0.0000     0.0000     1.0000     5.0000   300.0000   -20.2824    50.5981     1.0010    -2.9998     9.0000    10.0000     5.0000    14.0000    16.0000     5.0000    10.0000    16.0000    -0.0005     0.0005   159.4164   -41.1662     2.7434    25.4501     2.0000     1.0000     4.9999     0.000
     78     1.3750     0.0000     1.3750    10.4999    14.7000     47.954      3.000 150721.000     60.000    51.0174   -20.0773   -31.1516   120.0962    -0.1480    -3.0001   -45.6430     0.0000     0.0000     0.0000     1.0000     5.0000   300.0000   -20.5141    50.8454     1.0010    -2.9998     9.0000    10.0000     5.0000    14.0000    16.0000     5.0000    10.0000    16.0000    -0.0005     0.0005   159.4164   -41.1662     2.7433    25.1999     2.0000     1.0000     4.9994     0.000
     79     1.3750     0.0000     1.3750    10.2503    14.7000     48.131      3.000 150721.000     60.000    51.2724   -20.0773   -31.3111   120.0962    -0.1480    -3.0001   -45.4002     0.0000     0.0000     0.0000     1.0000     5.0000   300.0000   -20.7447    51.0936     1.0010    -2.9998     9.0000    10.0000     5.0000    14.0000    16.0000     5.0000    10.0000    16.0000    -0.0005     0.0005   159.4164   -41.1662     2.7433    24.9503     2.0000     1.0000     5.0002     0.000
     80     1.3750     0.0000     1.3750    10.0000    14.7000     48.720      3.000 150721.000     60.000    51.5312   -20.0773   -31.4734   120.0962    -0.1480    -3.0001   -45.1562     0.0000     0.0000     0.0000     1.0000     5.0000   300.0000   -20.9771    51.3434     1.0010    -2.9998     9.0000    10.0000     5.0000    14.0000    16.0000     5.0000    10.0000    16.0000    -0.0005     0.0005   159.4164   -41.1662     2.7433    24.7000     2.0000     1.0000     4.9994     0.000
     81     1.3750     0.0000     1.3750     9.7497    14.7000     49.225      6.000 150721.000     60.000    51.7940   -20.0773   -31.6383   120.0962    -0.1480    -3.0001   -44.9112     0.0000     0.0000     0.0000     1.0000     5.0000   300.0000   -21.2094    51.5944     1.0010    -2.9998     9.0000    10.0000     5.0000    14.0000    16.0000     5.0000    10.0000    16.0000    -0.0005     0.0005   159.4164   -41.1662     2.7434    24.4497     2.0000     1.0000     5.0007     0.000
     82     1.3750     0.0000     1.3750     9.4997    14.7000     50.462      7.000 150721.000     60.000    52.0609   -20.0773   -31.8056   120.0962    -0.1480    -3.0001   -44.6652     0.0000     0.0000     0.0000     1.0000     5.0000   300.0000   -21.4415    51.8426     1.0010    -2.9998     9.0000    10.0000     5.0000    14.0000    16.0000     5.0000    10.0000    16.0000    -0.0005     0.0005   159.4164   -41.1662     2.7433    24.1997     2.0000     1.0000     5.0011     0.000
     83     1.3750     0.0000     1.3750     9.2504    14.7000     50.872      6.000 150721.000     60.000    52.3319   -20.0773   -31.9751   120.0962    -0.1480    -3.0001   -44.4180     0.0000     0.0000     0.0000     1.0000     5.0000   300.0000   -21.6745    52.0936     1.0010    -2.9998     9.0000    10.0000     5.0000    14.0000    16.0000     5.0000    10.0000    16.0000    -0.0005     0.0005   159.4164   -41.1662     2.7434    23.9504     2.0000     1.0000     4.9998     0.000
     84     1.3750     0.0000     1.3750     9.0000    14.7000     50.741      7.000 150721.000     60.000    52.6071   -20.0773   -32.1481   120.0962    -0.1480    -3.0001   -44.1697     0.0000     0.0000     0.0000     1.0000     5.0000   300.0000   -21.9069    52.3472     1.0010    -2.9998     9.0000    10.0000     5.0000    14.0000    16.0000     5.0000    10.0000    16.0000    -0.0005     0.0005   159.4164   -41.1662     2.7434    23.7000     2.0000     1.0000     5.0002     0.000
     85     1.3750     0.0000     1.3750     8.7501    14.7000     49.525      8.000 150721.000     60.000    52.8868   -20.0773   -32.3236   120.0962    -0.1480    -3.0001   -43.9203     0.0000     0.0000     0.0000     1.0000     5.0000   300.0000   -22.1406    52.5985     1.0010    -2.9998     9.0000    10.0000     5.0000    14.0000    16.0000     5.0000    10.0000    16.0000    -0.0005     0.0005   159.4164   -41.1662     2.7434    23.4501     2.0000     1.0000     5.0002     0.000
     86     1.3750     0.0000     1.3750     8.4999    14.7000     47.744      5.000 150721.000     60.000    53.1710   -20.0773   -32.5023   120.0962    -0.1480    -3.0001   -43.6697     0.0000     0.0000     0.0000     1.0000     5.0000   300.0000   -22.3746    52.8493     1.0010    -2.9998     9.0000    10.0000     5.0000    14.0000    16.0000     5.0000    10.0000    16.0000    -0.0005     0.0005   159.4164   -41.1662     2.7433    23.1999     2.0000     1.0000     5.0000     0.000
     87     1.3750     0.0000     1.3750     8.2500    14.7000     46.328      6.000 150721.000     60.000    53.4598   -20.0773   -32.6837   120.0962    -0.1480    -3.0001   -43.4180     0.0000     0.0000     0.0000     1.0000     5.0000   300.0000   -22.6081    53.1021     1.0010    -2.9998     9.0000    10.0000     5.0000    14.0000    16.0000     5.0000    10.0000    16.0000    -0.0005     0.0005   159.4164   -41.1662     2.7433    22.9500     2.0000     1.0000     4.9994     0.000
     88     1.3750     0.0000     1.3750     8.0000    14.7000     44.731      3.000 150721.000     60.000    53.7534   -20.0773   -32.8682   120.0962    -0.1480    -3.0001   -43.1651     0.0000     0.0000     0.0000     1.0000     5.0000   300.0000   -22.8429    53.3570     1.0010    -2.9998     9.0000    10.0000     5.0000    14.0000    16.0000     5.0000    10.0000    16.0000    -0.0005     0.0005   159.4164   -41.1662     2.7434    22.7000     2.0000     1.0000     5.0003     0.000
     89     1.3750     0.0000     1.3750     7.7501    14.7000     44.225      5.000 150721.000     60.000    54.0519   -20.0773   -33.0559   120.0962    -0.1480    -3.0001   -42.9109     0.0000     0.0000     0.0000     1.0000     5.0000   300.0000   -23.0778    53.6105     1.0010    -2.9998     9.0000    10.0000     5.0000    14.0000    16.0000     5.0000    10.0000    16.0000    -0.0005     0.0005   159.4164   -41.1662     2.7434    22.4501     2.0000     1.0000     5.0006     0.000
     90     1.3750     0.0000     1.3750     7.4999    14.7000     44.423      3.000 150721.000     60.000    54.3554   -20.0773   -33.2470   120.0962    -0.1480    -3.0001   -42.6556     0.0000     0.0000     0.0000     1.0000     5.0000   300.0000   -23.3134    53.8649     1.0010    -2.9998     9.0000    10.0000     5.0000    14.0000    16.0000     5.0000    10.0000    16.0000    -0.0005     0.0005   159.4164   -41.1662     2.7433    22.1999     2.0000     1.0000     5.0003     0.000
     91     1.3750     0.0000     1.3750     7.2502    14.7000     44.227      4.000 150721.000     60.000    54.6640   -20.0773   -33.4411   120.0962    -0.1480    -3.0001   -42.3989     0.0000     0.0000     0.0000     1.0000     5.0000   300.0000   -23.5490    54.1208     1.0010    -2.9998     9.0000    10.0000     5.0000    14.0000    16.0000     5.0000    10.0000    16.0000    -0.0005     0.0005   159.4164   -41.1662     2.7434    21.9502     2.0000     1.0000     4.9990     0.000
     92     1.3750     0.0000     1.3751     6.9997    14.7000     44.406      8.000 150721.000     60.000    54.9780   -20.0773   -33.6393   120.0962    -0.1480    -3.0001   -42.1410     0.0000     0.0000     0.0000     1.0000     5.0000   300.0000   -23.7847    54.3798     1.0010    -2.9998     9.0000    10.0000     5.0000    14.0000    16.0000     5.0000    10.0000    16.0000    -0.0005     0.0005   159.4164   -41.1662     2.7434    21.6997     2.0000     1.0000     5.0001     0.000
     93     1.3750     0.0000     1.3750     6.7503    14.7000     44.908      2.000 150721.000     60.000    55.2975   -20.0773   -33.8402   120.0962    -0.1480    -3.0001   -41.8818     0.0000     0.0000     0.0000     1.0000     5.0000   300.0000   -24.0221    54.6336     1.0010    -2.9998     9.0000    10.0000     5.0000    14.0000    16.0000     5.0000    10.0000    16.0000    -0.0005     0.0005   159.4164   -41.1662     2.7433    21.4503     2.0000     1.0000     5.0007     0.000
     94     1.3750     0.0000     1.3750     6.4997    14.7000     45.269      5.000 150721.000     60.000    55.6225   -20.0773   -34.0456   120.0962    -0.1480    -3.0001   -41.6214     0.0000     0.0000     0.0000     1.0000     5.0000   300.0000   -24.2593    54.8922     1.0010    -2.9998     9.0000    10.0000     5.0000    14.0000    16.0000     5.0000    10.0000    16.0000    -0.0005     0.0005   159.4164   -41.1662     2.7433    21.1997     2.0000     1.0000     5.0007     0.000
     95     1.3750     0.0000     1.3750     6.2502    14.7000     45.920      7.000 150721.000     60.000    55.9535   -20.0773   -34.2540   120.0962    -0.1480    -3.0001   -41.3595     0.0000     0.0000     0.0000     1.0000     5.0000   300.0000   -24.4968    55.1517     1.0010    -2.9998     9.0000    10.0000     5.0000    14.0000    16.0000     5.0000    10.0000    16.0000    -0.0005     0.0005   159.4164   -41.1662     2.7434    20.9502     2.0000     1.0000     5.0002     0.000
     96     1.3750     0.0000     1.3750     6.0000    14.7000     46.392      8.000 150721.000     60.000    56.2903   -20.0773   -34.4667   120.0962    -0.1480    -3.0001   -41.0963     0.0000     0.0000     0.0000     1.0000     5.0000   300.0000   -24.7353    55.4117     1.0010    -2.9998     9.0000    10.0000     5.0000    14.0000    16.0000     5.0000    10.0000    16.0000    -0.0005     0.0005   159.4164   -41.1662     2.7434    20.7001     2.0000     1.0000     5.0002     0.000
     97     1.3750     0.0000     1.3750     5.7501    14.7000     47.565      8.000 150721.000     60.000    56.6333   -20.0773   -34.6834   120.0962    -0.1480    -3.0001   -40.8317     0.0000     0.0000     0.0000     1.0000     5.0000   300.0000   -24.9744    55.6727     1.0010    -2.9998     9.0000    10.0000     5.0000    14.0000    16.0000     5.0000    10.0000    16.0000    -0.0005     0.0005   159.4164   -41.1662     2.7434    20.4501     2.0000     1.0000     5.0006     0.000
     98     1.3750     0.0000     1.3750     5.4999    14.7000     48.692      9.000 150721.000     60.000    56.9827   -20.0773   -34.9043   120.0962    -0.1480    -3.0001   -40.5656     0.0000     0.0000     0.0000     1.0000     5.0000   300.0000   -25.2136    55.9338     1.0010    -2.9998     9.0000    10.0000     5.0000    14.0000    16.0000     5.0000    10.0000    16.0000    -0.0005     0.0005   159.4164   -41.1662     2.7434    20.1999     2.0000     1.0000     5.0003     0.000
     99     1.3751     0.0000     1.3750     5.2500    14.7000     49.461      8.000 150721.000     60.000    57.3387   -20.0773   -35.1293   120.0962    -0.1480    -3.0001   -40.2982     0.0000     0.0000     0.0000     1.0000     5.0000   300.0000   -25.4536    56.1977     1.0010    -2.9998     9.0000    10.0000     5.0000    14.0000    16.0000     5.0000    10.0000    16.0000    -0.0005     0.0005   159.4164   -41.1662     2.7434    19.9500     2.0000     1.0000     5.0007     0.000
    100     1.3750     0.0000     1.3750     4.9999    14.7000     49.950      5.000 150721.000     60.000    57.7013   -20.0773   -35.3590   120.0962    -0.1480    -3.0001   -40.0292     0.0000     0.0000     0.0000     1.0000     5.0000   300.0000   -25.6943    56.4584     1.0010    -2.9998     9.0000    10.0000     5.0000    14.0000    16.0000     5.0000    10.0000    16.0000    -0.0005     0.0005   159.4164   -41.1662     2.7433    19.6999     2.0000     1.0000     4.9990     0.000
# Sum of Counts = 630
# Center of Mass = 17.875417+/-1.047538
# Full Width Half-Maximum = 14.458368+/-0.533833
# 10:42:53 PM  9/10/2024   scan completed.
