# scan = 61
# date = 9/11/2024
# time = 4:26:03 AM
# proposal = 34735
# experiment = Magnons and paramagnon coupling in MnTe
# experiment_number = 813
# command = scan h 1.45 k 0.0 l 1.45 e 32.75 9 0.25 ef 14.7 preset mcu 60
# builtin_command = scan h 1.45 k 0.0 l 1.45 e 32.75 9 0.25 ef 14.7 preset mcu 60
# users = Benjamin Frandsen, Songxue Chi, George Yumnam, Huibo Cao, Michael Manley, Raphael Hermann, Eleanor Clements
# local_contact = Eleanor Clements
# scan_title = H0L scans along (101) to (1.5, 0, 1.5) at H/L = 1.45, mcu = 60, E = 33 to 5 mev
# monochromator = PG002
# analyzer = Pg002
# sense = -+-
# collimation = 48-40-40-120
# samplename = MnTe
# sampletype = crystal
# samplemosaic = 30.000000
# latticeconstants = 4.128474,4.128474,6.651507,90.000000,90.000000,120.000000
# ubmatrix = -0.000328,-0.004396,-0.150319,-0.279308,-0.152332,0.000314,-0.014647,0.234528,-0.002614
# mode = 0
# plane_normal = -0.017470,-0.052341,0.998476
# ubconf = UB09Sep2024_43441PM.ini
# preset_type = normal 
# preset_channel = mcu
# preset_value = 60.000000
# def_x = e
# def_y = detector
# col_headers = 
#   Pt.          h          k          l          e         ef       time   detector    monitor        mcu focal_length         m1         m2   mcrystal       marc     mtrans     mfocus       ampl         dc       freq     output       temp     temp_2         s1         s2        sgl        sgu        bbb        bbl        bbr        bbt        bab        bal        bar        bat        stl        stu         a1         a2          q         ei   ampl_out output_state        vti     sample
      1     1.4500     0.0000     1.4501    32.7489    14.7000     45.710      4.000 150721.000     60.000    37.1793   -20.0773   -22.5692   120.0962    -0.1480    -3.0001   -64.3182     0.0000     0.0000     0.0000     1.0000     5.0000   300.0000    -0.8511    31.9755     1.0010    -2.9998     9.0000    10.0000     5.0000    14.0000    16.0000     5.0000    10.0000    16.0000    -0.0005     0.0005   159.4164   -41.1662     2.8930    47.4489     2.0000     1.0000     5.0012     0.000
      2     1.4500     0.0000     1.4500    32.5008    14.7000     45.813      3.000 150721.000     60.000    37.2776   -20.0773   -22.6292   120.0962    -0.1480    -3.0001   -64.1317     0.0000     0.0000     0.0000     1.0000     5.0000   300.0000    -1.0924    32.2426     1.0010    -2.9998     9.0000    10.0000     5.0000    14.0000    16.0000     5.0000    10.0000    16.0000    -0.0005     0.0005   159.4164   -41.1662     2.8930    47.2008     2.0000     1.0000     5.0008     0.000
      3     1.4500     0.0000     1.4500    32.2499    14.7000     45.624      9.000 150721.000     60.000    37.3767   -20.0773   -22.6904   120.0962    -0.1480    -3.0001   -63.9448     0.0000     0.0000     0.0000     1.0000     5.0000   300.0000    -1.3324    32.5119     1.0010    -2.9998     9.0000    10.0000     5.0000    14.0000    16.0000     5.0000    10.0000    16.0000    -0.0005     0.0005   159.4164   -41.1662     2.8930    46.9499     2.0000     1.0000     5.0004     0.000
      4     1.4500     0.0000     1.4501    31.9998    14.7000     45.407      4.000 150721.000     60.000    37.4766   -20.0773   -22.7519   120.0962    -0.1480    -3.0001   -63.7576     0.0000     0.0000     0.0000     1.0000     5.0000   300.0000    -1.5711    32.7802     1.0010    -2.9998     9.0000    10.0000     5.0000    14.0000    16.0000     5.0000    10.0000    16.0000    -0.0005     0.0005   159.4164   -41.1662     2.8930    46.6998     2.0000     1.0000     5.0014     0.000
      5     1.4500     0.0000     1.4500    31.7500    14.7000     45.407     10.000 150721.000     60.000    37.5773   -20.0773   -22.8138   120.0962    -0.1480    -3.0001   -63.5699     0.0000     0.0000     0.0000     1.0000     5.0000   300.0000    -1.8089    33.0452     1.0010    -2.9998     9.0000    10.0000     5.0000    14.0000    16.0000     5.0000    10.0000    16.0000    -0.0005     0.0005   159.4164   -41.1662     2.8930    46.4500     2.0000     1.0000     4.9998     0.000
      6     1.4500     0.0000     1.4501    31.5005    14.7000     45.213      6.000 150721.000     60.000    37.6789   -20.0773   -22.8762   120.0962    -0.1480    -3.0001   -63.3819     0.0000     0.0000     0.0000     1.0000     5.0000   300.0000    -2.0448    33.3111     1.0010    -2.9998     9.0000    10.0000     5.0000    14.0000    16.0000     5.0000    10.0000    16.0000    -0.0005     0.0005   159.4164   -41.1662     2.8930    46.2005     2.0000     1.0000     4.9997     0.000
      7     1.4500     0.0000     1.4501    31.2496    14.7000     45.080      6.000 150721.000     60.000    37.7812   -20.0773   -22.9394   120.0962    -0.1480    -3.0001   -63.1934     0.0000     0.0000     0.0000     1.0000     5.0000   300.0000    -2.2806    33.5763     1.0010    -2.9998     9.0000    10.0000     5.0000    14.0000    16.0000     5.0000    10.0000    16.0000    -0.0005     0.0005   159.4164   -41.1662     2.8930    45.9496     2.0000     1.0000     5.0003     0.000
      8     1.4500     0.0000     1.4500    30.9994    14.7000     44.959      8.000 150721.000     60.000    37.8844   -20.0773   -23.0029   120.0962    -0.1480    -3.0001   -63.0045     0.0000     0.0000     0.0000     1.0000     5.0000   300.0000    -2.5148    33.8373     1.0010    -2.9998     9.0000    10.0000     5.0000    14.0000    16.0000     5.0000    10.0000    16.0000    -0.0005     0.0005   159.4164   -41.1662     2.8930    45.6994     2.0000     1.0000     4.9999     0.000
      9     1.4500     0.0000     1.4500    30.7505    14.7000     44.639     11.000 150721.000     60.000    37.9885   -20.0773   -23.0667   120.0962    -0.1480    -3.0001   -62.8152     0.0000     0.0000     0.0000     1.0000     5.0000   300.0000    -2.7483    34.0989     1.0010    -2.9998     9.0000    10.0000     5.0000    14.0000    16.0000     5.0000    10.0000    16.0000    -0.0005     0.0005   159.4164   -41.1662     2.8930    45.4505     2.0000     1.0000     4.9996     0.000
     10     1.4500     0.0000     1.4501    30.4999    14.7000     44.287     10.000 150721.000     60.000    38.0934   -20.0773   -23.1314   120.0962    -0.1480    -3.0001   -62.6255     0.0000     0.0000     0.0000     1.0000     5.0000   300.0000    -2.9802    34.3613     1.0010    -2.9998     9.0000    10.0000     5.0000    14.0000    16.0000     5.0000    10.0000    16.0000    -0.0005     0.0005   159.4164   -41.1662     2.8930    45.1999     2.0000     1.0000     5.0010     0.000
     11     1.4500     0.0000     1.4500    30.2510    14.7000     44.098      8.000 150721.000     60.000    38.1992   -20.0773   -23.1963   120.0962    -0.1480    -3.0001   -62.4354     0.0000     0.0000     0.0000     1.0000     5.0000   300.0000    -3.2116    34.6198     1.0010    -2.9998     9.0000    10.0000     5.0000    14.0000    16.0000     5.0000    10.0000    16.0000    -0.0005     0.0005   159.4164   -41.1662     2.8930    44.9510     2.0000     1.0000     4.9999     0.000
     12     1.4500     0.0000     1.4500    29.9993    14.7000     43.908      5.000 150721.000     60.000    38.3059   -20.0773   -23.2624   120.0962    -0.1480    -3.0001   -62.2448     0.0000     0.0000     0.0000     1.0000     5.0000   300.0000    -3.4420    34.8796     1.0010    -2.9998     9.0000    10.0000     5.0000    14.0000    16.0000     5.0000    10.0000    16.0000    -0.0005     0.0005   159.4164   -41.1662     2.8930    44.6993     2.0000     1.0000     5.0004     0.000
     13     1.4500     0.0000     1.4500    29.7495    14.7000     43.603      7.000 150721.000     60.000    38.4134   -20.0773   -23.3286   120.0962    -0.1480    -3.0001   -62.0538     0.0000     0.0000     0.0000     1.0000     5.0000   300.0000    -3.6713    35.1381     1.0010    -2.9998     9.0000    10.0000     5.0000    14.0000    16.0000     5.0000    10.0000    16.0000    -0.0005     0.0005   159.4164   -41.1662     2.8930    44.4495     2.0000     1.0000     5.0004     0.000
     14     1.4500     0.0000     1.4501    29.5002    14.7000     43.673      9.000 150721.000     60.000    38.5219   -20.0773   -23.3952   120.0962    -0.1480    -3.0001   -61.8623     0.0000     0.0000     0.0000     1.0000     5.0000   300.0000    -3.8998    35.3962     1.0010    -2.9998     9.0000    10.0000     5.0000    14.0000    16.0000     5.0000    10.0000    16.0000    -0.0005     0.0005   159.4164   -41.1662     2.8930    44.2002     2.0000     1.0000     4.9992     0.000
     15     1.4500     0.0000     1.4500    29.2505    14.7000     43.540      9.000 150721.000     60.000    38.6313   -20.0773   -23.4625   120.0962    -0.1480    -3.0001   -61.6704     0.0000     0.0000     0.0000     1.0000     5.0000   300.0000    -4.1274    35.6511     1.0010    -2.9998     9.0000    10.0000     5.0000    14.0000    16.0000     5.0000    10.0000    16.0000    -0.0005     0.0005   159.4164   -41.1662     2.8930    43.9505     2.0000     1.0000     5.0004     0.000
     16     1.4500     0.0000     1.4500    28.9996    14.7000     43.519      4.000 150721.000     60.000    38.7417   -20.0773   -23.5307   120.0962    -0.1480    -3.0001   -61.4781     0.0000     0.0000     0.0000     1.0000     5.0000   300.0000    -4.3545    35.9074     1.0010    -2.9998     9.0000    10.0000     5.0000    14.0000    16.0000     5.0000    10.0000    16.0000    -0.0005     0.0005   159.4164   -41.1662     2.8930    43.6996     2.0000     1.0000     5.0000     0.000
     17     1.4500     0.0000     1.4501    28.7500    14.7000     43.249     11.000 150721.000     60.000    38.8530   -20.0773   -23.5992   120.0962    -0.1480    -3.0001   -61.2854     0.0000     0.0000     0.0000     1.0000     5.0000   300.0000    -4.5797    36.1647     1.0010    -2.9998     9.0000    10.0000     5.0000    14.0000    16.0000     5.0000    10.0000    16.0000    -0.0005     0.0005   159.4164   -41.1662     2.8931    43.4500     2.0000     1.0000     5.0004     0.000
     18     1.4500     0.0000     1.4501    28.5001    14.7000     43.306      2.000 150721.000     60.000    38.9652   -20.0773   -23.6684   120.0962    -0.1480    -3.0001   -61.0922     0.0000     0.0000     0.0000     1.0000     5.0000   300.0000    -4.8053    36.4184     1.0010    -2.9998     9.0000    10.0000     5.0000    14.0000    16.0000     5.0000    10.0000    16.0000    -0.0005     0.0005   159.4164   -41.1662     2.8930    43.2001     2.0000     1.0000     5.0005     0.000
     19     1.4500     0.0000     1.4500    28.2501    14.7000     43.218      1.000 150721.000     60.000    39.0785   -20.0773   -23.7381   120.0962    -0.1480    -3.0001   -60.8985     0.0000     0.0000     0.0000     1.0000     5.0000   300.0000    -5.0296    36.6692     1.0010    -2.9998     9.0000    10.0000     5.0000    14.0000    16.0000     5.0000    10.0000    16.0000    -0.0005     0.0005   159.4164   -41.1662     2.8929    42.9501     2.0000     1.0000     4.9992     0.000
     20     1.4500     0.0000     1.4500    28.0001    14.7000     43.346      5.000 150721.000     60.000    39.1927   -20.0773   -23.8085   120.0962    -0.1480    -3.0001   -60.7044     0.0000     0.0000     0.0000     1.0000     5.0000   300.0000    -5.2534    36.9247     1.0010    -2.9998     9.0000    10.0000     5.0000    14.0000    16.0000     5.0000    10.0000    16.0000    -0.0005     0.0005   159.4164   -41.1662     2.8930    42.7001     2.0000     1.0000     4.9985     0.000
     21     1.4500     0.0000     1.4501    27.7504    14.7000     43.024      9.000 150721.000     60.000    39.3079   -20.0773   -23.8795   120.0962    -0.1480    -3.0001   -60.5098     0.0000     0.0000     0.0000     1.0000     5.0000   300.0000    -5.4757    37.1783     1.0010    -2.9998     9.0000    10.0000     5.0000    14.0000    16.0000     5.0000    10.0000    16.0000    -0.0005     0.0005   159.4164   -41.1662     2.8931    42.4504     2.0000     1.0000     5.0001     0.000
     22     1.4500     0.0000     1.4500    27.4996    14.7000     42.774      8.000 150721.000     60.000    39.4242   -20.0773   -23.9514   120.0962    -0.1480    -3.0001   -60.3147     0.0000     0.0000     0.0000     1.0000     5.0000   300.0000    -5.6982    37.4271     1.0010    -2.9998     9.0000    10.0000     5.0000    14.0000    16.0000     5.0000    10.0000    16.0000    -0.0005     0.0005   159.4164   -41.1662     2.8929    42.1996     2.0000     1.0000     4.9998     0.000
     23     1.4500     0.0000     1.4500    27.2498    14.7000     42.214      5.000 150721.000     60.000    39.5415   -20.0773   -24.0236   120.0962    -0.1480    -3.0001   -60.1192     0.0000     0.0000     0.0000     1.0000     5.0000   300.0000    -5.9196    37.6781     1.0010    -2.9998     9.0000    10.0000     5.0000    14.0000    16.0000     5.0000    10.0000    16.0000    -0.0005     0.0005   159.4164   -41.1662     2.8929    41.9498     2.0000     1.0000     4.9993     0.000
     24     1.4500     0.0000     1.4501    27.0008    14.7000     41.844      4.000 150721.000     60.000    39.6598   -20.0773   -24.0963   120.0962    -0.1480    -3.0001   -59.9232     0.0000     0.0000     0.0000     1.0000     5.0000   300.0000    -6.1400    37.9310     1.0010    -2.9998     9.0000    10.0000     5.0000    14.0000    16.0000     5.0000    10.0000    16.0000    -0.0005     0.0005   159.4164   -41.1662     2.8931    41.7008     2.0000     1.0000     5.0003     0.000
     25     1.4500     0.0000     1.4501    26.7501    14.7000     41.343      7.000 150721.000     60.000    39.7792   -20.0773   -24.1702   120.0962    -0.1480    -3.0001   -59.7267     0.0000     0.0000     0.0000     1.0000     5.0000   300.0000    -6.3604    38.1808     1.0010    -2.9998     9.0000    10.0000     5.0000    14.0000    16.0000     5.0000    10.0000    16.0000    -0.0005     0.0005   159.4164   -41.1662     2.8931    41.4501     2.0000     1.0000     5.0008     0.000
     26     1.4500     0.0000     1.4500    26.4993    14.7000     40.897      5.000 150721.000     60.000    39.8998   -20.0773   -24.2448   120.0962    -0.1480    -3.0001   -59.5297     0.0000     0.0000     0.0000     1.0000     5.0000   300.0000    -6.5797    38.4281     1.0010    -2.9998     9.0000    10.0000     5.0000    14.0000    16.0000     5.0000    10.0000    16.0000    -0.0005     0.0005   159.4164   -41.1662     2.8929    41.1993     2.0000     1.0000     5.0001     0.000
     27     1.4500     0.0000     1.4500    26.2500    14.7000     40.311      1.000 150721.000     60.000    40.0214   -20.0773   -24.3196   120.0962    -0.1480    -3.0001   -59.3323     0.0000     0.0000     0.0000     1.0000     5.0000   300.0000    -6.7988    38.6769     1.0010    -2.9998     9.0000    10.0000     5.0000    14.0000    16.0000     5.0000    10.0000    16.0000    -0.0005     0.0005   159.4164   -41.1662     2.8929    40.9500     2.0000     1.0000     4.9996     0.000
     28     1.4500     0.0000     1.4501    26.0001    14.7000     39.982      4.000 150721.000     60.000    40.1441   -20.0773   -24.3953   120.0962    -0.1480    -3.0001   -59.1343     0.0000     0.0000     0.0000     1.0000     5.0000   300.0000    -7.0164    38.9269     1.0010    -2.9998     9.0000    10.0000     5.0000    14.0000    16.0000     5.0000    10.0000    16.0000    -0.0005     0.0005   159.4164   -41.1662     2.8930    40.7001     2.0000     1.0000     5.0003     0.000
     29     1.4500     0.0000     1.4501    25.7499    14.7000     39.816      8.000 150721.000     60.000    40.2680   -20.0773   -24.4718   120.0962    -0.1480    -3.0001   -58.9359     0.0000     0.0000     0.0000     1.0000     5.0000   300.0000    -7.2345    39.1767     1.0010    -2.9998     9.0000    10.0000     5.0000    14.0000    16.0000     5.0000    10.0000    16.0000    -0.0005     0.0005   159.4164   -41.1662     2.8931    40.4499     2.0000     1.0000     5.0010     0.000
     30     1.4500     0.0000     1.4500    25.5007    14.7000     39.519      8.000 150721.000     60.000    40.3930   -20.0773   -24.5487   120.0962    -0.1480    -3.0001   -58.7370     0.0000     0.0000     0.0000     1.0000     5.0000   300.0000    -7.4511    39.4214     1.0010    -2.9998     9.0000    10.0000     5.0000    14.0000    16.0000     5.0000    10.0000    16.0000    -0.0005     0.0005   159.4164   -41.1662     2.8930    40.2007     2.0000     1.0000     5.0015     0.000
     31     1.4500     0.0000     1.4500    25.2504    14.7000     39.230      7.000 150721.000     60.000    40.5192   -20.0773   -24.6266   120.0962    -0.1480    -3.0001   -58.5375     0.0000     0.0000     0.0000     1.0000     5.0000   300.0000    -7.6676    39.6684     1.0010    -2.9998     9.0000    10.0000     5.0000    14.0000    16.0000     5.0000    10.0000    16.0000    -0.0005     0.0005   159.4164   -41.1662     2.8930    39.9505     2.0000     1.0000     4.9993     0.000
     32     1.4500     0.0000     1.4500    24.9999    14.7000     39.079      5.000 150721.000     60.000    40.6465   -20.0773   -24.7054   120.0962    -0.1480    -3.0001   -58.3375     0.0000     0.0000     0.0000     1.0000     5.0000   300.0000    -7.8840    39.9157     1.0010    -2.9998     9.0000    10.0000     5.0000    14.0000    16.0000     5.0000    10.0000    16.0000    -0.0005     0.0005   159.4164   -41.1662     2.8930    39.6999     2.0000     1.0000     4.9996     0.000
     33     1.4500     0.0000     1.4501    24.7497    14.7000     39.078      2.000 150721.000     60.000    40.7751   -20.0773   -24.7849   120.0962    -0.1480    -3.0001   -58.1370     0.0000     0.0000     0.0000     1.0000     5.0000   300.0000    -8.0991    40.1641     1.0010    -2.9998     9.0000    10.0000     5.0000    14.0000    16.0000     5.0000    10.0000    16.0000    -0.0005     0.0005   159.4164   -41.1662     2.8931    39.4497     2.0000     1.0000     4.9990     0.000
     34     1.4500     0.0000     1.4500    24.5003    14.7000     39.001      4.000 150721.000     60.000    40.9049   -20.0773   -24.8649   120.0962    -0.1480    -3.0001   -57.9360     0.0000     0.0000     0.0000     1.0000     5.0000   300.0000    -8.3140    40.4080     1.0010    -2.9998     9.0000    10.0000     5.0000    14.0000    16.0000     5.0000    10.0000    16.0000    -0.0005     0.0005   159.4164   -41.1662     2.8930    39.2003     2.0000     1.0000     5.0002     0.000
     35     1.4500     0.0000     1.4500    24.2497    14.7000     39.296      5.000 150721.000     60.000    41.0360   -20.0773   -24.9460   120.0962    -0.1480    -3.0001   -57.7345     0.0000     0.0000     0.0000     1.0000     5.0000   300.0000    -8.5279    40.6525     1.0010    -2.9998     9.0000    10.0000     5.0000    14.0000    16.0000     5.0000    10.0000    16.0000    -0.0005     0.0005   159.4164   -41.1662     2.8930    38.9497     2.0000     1.0000     5.0001     0.000
     36     1.4500     0.0000     1.4500    24.0003    14.7000     39.497      7.000 150721.000     60.000    41.1683   -20.0773   -25.0276   120.0962    -0.1480    -3.0001   -57.5324     0.0000     0.0000     0.0000     1.0000     5.0000   300.0000    -8.7423    40.8975     1.0010    -2.9998     9.0000    10.0000     5.0000    14.0000    16.0000     5.0000    10.0000    16.0000    -0.0005     0.0005   159.4164   -41.1662     2.8930    38.7003     2.0000     1.0000     4.9999     0.000
     37     1.4500     0.0000     1.4500    23.7497    14.7000     39.601      5.000 150721.000     60.000    41.3020   -20.0773   -25.1103   120.0962    -0.1480    -3.0001   -57.3298     0.0000     0.0000     0.0000     1.0000     5.0000   300.0000    -8.9558    41.1430     1.0010    -2.9998     9.0000    10.0000     5.0000    14.0000    16.0000     5.0000    10.0000    16.0000    -0.0005     0.0005   159.4164   -41.1662     2.8930    38.4497     2.0000     1.0000     5.0004     0.000
     38     1.4501     0.0000     1.4501    23.4998    14.7000     39.960      4.000 150721.000     60.000    41.4369   -20.0773   -25.1937   120.0962    -0.1480    -3.0001   -57.1267     0.0000     0.0000     0.0000     1.0000     5.0000   300.0000    -9.1688    41.3909     1.0010    -2.9998     9.0000    10.0000     5.0000    14.0000    16.0000     5.0000    10.0000    16.0000    -0.0005     0.0005   159.4164   -41.1662     2.8932    38.1998     2.0000     1.0000     4.9989     0.000
     39     1.4500     0.0000     1.4500    23.2499    14.7000     40.421      6.000 150721.000     60.000    41.5732   -20.0773   -25.2779   120.0962    -0.1480    -3.0001   -56.9230     0.0000     0.0000     0.0000     1.0000     5.0000   300.0000    -9.3811    41.6310     1.0010    -2.9998     9.0000    10.0000     5.0000    14.0000    16.0000     5.0000    10.0000    16.0000    -0.0005     0.0005   159.4164   -41.1662     2.8930    37.9499     2.0000     1.0000     4.9987     0.000
     40     1.4500     0.0000     1.4500    23.0003    14.7000     40.725     10.000 150721.000     60.000    41.7108   -20.0773   -25.3628   120.0962    -0.1480    -3.0001   -56.7188     0.0000     0.0000     0.0000     1.0000     5.0000   300.0000    -9.5935    41.8747     1.0010    -2.9998     9.0000    10.0000     5.0000    14.0000    16.0000     5.0000    10.0000    16.0000    -0.0005     0.0005   159.4164   -41.1662     2.8930    37.7003     2.0000     1.0000     5.0006     0.000
     41     1.4500     0.0000     1.4501    22.7496    14.7000     41.296      8.000 150721.000     60.000    41.8497   -20.0773   -25.4490   120.0962    -0.1480    -3.0001   -56.5140     0.0000     0.0000     0.0000     1.0000     5.0000   300.0000    -9.8048    42.1200     1.0010    -2.9998     9.0000    10.0000     5.0000    14.0000    16.0000     5.0000    10.0000    16.0000    -0.0005     0.0005   159.4164   -41.1662     2.8930    37.4496     2.0000     1.0000     5.0001     0.000
     42     1.4501     0.0000     1.4500    22.5014    14.7000     41.578      6.000 150721.000     60.000    41.9902   -20.0773   -25.5352   120.0962    -0.1480    -3.0001   -56.3086     0.0000     0.0000     0.0000     1.0000     5.0000   300.0000   -10.0164    42.3639     1.0010    -2.9998     9.0000    10.0000     5.0000    14.0000    16.0000     5.0000    10.0000    16.0000    -0.0005     0.0005   159.4164   -41.1662     2.8931    37.2014     2.0000     1.0000     5.0002     0.000
     43     1.4500     0.0000     1.4500    22.2494    14.7000     41.971      7.000 150721.000     60.000    42.1320   -20.0773   -25.6236   120.0962    -0.1480    -3.0001   -56.1026     0.0000     0.0000     0.0000     1.0000     5.0000   300.0000   -10.2271    42.6054     1.0010    -2.9998     9.0000    10.0000     5.0000    14.0000    16.0000     5.0000    10.0000    16.0000    -0.0005     0.0005   159.4164   -41.1662     2.8929    36.9494     2.0000     1.0000     5.0002     0.000
     44     1.4500     0.0000     1.4500    21.9996    14.7000     42.543      2.000 150721.000     60.000    42.2752   -20.0773   -25.7121   120.0962    -0.1480    -3.0001   -55.8961     0.0000     0.0000     0.0000     1.0000     5.0000   300.0000   -10.4380    42.8475     1.0010    -2.9998     9.0000    10.0000     5.0000    14.0000    16.0000     5.0000    10.0000    16.0000    -0.0005     0.0005   159.4164   -41.1662     2.8929    36.6996     2.0000     1.0000     5.0002     0.000
     45     1.4500     0.0000     1.4500    21.7501    14.7000     42.807      3.000 150721.000     60.000    42.4200   -20.0773   -25.8014   120.0962    -0.1480    -3.0001   -55.6890     0.0000     0.0000     0.0000     1.0000     5.0000   300.0000   -10.6480    43.0911     1.0010    -2.9998     9.0000    10.0000     5.0000    14.0000    16.0000     5.0000    10.0000    16.0000    -0.0005     0.0005   159.4164   -41.1662     2.8930    36.4501     2.0000     1.0000     5.0001     0.000
     46     1.4500     0.0000     1.4501    21.4994    14.7000     42.810     10.000 150721.000     60.000    42.5662   -20.0773   -25.8922   120.0962    -0.1480    -3.0001   -55.4813     0.0000     0.0000     0.0000     1.0000     5.0000   300.0000   -10.8580    43.3369     1.0010    -2.9998     9.0000    10.0000     5.0000    14.0000    16.0000     5.0000    10.0000    16.0000    -0.0005     0.0005   159.4164   -41.1662     2.8931    36.1994     2.0000     1.0000     5.0014     0.000
     47     1.4500     0.0000     1.4501    21.2502    14.7000     42.942      8.000 150721.000     60.000    42.7139   -20.0773   -25.9834   120.0962    -0.1480    -3.0001   -55.2730     0.0000     0.0000     0.0000     1.0000     5.0000   300.0000   -11.0672    43.5790     1.0010    -2.9998     9.0000    10.0000     5.0000    14.0000    16.0000     5.0000    10.0000    16.0000    -0.0005     0.0005   159.4164   -41.1662     2.8931    35.9502     2.0000     1.0000     4.9992     0.000
     48     1.4500     0.0000     1.4500    21.0005    14.7000     42.916      5.000 150721.000     60.000    42.8632   -20.0773   -26.0757   120.0962    -0.1480    -3.0001   -55.0642     0.0000     0.0000     0.0000     1.0000     5.0000   300.0000   -11.2767    43.8192     1.0010    -2.9998     9.0000    10.0000     5.0000    14.0000    16.0000     5.0000    10.0000    16.0000    -0.0005     0.0005   159.4164   -41.1662     2.8930    35.7005     2.0000     1.0000     4.9996     0.000
     49     1.4500     0.0000     1.4500    20.7496    14.7000     43.133      8.000 150721.000     60.000    43.0141   -20.0773   -26.1694   120.0962    -0.1480    -3.0001   -54.8546     0.0000     0.0000     0.0000     1.0000     5.0000   300.0000   -11.4856    44.0607     1.0010    -2.9998     9.0000    10.0000     5.0000    14.0000    16.0000     5.0000    10.0000    16.0000    -0.0005     0.0005   159.4164   -41.1662     2.8929    35.4496     2.0000     1.0000     5.0006     0.000
     50     1.4500     0.0000     1.4500    20.4997    14.7000     43.074      4.000 150721.000     60.000    43.1666   -20.0773   -26.2638   120.0962    -0.1480    -3.0001   -54.6446     0.0000     0.0000     0.0000     1.0000     5.0000   300.0000   -11.6945    44.3048     1.0010    -2.9998     9.0000    10.0000     5.0000    14.0000    16.0000     5.0000    10.0000    16.0000    -0.0005     0.0005   159.4164   -41.1662     2.8930    35.1997     2.0000     1.0000     4.9995     0.000
     51     1.4500     0.0000     1.4501    20.2504    14.7000     43.041      7.000 150721.000     60.000    43.3207   -20.0773   -26.3590   120.0962    -0.1480    -3.0001   -54.4338     0.0000     0.0000     0.0000     1.0000     5.0000   300.0000   -11.9021    44.5483     1.0010    -2.9998     9.0000    10.0000     5.0000    14.0000    16.0000     5.0000    10.0000    16.0000    -0.0005     0.0005   159.4164   -41.1662     2.8931    34.9504     2.0000     1.0000     5.0001     0.000
     52     1.4500     0.0000     1.4500    19.9996    14.7000     43.377      9.000 150721.000     60.000    43.4765   -20.0773   -26.4558   120.0962    -0.1480    -3.0001   -54.2224     0.0000     0.0000     0.0000     1.0000     5.0000   300.0000   -12.1106    44.7903     1.0010    -2.9998     9.0000    10.0000     5.0000    14.0000    16.0000     5.0000    10.0000    16.0000    -0.0005     0.0005   159.4164   -41.1662     2.8930    34.6996     2.0000     1.0000     5.0009     0.000
     53     1.4500     0.0000     1.4500    19.7503    14.7000     43.720      6.000 150721.000     60.000    43.6339   -20.0773   -26.5531   120.0962    -0.1480    -3.0001   -54.0105     0.0000     0.0000     0.0000     1.0000     5.0000   300.0000   -12.3185    45.0306     1.0010    -2.9998     9.0000    10.0000     5.0000    14.0000    16.0000     5.0000    10.0000    16.0000    -0.0005     0.0005   159.4164   -41.1662     2.8930    34.4503     2.0000     1.0000     5.0000     0.000
     54     1.4500     0.0000     1.4500    19.4998    14.7000     44.195      7.000 150721.000     60.000    43.7931   -20.0773   -26.6519   120.0962    -0.1480    -3.0001   -53.7978     0.0000     0.0000     0.0000     1.0000     5.0000   300.0000   -12.5256    45.2735     1.0010    -2.9998     9.0000    10.0000     5.0000    14.0000    16.0000     5.0000    10.0000    16.0000    -0.0005     0.0005   159.4164   -41.1662     2.8930    34.1998     2.0000     1.0000     4.9995     0.000
     55     1.4500     0.0000     1.4500    19.2501    14.7000     44.319      5.000 150721.000     60.000    43.9541   -20.0773   -26.7516   120.0962    -0.1480    -3.0001   -53.5845     0.0000     0.0000     0.0000     1.0000     5.0000   300.0000   -12.7336    45.5162     1.0010    -2.9998     9.0000    10.0000     5.0000    14.0000    16.0000     5.0000    10.0000    16.0000    -0.0005     0.0005   159.4164   -41.1662     2.8930    33.9501     2.0000     1.0000     5.0004     0.000
     56     1.4500     0.0000     1.4501    19.0002    14.7000     44.952      9.000 150721.000     60.000    44.1168   -20.0773   -26.8524   120.0962    -0.1480    -3.0001   -53.3706     0.0000     0.0000     0.0000     1.0000     5.0000   300.0000   -12.9399    45.7598     1.0010    -2.9998     9.0000    10.0000     5.0000    14.0000    16.0000     5.0000    10.0000    16.0000    -0.0005     0.0005   159.4164   -41.1662     2.8931    33.7002     2.0000     1.0000     4.9996     0.000
     57     1.4500     0.0000     1.4501    18.7495    14.7000     45.202      6.000 150721.000     60.000    44.2813   -20.0773   -26.9548   120.0962    -0.1480    -3.0001   -53.1560     0.0000     0.0000     0.0000     1.0000     5.0000   300.0000   -13.1471    46.0019     1.0010    -2.9998     9.0000    10.0000     5.0000    14.0000    16.0000     5.0000    10.0000    16.0000    -0.0005     0.0005   159.4164   -41.1662     2.8931    33.4495     2.0000     1.0000     4.9999     0.000
     58     1.4500     0.0000     1.4500    18.5001    14.7000     45.767      8.000 150721.000     60.000    44.4478   -20.0773   -27.0577   120.0962    -0.1480    -3.0001   -52.9407     0.0000     0.0000     0.0000     1.0000     5.0000   300.0000   -13.3543    46.2414     1.0010    -2.9998     9.0000    10.0000     5.0000    14.0000    16.0000     5.0000    10.0000    16.0000    -0.0005     0.0005   159.4164   -41.1662     2.8930    33.2001     2.0000     1.0000     5.0002     0.000
     59     1.4500     0.0000     1.4500    18.2503    14.7000     45.616      4.000 150721.000     60.000    44.6161   -20.0773   -27.1621   120.0962    -0.1480    -3.0001   -52.7248     0.0000     0.0000     0.0000     1.0000     5.0000   300.0000   -13.5600    46.4836     1.0010    -2.9998     9.0000    10.0000     5.0000    14.0000    16.0000     5.0000    10.0000    16.0000    -0.0005     0.0005   159.4164   -41.1662     2.8930    32.9503     2.0000     1.0000     4.9993     0.000
     60     1.4500     0.0000     1.4500    17.9999    14.7000     45.944     10.000 150721.000     60.000    44.7863   -20.0773   -27.2678   120.0962    -0.1480    -3.0001   -52.5081     0.0000     0.0000     0.0000     1.0000     5.0000   300.0000   -13.7666    46.7271     1.0010    -2.9998     9.0000    10.0000     5.0000    14.0000    16.0000     5.0000    10.0000    16.0000    -0.0005     0.0005   159.4164   -41.1662     2.8930    32.7000     2.0000     1.0000     5.0001     0.000
     61     1.4501     0.0000     1.4501    17.7503    14.7000     46.330      3.000 150721.000     60.000    44.9585   -20.0773   -27.3745   120.0962    -0.1480    -3.0001   -52.2908     0.0000     0.0000     0.0000     1.0000     5.0000   300.0000   -13.9727    46.9720     1.0010    -2.9998     9.0000    10.0000     5.0000    14.0000    16.0000     5.0000    10.0000    16.0000    -0.0005     0.0005   159.4164   -41.1662     2.8931    32.4504     2.0000     1.0000     5.0007     0.000
     62     1.4500     0.0000     1.4501    17.4998    14.7000     46.618      9.000 150721.000     60.000    45.1326   -20.0773   -27.4829   120.0962    -0.1480    -3.0001   -52.0728     0.0000     0.0000     0.0000     1.0000     5.0000   300.0000   -14.1789    47.2141     1.0010    -2.9998     9.0000    10.0000     5.0000    14.0000    16.0000     5.0000    10.0000    16.0000    -0.0005     0.0005   159.4164   -41.1662     2.8931    32.1999     2.0000     1.0000     4.9991     0.000
     63     1.4500     0.0000     1.4500    17.2500    14.7000     46.986      2.000 150721.000     60.000    45.3089   -20.0773   -27.5923   120.0962    -0.1480    -3.0001   -51.8540     0.0000     0.0000     0.0000     1.0000     5.0000   300.0000   -14.3844    47.4550     1.0010    -2.9998     9.0000    10.0000     5.0000    14.0000    16.0000     5.0000    10.0000    16.0000    -0.0005     0.0005   159.4164   -41.1662     2.8930    31.9500     2.0000     1.0000     5.0004     0.000
     64     1.4500     0.0000     1.4500    17.0000    14.7000     47.087      5.000 150721.000     60.000    45.4872   -20.0773   -27.7030   120.0962    -0.1480    -3.0001   -51.6345     0.0000     0.0000     0.0000     1.0000     5.0000   300.0000   -14.5899    47.6975     1.0010    -2.9998     9.0000    10.0000     5.0000    14.0000    16.0000     5.0000    10.0000    16.0000    -0.0005     0.0005   159.4164   -41.1662     2.8930    31.7000     2.0000     1.0000     5.0005     0.000
     65     1.4500     0.0000     1.4500    16.7499    14.7000     47.568      5.000 150721.000     60.000    45.6676   -20.0773   -27.8151   120.0962    -0.1480    -3.0001   -51.4143     0.0000     0.0000     0.0000     1.0000     5.0000   300.0000   -14.7959    47.9420     1.0010    -2.9998     9.0000    10.0000     5.0000    14.0000    16.0000     5.0000    10.0000    16.0000    -0.0005     0.0005   159.4164   -41.1662     2.8930    31.4499     2.0000     1.0000     4.9998     0.000
     66     1.4500     0.0000     1.4501    16.5002    14.7000     47.692      9.000 150721.000     60.000    45.8503   -20.0773   -27.9285   120.0962    -0.1480    -3.0001   -51.1934     0.0000     0.0000     0.0000     1.0000     5.0000   300.0000   -15.0010    48.1861     1.0010    -2.9998     9.0000    10.0000     5.0000    14.0000    16.0000     5.0000    10.0000    16.0000    -0.0005     0.0005   159.4164   -41.1662     2.8931    31.2002     2.0000     1.0000     4.9995     0.000
     67     1.4500     0.0000     1.4500    16.2498    14.7000     47.539      9.000 150721.000     60.000    46.0351   -20.0773   -28.0435   120.0962    -0.1480    -3.0001   -50.9717     0.0000     0.0000     0.0000     1.0000     5.0000   300.0000   -15.2064    48.4279     1.0010    -2.9998     9.0000    10.0000     5.0000    14.0000    16.0000     5.0000    10.0000    16.0000    -0.0005     0.0005   159.4164   -41.1662     2.8930    30.9498     2.0000     1.0000     4.9996     0.000
     68     1.4500     0.0000     1.4500    15.9999    14.7000     47.563      7.000 150721.000     60.000    46.2221   -20.0773   -28.1598   120.0962    -0.1480    -3.0001   -50.7492     0.0000     0.0000     0.0000     1.0000     5.0000   300.0000   -15.4117    48.6718     1.0010    -2.9998     9.0000    10.0000     5.0000    14.0000    16.0000     5.0000    10.0000    16.0000    -0.0005     0.0005   159.4164   -41.1662     2.8930    30.6999     2.0000     1.0000     4.9994     0.000
     69     1.4500     0.0000     1.4500    15.7503    14.7000     47.842      6.000 150721.000     60.000    46.4115   -20.0773   -28.2774   120.0962    -0.1480    -3.0001   -50.5260     0.0000     0.0000     0.0000     1.0000     5.0000   300.0000   -15.6166    48.9159     1.0010    -2.9998     9.0000    10.0000     5.0000    14.0000    16.0000     5.0000    10.0000    16.0000    -0.0005     0.0005   159.4164   -41.1662     2.8930    30.4503     2.0000     1.0000     4.9988     0.000
     70     1.4500     0.0000     1.4500    15.4998    14.7000     48.299      5.000 150721.000     60.000    46.6032   -20.0773   -28.3968   120.0962    -0.1480    -3.0001   -50.3021     0.0000     0.0000     0.0000     1.0000     5.0000   300.0000   -15.8219    49.1609     1.0010    -2.9998     9.0000    10.0000     5.0000    14.0000    16.0000     5.0000    10.0000    16.0000    -0.0005     0.0005   159.4164   -41.1662     2.8931    30.1998     2.0000     1.0000     4.9994     0.000
     71     1.4500     0.0000     1.4500    15.2502    14.7000     48.725      4.000 150721.000     60.000    46.7972   -20.0773   -28.5174   120.0962    -0.1480    -3.0001   -50.0773     0.0000     0.0000     0.0000     1.0000     5.0000   300.0000   -16.0266    49.4046     1.0010    -2.9998     9.0000    10.0000     5.0000    14.0000    16.0000     5.0000    10.0000    16.0000    -0.0005     0.0005   159.4164   -41.1662     2.8930    29.9502     2.0000     1.0000     5.0004     0.000
     72     1.4500     0.0000     1.4500    15.0000    14.7000     48.895      6.000 150721.000     60.000    46.9938   -20.0773   -28.6398   120.0962    -0.1480    -3.0001   -49.8518     0.0000     0.0000     0.0000     1.0000     5.0000   300.0000   -16.2318    49.6489     1.0010    -2.9998     9.0000    10.0000     5.0000    14.0000    16.0000     5.0000    10.0000    16.0000    -0.0005     0.0005   159.4164   -41.1662     2.8930    29.7000     2.0000     1.0000     4.9991     0.000
     73     1.4500     0.0000     1.4500    14.7499    14.7000     48.618      7.000 150721.000     60.000    47.1929   -20.0773   -28.7638   120.0962    -0.1480    -3.0001   -49.6254     0.0000     0.0000     0.0000     1.0000     5.0000   300.0000   -16.4365    49.8932     1.0010    -2.9998     9.0000    10.0000     5.0000    14.0000    16.0000     5.0000    10.0000    16.0000    -0.0005     0.0005   159.4164   -41.1662     2.8930    29.4500     2.0000     1.0000     4.9998     0.000
     74     1.4500     0.0000     1.4500    14.4998    14.7000     48.111      2.000 150721.000     60.000    47.3944   -20.0773   -28.8894   120.0962    -0.1480    -3.0001   -49.3982     0.0000     0.0000     0.0000     1.0000     5.0000   300.0000   -16.6412    50.1391     1.0010    -2.9998     9.0000    10.0000     5.0000    14.0000    16.0000     5.0000    10.0000    16.0000    -0.0005     0.0005   159.4164   -41.1662     2.8930    29.1998     2.0000     1.0000     5.0005     0.000
     75     1.4501     0.0000     1.4500    14.2506    14.7000     47.569      4.000 150721.000     60.000    47.5986   -20.0773   -29.0162   120.0962    -0.1480    -3.0001   -49.1702     0.0000     0.0000     0.0000     1.0000     5.0000   300.0000   -16.8461    50.3867     1.0010    -2.9998     9.0000    10.0000     5.0000    14.0000    16.0000     5.0000    10.0000    16.0000    -0.0005     0.0005   159.4164   -41.1662     2.8931    28.9506     2.0000     1.0000     5.0001     0.000
     76     1.4500     0.0000     1.4500    13.9994    14.7000     46.839      9.000 150721.000     60.000    47.8055   -20.0773   -29.1456   120.0962    -0.1480    -3.0001   -48.9414     0.0000     0.0000     0.0000     1.0000     5.0000   300.0000   -17.0509    50.6308     1.0010    -2.9998     9.0000    10.0000     5.0000    14.0000    16.0000     5.0000    10.0000    16.0000    -0.0005     0.0005   159.4164   -41.1662     2.8930    28.6995     2.0000     1.0000     4.9992     0.000
     77     1.4500     0.0000     1.4500    13.7502    14.7000     46.091      6.000 150721.000     60.000    48.0151   -20.0773   -29.2759   120.0962    -0.1480    -3.0001   -48.7117     0.0000     0.0000     0.0000     1.0000     5.0000   300.0000   -17.2557    50.8759     1.0010    -2.9998     9.0000    10.0000     5.0000    14.0000    16.0000     5.0000    10.0000    16.0000    -0.0005     0.0005   159.4164   -41.1662     2.8929    28.4502     2.0000     1.0000     4.9995     0.000
     78     1.4501     0.0000     1.4500    13.5004    14.7000     45.642      3.000 150721.000     60.000    48.2274   -20.0773   -29.4082   120.0962    -0.1480    -3.0001   -48.4811     0.0000     0.0000     0.0000     1.0000     5.0000   300.0000   -17.4603    51.1259     1.0010    -2.9998     9.0000    10.0000     5.0000    14.0000    16.0000     5.0000    10.0000    16.0000    -0.0005     0.0005   159.4164   -41.1662     2.8931    28.2004     2.0000     1.0000     5.0003     0.000
     79     1.4501     0.0000     1.4501    13.2497    14.7000     45.469      5.000 150721.000     60.000    48.4427   -20.0773   -29.5428   120.0962    -0.1480    -3.0001   -48.2497     0.0000     0.0000     0.0000     1.0000     5.0000   300.0000   -17.6651    51.3741     1.0010    -2.9998     9.0000    10.0000     5.0000    14.0000    16.0000     5.0000    10.0000    16.0000    -0.0005     0.0005   159.4164   -41.1662     2.8931    27.9497     2.0000     1.0000     5.0002     0.000
     80     1.4500     0.0000     1.4500    12.9999    14.7000     46.072      6.000 150721.000     60.000    48.6608   -20.0773   -29.6787   120.0962    -0.1480    -3.0001   -48.0174     0.0000     0.0000     0.0000     1.0000     5.0000   300.0000   -17.8699    51.6188     1.0010    -2.9998     9.0000    10.0000     5.0000    14.0000    16.0000     5.0000    10.0000    16.0000    -0.0005     0.0005   159.4164   -41.1662     2.8930    27.7000     2.0000     1.0000     4.9999     0.000
     81     1.4500     0.0000     1.4500    12.7500    14.7000     46.734      6.000 150721.000     60.000    48.8819   -20.0773   -29.8166   120.0962    -0.1480    -3.0001   -47.7842     0.0000     0.0000     0.0000     1.0000     5.0000   300.0000   -18.0748    51.8684     1.0010    -2.9998     9.0000    10.0000     5.0000    14.0000    16.0000     5.0000    10.0000    16.0000    -0.0005     0.0005   159.4164   -41.1662     2.8930    27.4500     2.0000     1.0000     4.9998     0.000
     82     1.4500     0.0000     1.4500    12.4999    14.7000     47.569      6.000 150721.000     60.000    49.1060   -20.0773   -29.9566   120.0962    -0.1480    -3.0001   -47.5501     0.0000     0.0000     0.0000     1.0000     5.0000   300.0000   -18.2796    52.1168     1.0010    -2.9998     9.0000    10.0000     5.0000    14.0000    16.0000     5.0000    10.0000    16.0000    -0.0005     0.0005   159.4164   -41.1662     2.8930    27.1999     2.0000     1.0000     5.0002     0.000
     83     1.4500     0.0000     1.4500    12.2503    14.7000     48.389      5.000 150721.000     60.000    49.3332   -20.0773   -30.0982   120.0962    -0.1480    -3.0001   -47.3151     0.0000     0.0000     0.0000     1.0000     5.0000   300.0000   -18.4845    52.3655     1.0010    -2.9998     9.0000    10.0000     5.0000    14.0000    16.0000     5.0000    10.0000    16.0000    -0.0005     0.0005   159.4164   -41.1662     2.8930    26.9504     2.0000     1.0000     4.9989     0.000
     84     1.4500     0.0000     1.4500    11.9997    14.7000     49.057      8.000 150721.000     60.000    49.5636   -20.0773   -30.2425   120.0962    -0.1480    -3.0001   -47.0791     0.0000     0.0000     0.0000     1.0000     5.0000   300.0000   -18.6894    52.6149     1.0010    -2.9998     9.0000    10.0000     5.0000    14.0000    16.0000     5.0000    10.0000    16.0000    -0.0005     0.0005   159.4164   -41.1662     2.8930    26.6997     2.0000     1.0000     4.9990     0.000
     85     1.4500     0.0000     1.4500    11.7499    14.7000     49.058      2.000 150721.000     60.000    49.7973   -20.0773   -30.3884   120.0962    -0.1480    -3.0001   -46.8422     0.0000     0.0000     0.0000     1.0000     5.0000   300.0000   -18.8946    52.8639     1.0010    -2.9998     9.0000    10.0000     5.0000    14.0000    16.0000     5.0000    10.0000    16.0000    -0.0005     0.0005   159.4164   -41.1662     2.8929    26.4499     2.0000     1.0000     5.0004     0.000
     86     1.4500     0.0000     1.4500    11.5002    14.7000     48.968      8.000 150721.000     60.000    50.0343   -20.0773   -30.5364   120.0962    -0.1480    -3.0001   -46.6044     0.0000     0.0000     0.0000     1.0000     5.0000   300.0000   -19.0995    53.1164     1.0010    -2.9998     9.0000    10.0000     5.0000    14.0000    16.0000     5.0000    10.0000    16.0000    -0.0005     0.0005   159.4164   -41.1662     2.8930    26.2002     2.0000     1.0000     4.9996     0.000
     87     1.4501     0.0000     1.4501    11.2500    14.7000     48.640      8.000 150721.000     60.000    50.2748   -20.0773   -30.6869   120.0962    -0.1480    -3.0001   -46.3655     0.0000     0.0000     0.0000     1.0000     5.0000   300.0000   -19.3045    53.3704     1.0010    -2.9998     9.0000    10.0000     5.0000    14.0000    16.0000     5.0000    10.0000    16.0000    -0.0005     0.0005   159.4164   -41.1662     2.8931    25.9500     2.0000     1.0000     5.0014     0.000
     88     1.4500     0.0000     1.4500    10.9999    14.7000     48.163      7.000 150721.000     60.000    50.5187   -20.0773   -30.8395   120.0962    -0.1480    -3.0001   -46.1257     0.0000     0.0000     0.0000     1.0000     5.0000   300.0000   -19.5098    53.6204     1.0010    -2.9998     9.0000    10.0000     5.0000    14.0000    16.0000     5.0000    10.0000    16.0000    -0.0005     0.0005   159.4164   -41.1662     2.8930    25.6999     2.0000     1.0000     4.9996     0.000
     89     1.4500     0.0000     1.4500    10.7500    14.7000     47.835      4.000 150721.000     60.000    50.7662   -20.0773   -30.9943   120.0962    -0.1480    -3.0001   -45.8849     0.0000     0.0000     0.0000     1.0000     5.0000   300.0000   -19.7155    53.8725     1.0010    -2.9998     9.0000    10.0000     5.0000    14.0000    16.0000     5.0000    10.0000    16.0000    -0.0005     0.0005   159.4164   -41.1662     2.8930    25.4501     2.0000     1.0000     4.9995     0.000
     90     1.4500     0.0000     1.4500    10.4999    14.7000     47.987      4.000 150721.000     60.000    51.0174   -20.0773   -31.1516   120.0962    -0.1480    -3.0001   -45.6430     0.0000     0.0000     0.0000     1.0000     5.0000   300.0000   -19.9206    54.1257     1.0010    -2.9998     9.0000    10.0000     5.0000    14.0000    16.0000     5.0000    10.0000    16.0000    -0.0005     0.0005   159.4164   -41.1662     2.8930    25.1999     2.0000     1.0000     5.0012     0.000
     91     1.4501     0.0000     1.4500    10.2503    14.7000     48.226      7.000 150721.000     60.000    51.2724   -20.0773   -31.3111   120.0962    -0.1480    -3.0001   -45.4002     0.0000     0.0000     0.0000     1.0000     5.0000   300.0000   -20.1264    54.3826     1.0010    -2.9998     9.0000    10.0000     5.0000    14.0000    16.0000     5.0000    10.0000    16.0000    -0.0005     0.0005   159.4164   -41.1662     2.8931    24.9503     2.0000     1.0000     5.0000     0.000
     92     1.4500     0.0000     1.4500    10.0000    14.7000     48.823      5.000 150721.000     60.000    51.5312   -20.0773   -31.4734   120.0962    -0.1480    -3.0001   -45.1562     0.0000     0.0000     0.0000     1.0000     5.0000   300.0000   -20.3323    54.6338     1.0010    -2.9998     9.0000    10.0000     5.0000    14.0000    16.0000     5.0000    10.0000    16.0000    -0.0005     0.0005   159.4164   -41.1662     2.8930    24.7000     2.0000     1.0000     4.9996     0.000
     93     1.4500     0.0000     1.4500     9.7498    14.7000     49.637     11.000 150721.000     60.000    51.7940   -20.0773   -31.6382   120.0962    -0.1480    -3.0001   -44.9112     0.0000     0.0000     0.0000     1.0000     5.0000   300.0000   -20.5379    54.8891     1.0010    -2.9998     9.0000    10.0000     5.0000    14.0000    16.0000     5.0000    10.0000    16.0000    -0.0005     0.0005   159.4164   -41.1662     2.8929    24.4498     2.0000     1.0000     4.9995     0.000
     94     1.4500     0.0000     1.4500     9.4998    14.7000     50.299      9.000 150721.000     60.000    52.0609   -20.0773   -31.8055   120.0962    -0.1480    -3.0001   -44.6652     0.0000     0.0000     0.0000     1.0000     5.0000   300.0000   -20.7443    55.1468     1.0010    -2.9998     9.0000    10.0000     5.0000    14.0000    16.0000     5.0000    10.0000    16.0000    -0.0005     0.0005   159.4164   -41.1662     2.8930    24.1998     2.0000     1.0000     4.9991     0.000
     95     1.4500     0.0000     1.4500     9.2503    14.7000     51.102      6.000 150721.000     60.000    52.3319   -20.0773   -31.9752   120.0962    -0.1480    -3.0001   -44.4180     0.0000     0.0000     0.0000     1.0000     5.0000   300.0000   -20.9499    55.4042     1.0010    -2.9998     9.0000    10.0000     5.0000    14.0000    16.0000     5.0000    10.0000    16.0000    -0.0005     0.0005   159.4164   -41.1662     2.8930    23.9503     2.0000     1.0000     4.9997     0.000
     96     1.4500     0.0000     1.4500     8.9999    14.7000     50.868      8.000 150721.000     60.000    52.6071   -20.0773   -32.1482   120.0962    -0.1480    -3.0001   -44.1697     0.0000     0.0000     0.0000     1.0000     5.0000   300.0000   -21.1566    55.6617     1.0010    -2.9998     9.0000    10.0000     5.0000    14.0000    16.0000     5.0000    10.0000    16.0000    -0.0005     0.0005   159.4164   -41.1662     2.8930    23.6999     2.0000     1.0000     5.0008     0.000
# Sum of Counts = 594
# Center of Mass = 20.934763+/-1.248788
# Full Width Half-Maximum = 14.113476+/-0.557567
# 5:58:46 AM  9/11/2024   scan completed.
