# scan = 52
# date = 9/10/2024
# time = 11:43:30 AM
# proposal = 34735
# experiment = Magnons and paramagnon coupling in MnTe
# experiment_number = 813
# command = scan h 1.325 k 0.0 l 1.325 e 24.75 5 0.25 ef 14.7 preset mcu 60
# builtin_command = scan h 1.325 k 0.0 l 1.325 e 24.75 5 0.25 ef 14.7 preset mcu 60
# users = Benjamin Frandsen, Songxue Chi, George Yumnam, Huibo Cao, Michael Manley, Raphael Hermann, Eleanor Clements
# local_contact = Eleanor Clements
# scan_title = H0L scans along (101) to (1.5, 0, 1.5) at H/L = 1.325, mcu = 60, E = 25 to 5 mev
# monochromator = PG002
# analyzer = Pg002
# sense = -+-
# collimation = 48-40-40-120
# samplename = MnTe
# sampletype = crystal
# samplemosaic = 30.000000
# latticeconstants = 4.128474,4.128474,6.651507,90.000000,90.000000,120.000000
# ubmatrix = -0.000328,-0.004396,-0.150319,-0.279308,-0.152332,0.000314,-0.014647,0.234528,-0.002614
# mode = 0
# plane_normal = -0.017470,-0.052341,0.998476
# ubconf = UB09Sep2024_43441PM.ini
# preset_type = normal 
# preset_channel = mcu
# preset_value = 60.000000
# def_x = e
# def_y = detector
# col_headers = 
#   Pt.          h          k          l          e         ef       time   detector    monitor        mcu focal_length         m1         m2   mcrystal       marc     mtrans     mfocus       ampl         dc       freq     output       temp     temp_2         s1         s2        sgl        sgu        bbb        bbl        bbr        bbt        bab        bal        bar        bat        stl        stu         a1         a2          q         ei   ampl_out output_state        vti     sample
      1     1.3251     0.0000     1.3251    24.7519    14.7000     38.927      5.000 150721.000     60.000    40.7751   -20.0773   -24.7842   120.0962    -0.1480    -3.0001   -58.1370     0.0000     0.0000     0.0000     1.0000     5.0000   300.0000    -6.5201    34.5527     1.0010    -2.9998     9.0000    10.0000     5.0000    14.0000    16.0000     5.0000    10.0000    16.0000    -0.0005     0.0005   159.4164   -41.1662     2.6438    39.4519     2.0000     1.0000     4.9998     0.000
      2     1.3250     0.0000     1.3250    24.4995    14.7000     39.052      7.000 150721.000     60.000    40.9049   -20.0773   -24.8651   120.0962    -0.1480    -3.0001   -57.9360     0.0000     0.0000     0.0000     1.0000     5.0000   300.0000    -6.7835    34.8103     1.0010    -2.9998     9.0000    10.0000     5.0000    14.0000    16.0000     5.0000    10.0000    16.0000    -0.0005     0.0005   159.4164   -41.1662     2.6436    39.1995     2.0000     1.0000     4.9996     0.000
      3     1.3250     0.0000     1.3250    24.2494    14.7000     39.225      4.000 150721.000     60.000    41.0360   -20.0773   -24.9461   120.0962    -0.1480    -3.0001   -57.7345     0.0000     0.0000     0.0000     1.0000     5.0000   300.0000    -7.0455    35.0676     1.0010    -2.9998     9.0000    10.0000     5.0000    14.0000    16.0000     5.0000    10.0000    16.0000    -0.0005     0.0005   159.4164   -41.1662     2.6435    38.9494     2.0000     1.0000     5.0005     0.000
      4     1.3250     0.0000     1.3250    24.0003    14.7000     39.248      7.000 150721.000     60.000    41.1683   -20.0773   -25.0276   120.0962    -0.1480    -3.0001   -57.5324     0.0000     0.0000     0.0000     1.0000     5.0000   300.0000    -7.3071    35.3281     1.0010    -2.9998     9.0000    10.0000     5.0000    14.0000    16.0000     5.0000    10.0000    16.0000    -0.0005     0.0005   159.4164   -41.1662     2.6436    38.7003     2.0000     1.0000     4.9997     0.000
      5     1.3250     0.0000     1.3250    23.7499    14.7000     39.561     10.000 150721.000     60.000    41.3020   -20.0773   -25.1103   120.0962    -0.1480    -3.0001   -57.3298     0.0000     0.0000     0.0000     1.0000     5.0000   300.0000    -7.5681    35.5863     1.0010    -2.9998     9.0000    10.0000     5.0000    14.0000    16.0000     5.0000    10.0000    16.0000    -0.0005     0.0005   159.4164   -41.1662     2.6436    38.4499     2.0000     1.0000     4.9994     0.000
      6     1.3250     0.0000     1.3250    23.5001    14.7000     39.885     12.000 150721.000     60.000    41.4369   -20.0773   -25.1936   120.0962    -0.1480    -3.0001   -57.1267     0.0000     0.0000     0.0000     1.0000     5.0000   300.0000    -7.8277    35.8414     1.0010    -2.9998     9.0000    10.0000     5.0000    14.0000    16.0000     5.0000    10.0000    16.0000    -0.0005     0.0005   159.4164   -41.1662     2.6436    38.2001     2.0000     1.0000     4.9999     0.000
      7     1.3250     0.0000     1.3250    23.2499    14.7000     40.203      6.000 150721.000     60.000    41.5732   -20.0773   -25.2779   120.0962    -0.1480    -3.0001   -56.9230     0.0000     0.0000     0.0000     1.0000     5.0000   300.0000    -8.0871    36.0989     1.0010    -2.9998     9.0000    10.0000     5.0000    14.0000    16.0000     5.0000    10.0000    16.0000    -0.0005     0.0005   159.4164   -41.1662     2.6436    37.9499     2.0000     1.0000     4.9997     0.000
      8     1.3250     0.0000     1.3251    23.0004    14.7000     40.785     10.000 150721.000     60.000    41.7108   -20.0773   -25.3627   120.0962    -0.1480    -3.0001   -56.7188     0.0000     0.0000     0.0000     1.0000     5.0000   300.0000    -8.3455    36.3552     1.0010    -2.9998     9.0000    10.0000     5.0000    14.0000    16.0000     5.0000    10.0000    16.0000    -0.0005     0.0005   159.4164   -41.1662     2.6437    37.7005     2.0000     1.0000     4.9992     0.000
      9     1.3250     0.0000     1.3250    22.7496    14.7000     41.025      4.000 150721.000     60.000    41.8497   -20.0773   -25.4490   120.0962    -0.1480    -3.0001   -56.5140     0.0000     0.0000     0.0000     1.0000     5.0000   300.0000    -8.6035    36.6098     1.0010    -2.9998     9.0000    10.0000     5.0000    14.0000    16.0000     5.0000    10.0000    16.0000    -0.0005     0.0005   159.4164   -41.1662     2.6436    37.4496     2.0000     1.0000     5.0006     0.000
     10     1.3250     0.0000     1.3250    22.5017    14.7000     41.356     10.000 150721.000     60.000    41.9902   -20.0773   -25.5351   120.0962    -0.1480    -3.0001   -56.3086     0.0000     0.0000     0.0000     1.0000     5.0000   300.0000    -8.8601    36.8623     1.0010    -2.9998     9.0000    10.0000     5.0000    14.0000    16.0000     5.0000    10.0000    16.0000    -0.0005     0.0005   159.4164   -41.1662     2.6436    37.2017     2.0000     1.0000     4.9999     0.000
     11     1.3250     0.0000     1.3250    22.2492    14.7000     41.853     13.000 150721.000     60.000    42.1320   -20.0773   -25.6236   120.0962    -0.1480    -3.0001   -56.1026     0.0000     0.0000     0.0000     1.0000     5.0000   300.0000    -9.1170    37.1172     1.0010    -2.9998     9.0000    10.0000     5.0000    14.0000    16.0000     5.0000    10.0000    16.0000    -0.0005     0.0005   159.4164   -41.1662     2.6436    36.9493     2.0000     1.0000     5.0006     0.000
     12     1.3250     0.0000     1.3251    21.9996    14.7000     42.431      7.000 150721.000     60.000    42.2752   -20.0773   -25.7121   120.0962    -0.1480    -3.0001   -55.8961     0.0000     0.0000     0.0000     1.0000     5.0000   300.0000    -9.3726    37.3712     1.0010    -2.9998     9.0000    10.0000     5.0000    14.0000    16.0000     5.0000    10.0000    16.0000    -0.0005     0.0005   159.4164   -41.1662     2.6437    36.6996     2.0000     1.0000     5.0006     0.000
     13     1.3250     0.0000     1.3250    21.7500    14.7000     42.646      8.000 150721.000     60.000    42.4200   -20.0773   -25.8015   120.0962    -0.1480    -3.0001   -55.6890     0.0000     0.0000     0.0000     1.0000     5.0000   300.0000    -9.6280    37.6212     1.0010    -2.9998     9.0000    10.0000     5.0000    14.0000    16.0000     5.0000    10.0000    16.0000    -0.0005     0.0005   159.4164   -41.1662     2.6436    36.4500     2.0000     1.0000     5.0000     0.000
     14     1.3250     0.0000     1.3250    21.4996    14.7000     42.629      8.000 150721.000     60.000    42.5662   -20.0773   -25.8921   120.0962    -0.1480    -3.0001   -55.4813     0.0000     0.0000     0.0000     1.0000     5.0000   300.0000    -9.8825    37.8727     1.0010    -2.9998     9.0000    10.0000     5.0000    14.0000    16.0000     5.0000    10.0000    16.0000    -0.0005     0.0005   159.4164   -41.1662     2.6436    36.1996     2.0000     1.0000     5.0000     0.000
     15     1.3250     0.0000     1.3250    21.2502    14.7000     42.998     10.000 150721.000     60.000    42.7139   -20.0773   -25.9834   120.0962    -0.1480    -3.0001   -55.2730     0.0000     0.0000     0.0000     1.0000     5.0000   300.0000   -10.1368    38.1245     1.0010    -2.9998     9.0000    10.0000     5.0000    14.0000    16.0000     5.0000    10.0000    16.0000    -0.0005     0.0005   159.4164   -41.1662     2.6436    35.9502     2.0000     1.0000     4.9995     0.000
     16     1.3251     0.0000     1.3251    21.0005    14.7000     42.874      5.000 150721.000     60.000    42.8632   -20.0773   -26.0757   120.0962    -0.1480    -3.0001   -55.0642     0.0000     0.0000     0.0000     1.0000     5.0000   300.0000   -10.3904    38.3775     1.0010    -2.9998     9.0000    10.0000     5.0000    14.0000    16.0000     5.0000    10.0000    16.0000    -0.0005     0.0005   159.4164   -41.1662     2.6437    35.7005     2.0000     1.0000     5.0010     0.000
     17     1.3250     0.0000     1.3251    20.7496    14.7000     43.069      5.000 150721.000     60.000    43.0141   -20.0773   -26.1694   120.0962    -0.1480    -3.0001   -54.8546     0.0000     0.0000     0.0000     1.0000     5.0000   300.0000   -10.6436    38.6261     1.0010    -2.9998     9.0000    10.0000     5.0000    14.0000    16.0000     5.0000    10.0000    16.0000    -0.0005     0.0005   159.4164   -41.1662     2.6436    35.4496     2.0000     1.0000     4.9989     0.000
     18     1.3250     0.0000     1.3250    20.4997    14.7000     43.141      7.000 150721.000     60.000    43.1666   -20.0773   -26.2638   120.0962    -0.1480    -3.0001   -54.6446     0.0000     0.0000     0.0000     1.0000     5.0000   300.0000   -10.8959    38.8729     1.0010    -2.9998     9.0000    10.0000     5.0000    14.0000    16.0000     5.0000    10.0000    16.0000    -0.0005     0.0005   159.4164   -41.1662     2.6435    35.1997     2.0000     1.0000     5.0007     0.000
     19     1.3250     0.0000     1.3250    20.2504    14.7000     43.154      5.000 150721.000     60.000    43.3207   -20.0773   -26.3590   120.0962    -0.1480    -3.0001   -54.4338     0.0000     0.0000     0.0000     1.0000     5.0000   300.0000   -11.1483    39.1239     1.0010    -2.9998     9.0000    10.0000     5.0000    14.0000    16.0000     5.0000    10.0000    16.0000    -0.0005     0.0005   159.4164   -41.1662     2.6436    34.9504     2.0000     1.0000     5.0007     0.000
     20     1.3250     0.0000     1.3251    19.9994    14.7000     43.572     11.000 150721.000     60.000    43.4765   -20.0773   -26.4558   120.0962    -0.1480    -3.0001   -54.2224     0.0000     0.0000     0.0000     1.0000     5.0000   300.0000   -11.3999    39.3743     1.0010    -2.9998     9.0000    10.0000     5.0000    14.0000    16.0000     5.0000    10.0000    16.0000    -0.0005     0.0005   159.4164   -41.1662     2.6437    34.6995     2.0000     1.0000     5.0006     0.000
     21     1.3250     0.0000     1.3250    19.7503    14.7000     43.625      6.000 150721.000     60.000    43.6339   -20.0773   -26.5531   120.0962    -0.1480    -3.0001   -54.0105     0.0000     0.0000     0.0000     1.0000     5.0000   300.0000   -11.6513    39.6192     1.0010    -2.9998     9.0000    10.0000     5.0000    14.0000    16.0000     5.0000    10.0000    16.0000    -0.0005     0.0005   159.4164   -41.1662     2.6436    34.4503     2.0000     1.0000     5.0007     0.000
     22     1.3250     0.0000     1.3250    19.4999    14.7000     43.872      4.000 150721.000     60.000    43.7931   -20.0773   -26.6519   120.0962    -0.1480    -3.0001   -53.7978     0.0000     0.0000     0.0000     1.0000     5.0000   300.0000   -11.9023    39.8662     1.0010    -2.9998     9.0000    10.0000     5.0000    14.0000    16.0000     5.0000    10.0000    16.0000    -0.0005     0.0005   159.4164   -41.1662     2.6435    34.1999     2.0000     1.0000     5.0012     0.000
     23     1.3250     0.0000     1.3250    19.2499    14.7000     44.526      7.000 150721.000     60.000    43.9541   -20.0773   -26.7516   120.0962    -0.1480    -3.0001   -53.5845     0.0000     0.0000     0.0000     1.0000     5.0000   300.0000   -12.1529    40.1161     1.0010    -2.9998     9.0000    10.0000     5.0000    14.0000    16.0000     5.0000    10.0000    16.0000    -0.0005     0.0005   159.4164   -41.1662     2.6436    33.9499     2.0000     1.0000     5.0027     0.000
     24     1.3250     0.0000     1.3250    19.0003    14.7000     44.946      2.000 150721.000     60.000    44.1168   -20.0773   -26.8524   120.0962    -0.1480    -3.0001   -53.3706     0.0000     0.0000     0.0000     1.0000     5.0000   300.0000   -12.4030    40.3625     1.0010    -2.9998     9.0000    10.0000     5.0000    14.0000    16.0000     5.0000    10.0000    16.0000    -0.0005     0.0005   159.4164   -41.1662     2.6436    33.7003     2.0000     1.0000     4.9961     0.000
     25     1.3250     0.0000     1.3250    18.7494    14.7000     45.065     11.000 150721.000     60.000    44.2813   -20.0773   -26.9548   120.0962    -0.1480    -3.0001   -53.1560     0.0000     0.0000     0.0000     1.0000     5.0000   300.0000   -12.6530    40.6088     1.0010    -2.9998     9.0000    10.0000     5.0000    14.0000    16.0000     5.0000    10.0000    16.0000    -0.0005     0.0005   159.4164   -41.1662     2.6436    33.4494     2.0000     1.0000     4.9996     0.000
     26     1.3250     0.0000     1.3250    18.5001    14.7000     45.454      7.000 150721.000     60.000    44.4478   -20.0773   -27.0577   120.0962    -0.1480    -3.0001   -52.9407     0.0000     0.0000     0.0000     1.0000     5.0000   300.0000   -12.9023    40.8558     1.0010    -2.9998     9.0000    10.0000     5.0000    14.0000    16.0000     5.0000    10.0000    16.0000    -0.0005     0.0005   159.4164   -41.1662     2.6436    33.2001     2.0000     1.0000     4.9996     0.000
     27     1.3250     0.0000     1.3250    18.2504    14.7000     45.927      7.000 150721.000     60.000    44.6161   -20.0773   -27.1620   120.0962    -0.1480    -3.0001   -52.7248     0.0000     0.0000     0.0000     1.0000     5.0000   300.0000   -13.1520    41.1009     1.0010    -2.9998     9.0000    10.0000     5.0000    14.0000    16.0000     5.0000    10.0000    16.0000    -0.0005     0.0005   159.4164   -41.1662     2.6436    32.9504     2.0000     1.0000     4.9973     0.000
     28     1.3250     0.0000     1.3250    17.9998    14.7000     45.943     12.000 150721.000     60.000    44.7863   -20.0773   -27.2679   120.0962    -0.1480    -3.0001   -52.5081     0.0000     0.0000     0.0000     1.0000     5.0000   300.0000   -13.4006    41.3472     1.0010    -2.9998     9.0000    10.0000     5.0000    14.0000    16.0000     5.0000    10.0000    16.0000    -0.0005     0.0005   159.4164   -41.1662     2.6436    32.6998     2.0000     1.0000     4.9963     0.000
     29     1.3250     0.0000     1.3250    17.7503    14.7000     46.281      6.000 150721.000     60.000    44.9585   -20.0773   -27.3745   120.0962    -0.1480    -3.0001   -52.2908     0.0000     0.0000     0.0000     1.0000     5.0000   300.0000   -13.6496    41.5934     1.0010    -2.9998     9.0000    10.0000     5.0000    14.0000    16.0000     5.0000    10.0000    16.0000    -0.0005     0.0005   159.4164   -41.1662     2.6437    32.4504     2.0000     1.0000     4.9976     0.000
     30     1.3250     0.0000     1.3250    17.4998    14.7000     46.550     14.000 150721.000     60.000    45.1326   -20.0773   -27.4829   120.0962    -0.1480    -3.0001   -52.0728     0.0000     0.0000     0.0000     1.0000     5.0000   300.0000   -13.8983    41.8367     1.0010    -2.9998     9.0000    10.0000     5.0000    14.0000    16.0000     5.0000    10.0000    16.0000    -0.0005     0.0005   159.4164   -41.1662     2.6436    32.1999     2.0000     1.0000     4.9992     0.000
     31     1.3250     0.0000     1.3250    17.2499    14.7000     46.914      5.000 150721.000     60.000    45.3089   -20.0773   -27.5923   120.0962    -0.1480    -3.0001   -51.8540     0.0000     0.0000     0.0000     1.0000     5.0000   300.0000   -14.1464    42.0818     1.0010    -2.9998     9.0000    10.0000     5.0000    14.0000    16.0000     5.0000    10.0000    16.0000    -0.0005     0.0005   159.4164   -41.1662     2.6436    31.9499     2.0000     1.0000     4.9979     0.000
     32     1.3250     0.0000     1.3251    17.0001    14.7000     47.178      6.000 150721.000     60.000    45.4872   -20.0773   -27.7029   120.0962    -0.1480    -3.0001   -51.6345     0.0000     0.0000     0.0000     1.0000     5.0000   300.0000   -14.3948    42.3290     1.0010    -2.9998     9.0000    10.0000     5.0000    14.0000    16.0000     5.0000    10.0000    16.0000    -0.0005     0.0005   159.4164   -41.1662     2.6437    31.7001     2.0000     1.0000     4.9982     0.000
     33     1.3250     0.0000     1.3251    16.7498    14.7000     47.197      6.000 150721.000     60.000    45.6676   -20.0773   -27.8152   120.0962    -0.1480    -3.0001   -51.4143     0.0000     0.0000     0.0000     1.0000     5.0000   300.0000   -14.6425    42.5731     1.0010    -2.9998     9.0000    10.0000     5.0000    14.0000    16.0000     5.0000    10.0000    16.0000    -0.0005     0.0005   159.4164   -41.1662     2.6437    31.4498     2.0000     1.0000     5.0004     0.000
     34     1.3250     0.0000     1.3251    16.5002    14.7000     47.432      5.000 150721.000     60.000    45.8503   -20.0773   -27.9285   120.0962    -0.1480    -3.0001   -51.1934     0.0000     0.0000     0.0000     1.0000     5.0000   300.0000   -14.8904    42.8180     1.0010    -2.9998     9.0000    10.0000     5.0000    14.0000    16.0000     5.0000    10.0000    16.0000    -0.0005     0.0005   159.4164   -41.1662     2.6437    31.2002     2.0000     1.0000     4.9995     0.000
     35     1.3250     0.0000     1.3250    16.2498    14.7000     47.418      9.000 150721.000     60.000    46.0351   -20.0773   -28.0435   120.0962    -0.1480    -3.0001   -50.9717     0.0000     0.0000     0.0000     1.0000     5.0000   300.0000   -15.1383    43.0598     1.0010    -2.9998     9.0000    10.0000     5.0000    14.0000    16.0000     5.0000    10.0000    16.0000    -0.0005     0.0005   159.4164   -41.1662     2.6436    30.9498     2.0000     1.0000     5.0006     0.000
     36     1.3250     0.0000     1.3251    15.9999    14.7000     47.738      6.000 150721.000     60.000    46.2221   -20.0773   -28.1598   120.0962    -0.1480    -3.0001   -50.7492     0.0000     0.0000     0.0000     1.0000     5.0000   300.0000   -15.3856    43.3068     1.0010    -2.9998     9.0000    10.0000     5.0000    14.0000    16.0000     5.0000    10.0000    16.0000    -0.0005     0.0005   159.4164   -41.1662     2.6437    30.6999     2.0000     1.0000     5.0001     0.000
     37     1.3250     0.0000     1.3250    15.7503    14.7000     47.824      4.000 150721.000     60.000    46.4115   -20.0773   -28.2774   120.0962    -0.1480    -3.0001   -50.5260     0.0000     0.0000     0.0000     1.0000     5.0000   300.0000   -15.6334    43.5483     1.0010    -2.9998     9.0000    10.0000     5.0000    14.0000    16.0000     5.0000    10.0000    16.0000    -0.0005     0.0005   159.4164   -41.1662     2.6436    30.4503     2.0000     1.0000     5.0000     0.000
     38     1.3250     0.0000     1.3250    15.4998    14.7000     48.246      2.000 150721.000     60.000    46.6032   -20.0773   -28.3968   120.0962    -0.1480    -3.0001   -50.3021     0.0000     0.0000     0.0000     1.0000     5.0000   300.0000   -15.8804    43.7926     1.0010    -2.9998     9.0000    10.0000     5.0000    14.0000    16.0000     5.0000    10.0000    16.0000    -0.0005     0.0005   159.4164   -41.1662     2.6436    30.1998     2.0000     1.0000     4.9735     0.000
     39     1.3250     0.0000     1.3250    15.2503    14.7000     48.570      8.000 150721.000     60.000    46.7972   -20.0773   -28.5174   120.0962    -0.1480    -3.0001   -50.0773     0.0000     0.0000     0.0000     1.0000     5.0000   300.0000   -16.1279    44.0361     1.0010    -2.9998     9.0000    10.0000     5.0000    14.0000    16.0000     5.0000    10.0000    16.0000    -0.0005     0.0005   159.4164   -41.1662     2.6436    29.9503     2.0000     1.0000     4.9718     0.000
     40     1.3250     0.0000     1.3250    14.9999    14.7000     48.828      4.000 150721.000     60.000    46.9938   -20.0773   -28.6399   120.0962    -0.1480    -3.0001   -49.8518     0.0000     0.0000     0.0000     1.0000     5.0000   300.0000   -16.3754    44.2796     1.0010    -2.9998     9.0000    10.0000     5.0000    14.0000    16.0000     5.0000    10.0000    16.0000    -0.0005     0.0005   159.4164   -41.1662     2.6436    29.6999     2.0000     1.0000     4.9910     0.000
     41     1.3250     0.0000     1.3250    14.7499    14.7000     48.446      6.000 150721.000     60.000    47.1929   -20.0773   -28.7638   120.0962    -0.1480    -3.0001   -49.6254     0.0000     0.0000     0.0000     1.0000     5.0000   300.0000   -16.6224    44.5245     1.0010    -2.9998     9.0000    10.0000     5.0000    14.0000    16.0000     5.0000    10.0000    16.0000    -0.0005     0.0005   159.4164   -41.1662     2.6436    29.4500     2.0000     1.0000     4.9413     0.000
     42     1.3250     0.0000     1.3251    14.4999    14.7000     48.131      9.000 150721.000     60.000    47.3944   -20.0773   -28.8893   120.0962    -0.1480    -3.0001   -49.3982     0.0000     0.0000     0.0000     1.0000     5.0000   300.0000   -16.8697    44.7688     1.0010    -2.9998     9.0000    10.0000     5.0000    14.0000    16.0000     5.0000    10.0000    16.0000    -0.0005     0.0005   159.4164   -41.1662     2.6437    29.1999     2.0000     1.0000     5.0582     0.000
     43     1.3250     0.0000     1.3250    14.2506    14.7000     47.385      6.000 150721.000     60.000    47.5986   -20.0773   -29.0162   120.0962    -0.1480    -3.0001   -49.1702     0.0000     0.0000     0.0000     1.0000     5.0000   300.0000   -17.1171    45.0107     1.0010    -2.9998     9.0000    10.0000     5.0000    14.0000    16.0000     5.0000    10.0000    16.0000    -0.0005     0.0005   159.4164   -41.1662     2.6436    28.9506     2.0000     1.0000     5.0887     0.000
     44     1.3250     0.0000     1.3250    13.9994    14.7000     46.843      4.000 150721.000     60.000    47.8055   -20.0773   -29.1457   120.0962    -0.1480    -3.0001   -48.9414     0.0000     0.0000     0.0000     1.0000     5.0000   300.0000   -17.3645    45.2542     1.0010    -2.9998     9.0000    10.0000     5.0000    14.0000    16.0000     5.0000    10.0000    16.0000    -0.0005     0.0005   159.4164   -41.1662     2.6436    28.6994     2.0000     1.0000     5.0279     0.000
     45     1.3250     0.0000     1.3250    13.7503    14.7000     45.988      2.000 150721.000     60.000    48.0151   -20.0773   -29.2758   120.0962    -0.1480    -3.0001   -48.7117     0.0000     0.0000     0.0000     1.0000     5.0000   300.0000   -17.6119    45.4979     1.0010    -2.9998     9.0000    10.0000     5.0000    14.0000    16.0000     5.0000    10.0000    16.0000    -0.0005     0.0005   159.4164   -41.1662     2.6436    28.4503     2.0000     1.0000     5.0079     0.000
     46     1.3251     0.0000     1.3250    13.5003    14.7000     45.502      4.000 150721.000     60.000    48.2274   -20.0773   -29.4082   120.0962    -0.1480    -3.0001   -48.4811     0.0000     0.0000     0.0000     1.0000     5.0000   300.0000   -17.8594    45.7432     1.0010    -2.9998     9.0000    10.0000     5.0000    14.0000    16.0000     5.0000    10.0000    16.0000    -0.0005     0.0005   159.4164   -41.1662     2.6437    28.2003     2.0000     1.0000     5.0018     0.000
     47     1.3250     0.0000     1.3251    13.2497    14.7000     45.638      4.000 150721.000     60.000    48.4427   -20.0773   -29.5428   120.0962    -0.1480    -3.0001   -48.2497     0.0000     0.0000     0.0000     1.0000     5.0000   300.0000   -18.1065    45.9863     1.0010    -2.9998     9.0000    10.0000     5.0000    14.0000    16.0000     5.0000    10.0000    16.0000    -0.0005     0.0005   159.4164   -41.1662     2.6436    27.9497     2.0000     1.0000     5.0028     0.000
     48     1.3250     0.0000     1.3250    12.9999    14.7000     46.047      6.000 150721.000     60.000    48.6608   -20.0773   -29.6787   120.0962    -0.1480    -3.0001   -48.0174     0.0000     0.0000     0.0000     1.0000     5.0000   300.0000   -18.3546    46.2298     1.0010    -2.9998     9.0000    10.0000     5.0000    14.0000    16.0000     5.0000    10.0000    16.0000    -0.0005     0.0005   159.4164   -41.1662     2.6436    27.7000     2.0000     1.0000     5.0016     0.000
     49     1.3250     0.0000     1.3250    12.7500    14.7000     46.778      3.000 150721.000     60.000    48.8819   -20.0773   -29.8166   120.0962    -0.1480    -3.0001   -47.7842     0.0000     0.0000     0.0000     1.0000     5.0000   300.0000   -18.6020    46.4731     1.0010    -2.9998     9.0000    10.0000     5.0000    14.0000    16.0000     5.0000    10.0000    16.0000    -0.0005     0.0005   159.4164   -41.1662     2.6436    27.4500     2.0000     1.0000     5.0006     0.000
     50     1.3250     0.0000     1.3250    12.4999    14.7000     47.554      5.000 150721.000     60.000    49.1060   -20.0773   -29.9566   120.0962    -0.1480    -3.0001   -47.5501     0.0000     0.0000     0.0000     1.0000     5.0000   300.0000   -18.8501    46.7168     1.0010    -2.9998     9.0000    10.0000     5.0000    14.0000    16.0000     5.0000    10.0000    16.0000    -0.0005     0.0005   159.4164   -41.1662     2.6436    27.1999     2.0000     1.0000     5.0021     0.000
     51     1.3250     0.0000     1.3250    12.2503    14.7000     48.222      8.000 150721.000     60.000    49.3332   -20.0773   -30.0982   120.0962    -0.1480    -3.0001   -47.3151     0.0000     0.0000     0.0000     1.0000     5.0000   300.0000   -19.0983    46.9623     1.0010    -2.9998     9.0000    10.0000     5.0000    14.0000    16.0000     5.0000    10.0000    16.0000    -0.0005     0.0005   159.4164   -41.1662     2.6437    26.9504     2.0000     1.0000     5.0000     0.000
     52     1.3250     0.0000     1.3250    11.9997    14.7000     49.109      6.000 150721.000     60.000    49.5636   -20.0773   -30.2425   120.0962    -0.1480    -3.0001   -47.0791     0.0000     0.0000     0.0000     1.0000     5.0000   300.0000   -19.3463    47.2058     1.0010    -2.9998     9.0000    10.0000     5.0000    14.0000    16.0000     5.0000    10.0000    16.0000    -0.0005     0.0005   159.4164   -41.1662     2.6436    26.6997     2.0000     1.0000     5.0007     0.000
     53     1.3250     0.0000     1.3250    11.7500    14.7000     49.222      6.000 150721.000     60.000    49.7973   -20.0773   -30.3884   120.0962    -0.1480    -3.0001   -46.8422     0.0000     0.0000     0.0000     1.0000     5.0000   300.0000   -19.5949    47.4501     1.0010    -2.9998     9.0000    10.0000     5.0000    14.0000    16.0000     5.0000    10.0000    16.0000    -0.0005     0.0005   159.4164   -41.1662     2.6436    26.4500     2.0000     1.0000     5.0005     0.000
     54     1.3250     0.0000     1.3250    11.5001    14.7000     48.988      3.000 150721.000     60.000    50.0343   -20.0773   -30.5364   120.0962    -0.1480    -3.0001   -46.6044     0.0000     0.0000     0.0000     1.0000     5.0000   300.0000   -19.8437    47.6932     1.0010    -2.9998     9.0000    10.0000     5.0000    14.0000    16.0000     5.0000    10.0000    16.0000    -0.0005     0.0005   159.4164   -41.1662     2.6436    26.2001     2.0000     1.0000     5.0008     0.000
     55     1.3250     0.0000     1.3250    11.2500    14.7000     48.712      5.000 150721.000     60.000    50.2748   -20.0773   -30.6869   120.0962    -0.1480    -3.0001   -46.3655     0.0000     0.0000     0.0000     1.0000     5.0000   300.0000   -20.0922    47.9389     1.0010    -2.9998     9.0000    10.0000     5.0000    14.0000    16.0000     5.0000    10.0000    16.0000    -0.0005     0.0005   159.4164   -41.1662     2.6436    25.9500     2.0000     1.0000     5.0006     0.000
     56     1.3251     0.0000     1.3251    10.9999    14.7000     47.846      3.000 150721.000     60.000    50.5187   -20.0773   -30.8395   120.0962    -0.1480    -3.0001   -46.1257     0.0000     0.0000     0.0000     1.0000     5.0000   300.0000   -20.3416    48.1867     1.0010    -2.9998     9.0000    10.0000     5.0000    14.0000    16.0000     5.0000    10.0000    16.0000    -0.0005     0.0005   159.4164   -41.1662     2.6437    25.6999     2.0000     1.0000     4.9987     0.000
     57     1.3250     0.0000     1.3250    10.7500    14.7000     47.944      6.000 150721.000     60.000    50.7662   -20.0773   -30.9943   120.0962    -0.1480    -3.0001   -45.8849     0.0000     0.0000     0.0000     1.0000     5.0000   300.0000   -20.5911    48.4296     1.0010    -2.9998     9.0000    10.0000     5.0000    14.0000    16.0000     5.0000    10.0000    16.0000    -0.0005     0.0005   159.4164   -41.1662     2.6436    25.4501     2.0000     1.0000     5.0007     0.000
     58     1.3250     0.0000     1.3250    10.5000    14.7000     47.827      7.000 150721.000     60.000    51.0174   -20.0773   -31.1516   120.0962    -0.1480    -3.0001   -45.6430     0.0000     0.0000     0.0000     1.0000     5.0000   300.0000   -20.8409    48.6737     1.0010    -2.9998     9.0000    10.0000     5.0000    14.0000    16.0000     5.0000    10.0000    16.0000    -0.0005     0.0005   159.4164   -41.1662     2.6436    25.2000     2.0000     1.0000     5.0009     0.000
     59     1.3250     0.0000     1.3250    10.2502    14.7000     47.931      7.000 150721.000     60.000    51.2724   -20.0773   -31.3111   120.0962    -0.1480    -3.0001   -45.4002     0.0000     0.0000     0.0000     1.0000     5.0000   300.0000   -21.0909    48.9206     1.0010    -2.9998     9.0000    10.0000     5.0000    14.0000    16.0000     5.0000    10.0000    16.0000    -0.0005     0.0005   159.4164   -41.1662     2.6436    24.9502     2.0000     1.0000     4.9990     0.000
     60     1.3251     0.0000     1.3251    10.0000    14.7000     48.783      3.000 150721.000     60.000    51.5312   -20.0773   -31.4734   120.0962    -0.1480    -3.0001   -45.1562     0.0000     0.0000     0.0000     1.0000     5.0000   300.0000   -21.3414    49.1690     1.0010    -2.9998     9.0000    10.0000     5.0000    14.0000    16.0000     5.0000    10.0000    16.0000    -0.0005     0.0005   159.4164   -41.1662     2.6437    24.7000     2.0000     1.0000     4.9995     0.000
     61     1.3250     0.0000     1.3250     9.7499    14.7000     49.576      6.000 150721.000     60.000    51.7940   -20.0773   -31.6382   120.0962    -0.1480    -3.0001   -44.9112     0.0000     0.0000     0.0000     1.0000     5.0000   300.0000   -21.5921    49.4127     1.0010    -2.9998     9.0000    10.0000     5.0000    14.0000    16.0000     5.0000    10.0000    16.0000    -0.0005     0.0005   159.4164   -41.1662     2.6436    24.4499     2.0000     1.0000     4.9999     0.000
     62     1.3250     0.0000     1.3250     9.4999    14.7000     50.328      5.000 150721.000     60.000    52.0609   -20.0773   -31.8055   120.0962    -0.1480    -3.0001   -44.6652     0.0000     0.0000     0.0000     1.0000     5.0000   300.0000   -21.8434    49.6584     1.0010    -2.9998     9.0000    10.0000     5.0000    14.0000    16.0000     5.0000    10.0000    16.0000    -0.0005     0.0005   159.4164   -41.1662     2.6436    24.1999     2.0000     1.0000     4.9994     0.000
     63     1.3250     0.0000     1.3250     9.2502    14.7000     51.001      4.000 150721.000     60.000    52.3319   -20.0773   -31.9753   120.0962    -0.1480    -3.0001   -44.4180     0.0000     0.0000     0.0000     1.0000     5.0000   300.0000   -22.0948    49.9066     1.0010    -2.9998     9.0000    10.0000     5.0000    14.0000    16.0000     5.0000    10.0000    16.0000    -0.0005     0.0005   159.4164   -41.1662     2.6436    23.9502     2.0000     1.0000     5.0012     0.000
     64     1.3250     0.0000     1.3250     8.9999    14.7000     50.746      5.000 150721.000     60.000    52.6071   -20.0773   -32.1482   120.0962    -0.1480    -3.0001   -44.1697     0.0000     0.0000     0.0000     1.0000     5.0000   300.0000   -22.3466    50.1548     1.0010    -2.9998     9.0000    10.0000     5.0000    14.0000    16.0000     5.0000    10.0000    16.0000    -0.0005     0.0005   159.4164   -41.1662     2.6436    23.6999     2.0000     1.0000     5.0015     0.000
     65     1.3250     0.0000     1.3250     8.7502    14.7000     49.543      4.000 150721.000     60.000    52.8868   -20.0773   -32.3236   120.0962    -0.1480    -3.0001   -43.9203     0.0000     0.0000     0.0000     1.0000     5.0000   300.0000   -22.5995    50.4027     1.0010    -2.9998     9.0000    10.0000     5.0000    14.0000    16.0000     5.0000    10.0000    16.0000    -0.0005     0.0005   159.4164   -41.1662     2.6437    23.4502     2.0000     1.0000     5.0006     0.000
     66     1.3250     0.0000     1.3250     8.5000    14.7000     48.141      6.000 150721.000     60.000    53.1710   -20.0773   -32.5022   120.0962    -0.1480    -3.0001   -43.6697     0.0000     0.0000     0.0000     1.0000     5.0000   300.0000   -22.8519    50.6497     1.0010    -2.9998     9.0000    10.0000     5.0000    14.0000    16.0000     5.0000    10.0000    16.0000    -0.0005     0.0005   159.4164   -41.1662     2.6436    23.2000     2.0000     1.0000     5.0008     0.000
     67     1.3250     0.0000     1.3250     8.2500    14.7000     46.350      2.000 150721.000     60.000    53.4598   -20.0773   -32.6837   120.0962    -0.1480    -3.0001   -43.4180     0.0000     0.0000     0.0000     1.0000     5.0000   300.0000   -23.1054    50.8979     1.0010    -2.9998     9.0000    10.0000     5.0000    14.0000    16.0000     5.0000    10.0000    16.0000    -0.0005     0.0005   159.4164   -41.1662     2.6436    22.9500     2.0000     1.0000     5.0001     0.000
     68     1.3250     0.0000     1.3250     7.9999    14.7000     44.991      6.000 150721.000     60.000    53.7534   -20.0773   -32.8683   120.0962    -0.1480    -3.0001   -43.1651     0.0000     0.0000     0.0000     1.0000     5.0000   300.0000   -23.3596    51.1475     1.0010    -2.9998     9.0000    10.0000     5.0000    14.0000    16.0000     5.0000    10.0000    16.0000    -0.0005     0.0005   159.4164   -41.1662     2.6436    22.6999     2.0000     1.0000     5.0005     0.000
     69     1.3250     0.0000     1.3250     7.7501    14.7000     44.499      3.000 150721.000     60.000    54.0519   -20.0773   -33.0559   120.0962    -0.1480    -3.0001   -42.9109     0.0000     0.0000     0.0000     1.0000     5.0000   300.0000   -23.6139    51.3977     1.0010    -2.9998     9.0000    10.0000     5.0000    14.0000    16.0000     5.0000    10.0000    16.0000    -0.0005     0.0005   159.4164   -41.1662     2.6436    22.4501     2.0000     1.0000     5.0006     0.000
     70     1.3250     0.0000     1.3250     7.5000    14.7000     44.138      7.000 150721.000     60.000    54.3554   -20.0773   -33.2469   120.0962    -0.1480    -3.0001   -42.6556     0.0000     0.0000     0.0000     1.0000     5.0000   300.0000   -23.8688    51.6470     1.0010    -2.9998     9.0000    10.0000     5.0000    14.0000    16.0000     5.0000    10.0000    16.0000    -0.0005     0.0005   159.4164   -41.1662     2.6436    22.2000     2.0000     1.0000     5.0012     0.000
     71     1.3250     0.0000     1.3250     7.2500    14.7000     44.506      7.000 150721.000     60.000    54.6640   -20.0773   -33.4413   120.0962    -0.1480    -3.0001   -42.3989     0.0000     0.0000     0.0000     1.0000     5.0000   300.0000   -24.1242    51.8970     1.0010    -2.9998     9.0000    10.0000     5.0000    14.0000    16.0000     5.0000    10.0000    16.0000    -0.0005     0.0005   159.4164   -41.1662     2.6436    21.9500     2.0000     1.0000     5.0002     0.000
     72     1.3250     0.0000     1.3250     6.9998    14.7000     44.467      3.000 150721.000     60.000    54.9780   -20.0773   -33.6392   120.0962    -0.1480    -3.0001   -42.1410     0.0000     0.0000     0.0000     1.0000     5.0000   300.0000   -24.3804    52.1489     1.0010    -2.9998     9.0000    10.0000     5.0000    14.0000    16.0000     5.0000    10.0000    16.0000    -0.0005     0.0005   159.4164   -41.1662     2.6436    21.6998     2.0000     1.0000     4.9996     0.000
     73     1.3251     0.0000     1.3250     6.7503    14.7000     44.790      8.000 150721.000     60.000    55.2975   -20.0773   -33.8402   120.0962    -0.1480    -3.0001   -41.8818     0.0000     0.0000     0.0000     1.0000     5.0000   300.0000   -24.6373    52.4029     1.0010    -2.9998     9.0000    10.0000     5.0000    14.0000    16.0000     5.0000    10.0000    16.0000    -0.0005     0.0005   159.4164   -41.1662     2.6437    21.4503     2.0000     1.0000     4.9999     0.000
     74     1.3250     0.0000     1.3250     6.4996    14.7000     45.361      7.000 150721.000     60.000    55.6225   -20.0773   -34.0457   120.0962    -0.1480    -3.0001   -41.6214     0.0000     0.0000     0.0000     1.0000     5.0000   300.0000   -24.8950    52.6525     1.0010    -2.9998     9.0000    10.0000     5.0000    14.0000    16.0000     5.0000    10.0000    16.0000    -0.0005     0.0005   159.4164   -41.1662     2.6436    21.1996     2.0000     1.0000     4.9994     0.000
     75     1.3250     0.0000     1.3250     6.2502    14.7000     45.722      2.000 150721.000     60.000    55.9535   -20.0773   -34.2539   120.0962    -0.1480    -3.0001   -41.3595     0.0000     0.0000     0.0000     1.0000     5.0000   300.0000   -25.1530    52.9054     1.0010    -2.9998     9.0000    10.0000     5.0000    14.0000    16.0000     5.0000    10.0000    16.0000    -0.0005     0.0005   159.4164   -41.1662     2.6436    20.9503     2.0000     1.0000     4.9975     0.000
     76     1.3250     0.0000     1.3250     6.0000    14.7000     46.625      2.000 150721.000     60.000    56.2903   -20.0773   -34.4668   120.0962    -0.1480    -3.0001   -41.0963     0.0000     0.0000     0.0000     1.0000     5.0000   300.0000   -25.4116    53.1594     1.0010    -2.9998     9.0000    10.0000     5.0000    14.0000    16.0000     5.0000    10.0000    16.0000    -0.0005     0.0005   159.4164   -41.1662     2.6436    20.7000     2.0000     1.0000     5.0009     0.000
     77     1.3251     0.0000     1.3250     5.7500    14.7000     47.813      7.000 150721.000     60.000    56.6333   -20.0773   -34.6835   120.0962    -0.1480    -3.0001   -40.8317     0.0000     0.0000     0.0000     1.0000     5.0000   300.0000   -25.6715    53.4149     1.0010    -2.9998     9.0000    10.0000     5.0000    14.0000    16.0000     5.0000    10.0000    16.0000    -0.0005     0.0005   159.4164   -41.1662     2.6437    20.4500     2.0000     1.0000     4.9991     0.000
     78     1.3250     0.0000     1.3250     5.4999    14.7000     48.559      3.000 150721.000     60.000    56.9827   -20.0773   -34.9043   120.0962    -0.1480    -3.0001   -40.5656     0.0000     0.0000     0.0000     1.0000     5.0000   300.0000   -25.9318    53.6674     1.0010    -2.9998     9.0000    10.0000     5.0000    14.0000    16.0000     5.0000    10.0000    16.0000    -0.0005     0.0005   159.4164   -41.1662     2.6436    20.1999     2.0000     1.0000     4.9994     0.000
     79     1.3250     0.0000     1.3250     5.2500    14.7000     49.335      5.000 150721.000     60.000    57.3387   -20.0773   -35.1293   120.0962    -0.1480    -3.0001   -40.2982     0.0000     0.0000     0.0000     1.0000     5.0000   300.0000   -26.1931    53.9235     1.0010    -2.9998     9.0000    10.0000     5.0000    14.0000    16.0000     5.0000    10.0000    16.0000    -0.0005     0.0005   159.4164   -41.1662     2.6436    19.9500     2.0000     1.0000     5.0007     0.000
     80     1.3251     0.0000     1.3250     5.0000    14.7000     49.950      8.000 150721.000     60.000    57.7013   -20.0773   -35.3589   120.0962    -0.1480    -3.0001   -40.0292     0.0000     0.0000     0.0000     1.0000     5.0000   300.0000   -26.4549    54.1828     1.0010    -2.9998     9.0000    10.0000     5.0000    14.0000    16.0000     5.0000    10.0000    16.0000    -0.0005     0.0005   159.4164   -41.1662     2.6437    19.7000     2.0000     1.0000     4.9991     0.000
# Sum of Counts = 488
# Center of Mass = 15.862703+/-1.048619
# Full Width Half-Maximum = 11.550816+/-0.508568
# 1:34:49 PM  9/10/2024   scan completed.
