# scan = 79
# date = 9/11/2024
# time = 4:47:38 PM
# proposal = 34735
# experiment = Magnons and paramagnon coupling in MnTe
# experiment_number = 813
# command = scanrel a1 2 -2 0.1
# builtin_command = scan a1 @(a1)+2 @(a1)+-2 0.100000
# users = Benjamin Frandsen, Songxue Chi, George Yumnam, Huibo Cao, Michael Manley, Raphael Hermann, Eleanor Clements
# local_contact = Eleanor Clements
# scan_title = a1 calib incoher
# monochromator = PG002
# analyzer = Pg002
# sense = -+-
# collimation = 48-40-40-120
# samplename = MnTe
# sampletype = crystal
# samplemosaic = 30.000000
# latticeconstants = 4.128474,4.128474,6.651507,90.000000,90.000000,120.000000
# ubmatrix = -0.000328,-0.004396,-0.150319,-0.279308,-0.152332,0.000314,-0.014647,0.234528,-0.002614
# mode = 0
# plane_normal = -0.017470,-0.052341,0.998476
# ubconf = UB09Sep2024_43441PM.ini
# preset_type = normal 
# preset_channel = time
# preset_value = 30.000000
# def_x = a1
# def_y = detector
# col_headers = 
#   Pt.         a1       time   detector    monitor        mcu focal_length         m1         m2   mcrystal       marc     mtrans     mfocus       ampl         dc       freq     output       temp     temp_2         s1         s2        sgl        sgu        bbb        bbl        bbr        bbt        bab        bal        bar        bat        stl        stu         a2          q          h          k          l         ei         ef          e   ampl_out output_state        vti     sample
      1   161.4166     30.000      5.000  75103.000     29.898    66.7975   -20.0773   -41.1659   120.0962    -0.1480    -3.0001   -34.2897     0.0000     0.0000     0.0000     1.0000     5.0000   300.0000    23.0003    42.4995     1.0010    -2.9998     9.0000    10.0000     5.0000    14.0000    16.0000     5.0000    10.0000    16.0000    -0.0005     0.0005   -41.1662     1.9307    -0.0323    -0.0000     2.0430    14.7002    14.7000     0.0002     2.0000     1.0000     4.9998     0.000
      2   161.3166     30.000      1.000  75859.000     30.199    66.7975   -20.0773   -41.1659   120.0962    -0.1480    -3.0001   -34.2897     0.0000     0.0000     0.0000     1.0000     5.0000   300.0000    23.0003    42.4995     1.0010    -2.9998     9.0000    10.0000     5.0000    14.0000    16.0000     5.0000    10.0000    16.0000    -0.0005     0.0005   -41.1662     1.9307    -0.0323    -0.0000     2.0430    14.7002    14.7000     0.0002     2.0000     1.0000     5.0005     0.000
      3   161.2165     30.000      3.000  75361.000     30.000    66.7975   -20.0773   -41.1659   120.0962    -0.1480    -3.0001   -34.2897     0.0000     0.0000     0.0000     1.0000     5.0000   300.0000    23.0003    42.4995     1.0010    -2.9998     9.0000    10.0000     5.0000    14.0000    16.0000     5.0000    10.0000    16.0000    -0.0005     0.0005   -41.1662     1.9307    -0.0323    -0.0000     2.0430    14.7002    14.7000     0.0002     2.0000     1.0000     5.0013     0.000
      4   161.1166     30.000      3.000  75353.000     29.997    66.7975   -20.0773   -41.1659   120.0962    -0.1480    -3.0001   -34.2897     0.0000     0.0000     0.0000     1.0000     5.0000   300.0000    23.0003    42.4995     1.0010    -2.9998     9.0000    10.0000     5.0000    14.0000    16.0000     5.0000    10.0000    16.0000    -0.0005     0.0005   -41.1662     1.9307    -0.0323    -0.0000     2.0430    14.7002    14.7000     0.0002     2.0000     1.0000     4.9998     0.000
      5   161.0166     30.000      2.000  75472.000     30.045    66.7975   -20.0773   -41.1659   120.0962    -0.1480    -3.0001   -34.2897     0.0000     0.0000     0.0000     1.0000     5.0000   300.0000    23.0003    42.4995     1.0010    -2.9998     9.0000    10.0000     5.0000    14.0000    16.0000     5.0000    10.0000    16.0000    -0.0005     0.0005   -41.1662     1.9307    -0.0323    -0.0000     2.0430    14.7002    14.7000     0.0002     2.0000     1.0000     5.0004     0.000
      6   160.9165     30.000      6.000  75653.000     30.117    66.7975   -20.0773   -41.1659   120.0962    -0.1480    -3.0001   -34.2897     0.0000     0.0000     0.0000     1.0000     5.0000   300.0000    23.0003    42.4995     1.0010    -2.9998     9.0000    10.0000     5.0000    14.0000    16.0000     5.0000    10.0000    16.0000    -0.0005     0.0005   -41.1662     1.9307    -0.0323    -0.0000     2.0430    14.7002    14.7000     0.0002     2.0000     1.0000     5.0000     0.000
      7   160.8165     30.000     12.000  75011.000     29.861    66.7975   -20.0773   -41.1659   120.0962    -0.1480    -3.0001   -34.2897     0.0000     0.0000     0.0000     1.0000     5.0000   300.0000    23.0003    42.4995     1.0010    -2.9998     9.0000    10.0000     5.0000    14.0000    16.0000     5.0000    10.0000    16.0000    -0.0005     0.0005   -41.1662     1.9307    -0.0323    -0.0000     2.0430    14.7002    14.7000     0.0002     2.0000     1.0000     5.0011     0.000
      8   160.7165     30.000      5.000  75158.000     29.920    66.7975   -20.0773   -41.1659   120.0962    -0.1480    -3.0001   -34.2897     0.0000     0.0000     0.0000     1.0000     5.0000   300.0000    23.0003    42.4995     1.0010    -2.9998     9.0000    10.0000     5.0000    14.0000    16.0000     5.0000    10.0000    16.0000    -0.0005     0.0005   -41.1662     1.9307    -0.0323    -0.0000     2.0430    14.7002    14.7000     0.0002     2.0000     1.0000     4.9995     0.000
      9   160.6165     30.000     17.000  75258.000     29.959    66.7975   -20.0773   -41.1659   120.0962    -0.1480    -3.0001   -34.2897     0.0000     0.0000     0.0000     1.0000     5.0000   300.0000    23.0003    42.4995     1.0010    -2.9998     9.0000    10.0000     5.0000    14.0000    16.0000     5.0000    10.0000    16.0000    -0.0005     0.0005   -41.1662     1.9307    -0.0323    -0.0000     2.0430    14.7002    14.7000     0.0002     2.0000     1.0000     5.0003     0.000
     10   160.5165     30.000     12.000  75440.000     30.032    66.7975   -20.0773   -41.1659   120.0962    -0.1480    -3.0001   -34.2897     0.0000     0.0000     0.0000     1.0000     5.0000   300.0000    23.0003    42.4995     1.0010    -2.9998     9.0000    10.0000     5.0000    14.0000    16.0000     5.0000    10.0000    16.0000    -0.0005     0.0005   -41.1662     1.9307    -0.0323    -0.0000     2.0430    14.7002    14.7000     0.0002     2.0000     1.0000     4.9998     0.000
     11   160.4165     30.000     24.000  75328.000     29.987    66.7975   -20.0773   -41.1659   120.0962    -0.1480    -3.0001   -34.2897     0.0000     0.0000     0.0000     1.0000     5.0000   300.0000    23.0003    42.4995     1.0010    -2.9998     9.0000    10.0000     5.0000    14.0000    16.0000     5.0000    10.0000    16.0000    -0.0005     0.0005   -41.1662     1.9307    -0.0323    -0.0000     2.0430    14.7002    14.7000     0.0002     2.0000     1.0000     4.9992     0.000
     12   160.3165     30.000     13.000  75424.000     30.025    66.7975   -20.0773   -41.1659   120.0962    -0.1480    -3.0001   -34.2897     0.0000     0.0000     0.0000     1.0000     5.0000   300.0000    23.0003    42.4995     1.0010    -2.9998     9.0000    10.0000     5.0000    14.0000    16.0000     5.0000    10.0000    16.0000    -0.0005     0.0005   -41.1662     1.9307    -0.0323    -0.0000     2.0430    14.7002    14.7000     0.0002     2.0000     1.0000     5.0004     0.000
     13   160.2165     30.000     32.000  75420.000     30.024    66.7975   -20.0773   -41.1659   120.0962    -0.1480    -3.0001   -34.2897     0.0000     0.0000     0.0000     1.0000     5.0000   300.0000    23.0003    42.4995     1.0010    -2.9998     9.0000    10.0000     5.0000    14.0000    16.0000     5.0000    10.0000    16.0000    -0.0005     0.0005   -41.1662     1.9307    -0.0323    -0.0000     2.0430    14.7002    14.7000     0.0002     2.0000     1.0000     4.9999     0.000
     14   160.1166     30.000     32.000  75463.000     30.041    66.7975   -20.0773   -41.1659   120.0962    -0.1480    -3.0001   -34.2897     0.0000     0.0000     0.0000     1.0000     5.0000   300.0000    23.0003    42.4995     1.0010    -2.9998     9.0000    10.0000     5.0000    14.0000    16.0000     5.0000    10.0000    16.0000    -0.0005     0.0005   -41.1662     1.9307    -0.0323    -0.0000     2.0430    14.7002    14.7000     0.0002     2.0000     1.0000     5.0000     0.000
     15   160.0166     30.000     63.000  75011.000     29.861    66.7975   -20.0773   -41.1659   120.0962    -0.1480    -3.0001   -34.2897     0.0000     0.0000     0.0000     1.0000     5.0000   300.0000    23.0003    42.4995     1.0010    -2.9998     9.0000    10.0000     5.0000    14.0000    16.0000     5.0000    10.0000    16.0000    -0.0005     0.0005   -41.1662     1.9307    -0.0323    -0.0000     2.0430    14.7002    14.7000     0.0002     2.0000     1.0000     5.0024     0.000
     16   159.9165     30.000     64.000  75171.000     29.925    66.7975   -20.0773   -41.1659   120.0962    -0.1480    -3.0001   -34.2897     0.0000     0.0000     0.0000     1.0000     5.0000   300.0000    23.0003    42.4995     1.0010    -2.9998     9.0000    10.0000     5.0000    14.0000    16.0000     5.0000    10.0000    16.0000    -0.0005     0.0005   -41.1662     1.9307    -0.0323    -0.0000     2.0430    14.7002    14.7000     0.0002     2.0000     1.0000     4.9997     0.000
     17   159.8165     30.000     84.000  75008.000     29.860    66.7975   -20.0773   -41.1659   120.0962    -0.1480    -3.0001   -34.2897     0.0000     0.0000     0.0000     1.0000     5.0000   300.0000    23.0003    42.4995     1.0010    -2.9998     9.0000    10.0000     5.0000    14.0000    16.0000     5.0000    10.0000    16.0000    -0.0005     0.0005   -41.1662     1.9307    -0.0323    -0.0000     2.0430    14.7002    14.7000     0.0002     2.0000     1.0000     4.9996     0.000
     18   159.7165     30.000    122.000  75539.000     30.071    66.7975   -20.0773   -41.1659   120.0962    -0.1480    -3.0001   -34.2897     0.0000     0.0000     0.0000     1.0000     5.0000   300.0000    23.0003    42.4995     1.0010    -2.9998     9.0000    10.0000     5.0000    14.0000    16.0000     5.0000    10.0000    16.0000    -0.0005     0.0005   -41.1662     1.9307    -0.0323    -0.0000     2.0430    14.7002    14.7000     0.0002     2.0000     1.0000     5.0002     0.000
     19   159.6165     30.000    106.000  75830.000     30.187    66.7975   -20.0773   -41.1659   120.0962    -0.1480    -3.0001   -34.2897     0.0000     0.0000     0.0000     1.0000     5.0000   300.0000    23.0003    42.4995     1.0010    -2.9998     9.0000    10.0000     5.0000    14.0000    16.0000     5.0000    10.0000    16.0000    -0.0005     0.0005   -41.1662     1.9307    -0.0323    -0.0000     2.0430    14.7002    14.7000     0.0002     2.0000     1.0000     5.0001     0.000
     20   159.5165     30.000    136.000  75452.000     30.037    66.7975   -20.0773   -41.1659   120.0962    -0.1480    -3.0001   -34.2897     0.0000     0.0000     0.0000     1.0000     5.0000   300.0000    23.0003    42.4995     1.0010    -2.9998     9.0000    10.0000     5.0000    14.0000    16.0000     5.0000    10.0000    16.0000    -0.0005     0.0005   -41.1662     1.9307    -0.0323    -0.0000     2.0430    14.7002    14.7000     0.0002     2.0000     1.0000     4.9997     0.000
     21   159.4165     30.000    158.000  75694.000     30.133    66.7975   -20.0773   -41.1659   120.0962    -0.1480    -3.0001   -34.2897     0.0000     0.0000     0.0000     1.0000     5.0000   300.0000    23.0003    42.4995     1.0010    -2.9998     9.0000    10.0000     5.0000    14.0000    16.0000     5.0000    10.0000    16.0000    -0.0005     0.0005   -41.1662     1.9307    -0.0323    -0.0000     2.0430    14.7002    14.7000     0.0002     2.0000     1.0000     4.9994     0.000
     22   159.3165     30.000    146.000  75480.000     30.048    66.7975   -20.0773   -41.1659   120.0962    -0.1480    -3.0001   -34.2897     0.0000     0.0000     0.0000     1.0000     5.0000   300.0000    23.0003    42.4995     1.0010    -2.9998     9.0000    10.0000     5.0000    14.0000    16.0000     5.0000    10.0000    16.0000    -0.0005     0.0005   -41.1662     1.9307    -0.0323    -0.0000     2.0430    14.7002    14.7000     0.0002     2.0000     1.0000     4.9995     0.000
     23   159.2165     30.000    114.000  75336.000     29.990    66.7975   -20.0773   -41.1659   120.0962    -0.1480    -3.0001   -34.2897     0.0000     0.0000     0.0000     1.0000     5.0000   300.0000    23.0003    42.4995     1.0010    -2.9998     9.0000    10.0000     5.0000    14.0000    16.0000     5.0000    10.0000    16.0000    -0.0005     0.0005   -41.1662     1.9307    -0.0323    -0.0000     2.0430    14.7002    14.7000     0.0002     2.0000     1.0000     5.0014     0.000
     24   159.1165     30.000    111.000  75247.000     29.955    66.7975   -20.0773   -41.1659   120.0962    -0.1480    -3.0001   -34.2897     0.0000     0.0000     0.0000     1.0000     5.0000   300.0000    23.0003    42.4995     1.0010    -2.9998     9.0000    10.0000     5.0000    14.0000    16.0000     5.0000    10.0000    16.0000    -0.0005     0.0005   -41.1662     1.9307    -0.0323    -0.0000     2.0430    14.7002    14.7000     0.0002     2.0000     1.0000     5.0013     0.000
     25   159.0165     30.000    116.000  74753.000     29.758    66.7975   -20.0773   -41.1659   120.0962    -0.1480    -3.0001   -34.2897     0.0000     0.0000     0.0000     1.0000     5.0000   300.0000    23.0003    42.4995     1.0010    -2.9998     9.0000    10.0000     5.0000    14.0000    16.0000     5.0000    10.0000    16.0000    -0.0005     0.0005   -41.1662     1.9307    -0.0323    -0.0000     2.0430    14.7002    14.7000     0.0002     2.0000     1.0000     4.9991     0.000
     26   158.9165     30.000     68.000  75651.000     30.116    66.7975   -20.0773   -41.1659   120.0962    -0.1480    -3.0001   -34.2897     0.0000     0.0000     0.0000     1.0000     5.0000   300.0000    23.0003    42.4995     1.0010    -2.9998     9.0000    10.0000     5.0000    14.0000    16.0000     5.0000    10.0000    16.0000    -0.0005     0.0005   -41.1662     1.9307    -0.0323    -0.0000     2.0430    14.7002    14.7000     0.0002     2.0000     1.0000     4.9998     0.000
     27   158.8165     30.000     55.000  76112.000     30.299    66.7975   -20.0773   -41.1659   120.0962    -0.1480    -3.0001   -34.2897     0.0000     0.0000     0.0000     1.0000     5.0000   300.0000    23.0003    42.4995     1.0010    -2.9998     9.0000    10.0000     5.0000    14.0000    16.0000     5.0000    10.0000    16.0000    -0.0005     0.0005   -41.1662     1.9307    -0.0323    -0.0000     2.0430    14.7002    14.7000     0.0002     2.0000     1.0000     4.9994     0.000
     28   158.7165     30.000     61.000  75530.000     30.068    66.7975   -20.0773   -41.1659   120.0962    -0.1480    -3.0001   -34.2897     0.0000     0.0000     0.0000     1.0000     5.0000   300.0000    23.0003    42.4995     1.0010    -2.9998     9.0000    10.0000     5.0000    14.0000    16.0000     5.0000    10.0000    16.0000    -0.0005     0.0005   -41.1662     1.9307    -0.0323    -0.0000     2.0430    14.7002    14.7000     0.0002     2.0000     1.0000     5.0004     0.000
     29   158.6165     30.000     35.000  75204.000     29.938    66.7975   -20.0773   -41.1659   120.0962    -0.1480    -3.0001   -34.2897     0.0000     0.0000     0.0000     1.0000     5.0000   300.0000    23.0003    42.4995     1.0010    -2.9998     9.0000    10.0000     5.0000    14.0000    16.0000     5.0000    10.0000    16.0000    -0.0005     0.0005   -41.1662     1.9307    -0.0323    -0.0000     2.0430    14.7002    14.7000     0.0002     2.0000     1.0000     5.0003     0.000
     30   158.5165     30.000     30.000  75508.000     30.059    66.7975   -20.0773   -41.1659   120.0962    -0.1480    -3.0001   -34.2897     0.0000     0.0000     0.0000     1.0000     5.0000   300.0000    23.0003    42.4995     1.0010    -2.9998     9.0000    10.0000     5.0000    14.0000    16.0000     5.0000    10.0000    16.0000    -0.0005     0.0005   -41.1662     1.9307    -0.0323    -0.0000     2.0430    14.7002    14.7000     0.0002     2.0000     1.0000     4.9999     0.000
     31   158.4165     30.000     17.000  75528.000     30.067    66.7975   -20.0773   -41.1659   120.0962    -0.1480    -3.0001   -34.2897     0.0000     0.0000     0.0000     1.0000     5.0000   300.0000    23.0003    42.4995     1.0010    -2.9998     9.0000    10.0000     5.0000    14.0000    16.0000     5.0000    10.0000    16.0000    -0.0005     0.0005   -41.1662     1.9307    -0.0323    -0.0000     2.0430    14.7002    14.7000     0.0002     2.0000     1.0000     4.9996     0.000
     32   158.3166     30.000     14.000  75512.000     30.061    66.7975   -20.0773   -41.1659   120.0962    -0.1480    -3.0001   -34.2897     0.0000     0.0000     0.0000     1.0000     5.0000   300.0000    23.0003    42.4995     1.0010    -2.9998     9.0000    10.0000     5.0000    14.0000    16.0000     5.0000    10.0000    16.0000    -0.0005     0.0005   -41.1662     1.9307    -0.0323    -0.0000     2.0430    14.7002    14.7000     0.0002     2.0000     1.0000     4.9989     0.000
     33   158.2166     30.000      7.000  74789.000     29.773    66.7975   -20.0773   -41.1659   120.0962    -0.1480    -3.0001   -34.2897     0.0000     0.0000     0.0000     1.0000     5.0000   300.0000    23.0003    42.4995     1.0010    -2.9998     9.0000    10.0000     5.0000    14.0000    16.0000     5.0000    10.0000    16.0000    -0.0005     0.0005   -41.1662     1.9307    -0.0323    -0.0000     2.0430    14.7002    14.7000     0.0002     2.0000     1.0000     4.9995     0.000
     34   158.1166     30.000      3.000  75481.000     30.048    66.7975   -20.0773   -41.1659   120.0962    -0.1480    -3.0001   -34.2897     0.0000     0.0000     0.0000     1.0000     5.0000   300.0000    23.0003    42.4995     1.0010    -2.9998     9.0000    10.0000     5.0000    14.0000    16.0000     5.0000    10.0000    16.0000    -0.0005     0.0005   -41.1662     1.9307    -0.0323    -0.0000     2.0430    14.7002    14.7000     0.0002     2.0000     1.0000     5.0003     0.000
     35   158.0166     30.000      9.000  75168.000     29.924    66.7975   -20.0773   -41.1659   120.0962    -0.1480    -3.0001   -34.2897     0.0000     0.0000     0.0000     1.0000     5.0000   300.0000    23.0003    42.4995     1.0010    -2.9998     9.0000    10.0000     5.0000    14.0000    16.0000     5.0000    10.0000    16.0000    -0.0005     0.0005   -41.1662     1.9307    -0.0323    -0.0000     2.0430    14.7002    14.7000     0.0002     2.0000     1.0000     5.0018     0.000
     36   157.9165     30.000      6.000  75763.000     30.160    66.7975   -20.0773   -41.1659   120.0962    -0.1480    -3.0001   -34.2897     0.0000     0.0000     0.0000     1.0000     5.0000   300.0000    23.0003    42.4995     1.0010    -2.9998     9.0000    10.0000     5.0000    14.0000    16.0000     5.0000    10.0000    16.0000    -0.0005     0.0005   -41.1662     1.9307    -0.0323    -0.0000     2.0430    14.7002    14.7000     0.0002     2.0000     1.0000     4.9994     0.000
     37   157.8165     30.000      4.000  75399.000     30.016    66.7975   -20.0773   -41.1659   120.0962    -0.1480    -3.0001   -34.2897     0.0000     0.0000     0.0000     1.0000     5.0000   300.0000    23.0003    42.4995     1.0010    -2.9998     9.0000    10.0000     5.0000    14.0000    16.0000     5.0000    10.0000    16.0000    -0.0005     0.0005   -41.1662     1.9307    -0.0323    -0.0000     2.0430    14.7002    14.7000     0.0002     2.0000     1.0000     4.9998     0.000
     38   157.7165     30.000      2.000  75586.000     30.090    66.7975   -20.0773   -41.1659   120.0962    -0.1480    -3.0001   -34.2897     0.0000     0.0000     0.0000     1.0000     5.0000   300.0000    23.0003    42.4995     1.0010    -2.9998     9.0000    10.0000     5.0000    14.0000    16.0000     5.0000    10.0000    16.0000    -0.0005     0.0005   -41.1662     1.9307    -0.0323    -0.0000     2.0430    14.7002    14.7000     0.0002     2.0000     1.0000     5.0004     0.000
     39   157.6165     30.000      6.000  75565.000     30.082    66.7975   -20.0773   -41.1659   120.0962    -0.1480    -3.0001   -34.2897     0.0000     0.0000     0.0000     1.0000     5.0000   300.0000    23.0003    42.4995     1.0010    -2.9998     9.0000    10.0000     5.0000    14.0000    16.0000     5.0000    10.0000    16.0000    -0.0005     0.0005   -41.1662     1.9307    -0.0323    -0.0000     2.0430    14.7002    14.7000     0.0002     2.0000     1.0000     4.9985     0.000
     40   157.5165     30.000      3.000  75362.000     30.001    66.7975   -20.0773   -41.1659   120.0962    -0.1480    -3.0001   -34.2897     0.0000     0.0000     0.0000     1.0000     5.0000   300.0000    23.0003    42.4995     1.0010    -2.9998     9.0000    10.0000     5.0000    14.0000    16.0000     5.0000    10.0000    16.0000    -0.0005     0.0005   -41.1662     1.9307    -0.0323    -0.0000     2.0430    14.7002    14.7000     0.0002     2.0000     1.0000     4.9991     0.000
     41   157.4166     30.000      3.000  75483.000     30.049    66.7975   -20.0773   -41.1659   120.0962    -0.1480    -3.0001   -34.2897     0.0000     0.0000     0.0000     1.0000     5.0000   300.0000    23.0003    42.4995     1.0010    -2.9998     9.0000    10.0000     5.0000    14.0000    16.0000     5.0000    10.0000    16.0000    -0.0005     0.0005   -41.1662     1.9307    -0.0323    -0.0000     2.0430    14.7002    14.7000     0.0002     2.0000     1.0000     5.0000     0.000
# Sum of Counts = 1710
# Center of Mass = 159.398731+/-5.451339
# Full Width Half-Maximum = 1.141382+/-1.546648
# 5:11:52 PM  9/11/2024   scan completed.
