# scan = 59
# date = 9/11/2024
# time = 1:06:55 AM
# proposal = 34735
# experiment = Magnons and paramagnon coupling in MnTe
# experiment_number = 813
# command = scan h 1.4 k 0.0 l 1.4 e 29.75 9 0.25 ef 14.7 preset mcu 60
# builtin_command = scan h 1.4 k 0.0 l 1.4 e 29.75 9 0.25 ef 14.7 preset mcu 60
# users = Benjamin Frandsen, Songxue Chi, George Yumnam, Huibo Cao, Michael Manley, Raphael Hermann, Eleanor Clements
# local_contact = Eleanor Clements
# scan_title = H0L scans along (101) to (1.5, 0, 1.5) at H/L = 1.4, mcu = 60, E = 30 to 5 mev
# monochromator = PG002
# analyzer = Pg002
# sense = -+-
# collimation = 48-40-40-120
# samplename = MnTe
# sampletype = crystal
# samplemosaic = 30.000000
# latticeconstants = 4.128474,4.128474,6.651507,90.000000,90.000000,120.000000
# ubmatrix = -0.000328,-0.004396,-0.150319,-0.279308,-0.152332,0.000314,-0.014647,0.234528,-0.002614
# mode = 0
# plane_normal = -0.017470,-0.052341,0.998476
# ubconf = UB09Sep2024_43441PM.ini
# preset_type = normal 
# preset_channel = mcu
# preset_value = 60.000000
# def_x = e
# def_y = detector
# col_headers = 
#   Pt.          h          k          l          e         ef       time   detector    monitor        mcu focal_length         m1         m2   mcrystal       marc     mtrans     mfocus       ampl         dc       freq     output       temp     temp_2         s1         s2        sgl        sgu        bbb        bbl        bbr        bbt        bab        bal        bar        bat        stl        stu         a1         a2          q         ei   ampl_out output_state        vti     sample
      1     1.4000     0.0000     1.4001    29.7493    14.7000     43.482      9.000 150721.000     60.000    38.4134   -20.0773   -23.3286   120.0962    -0.1480    -3.0001   -62.0538     0.0000     0.0000     0.0000     1.0000     5.0000   300.0000    -2.7550    32.7812     1.0010    -2.9998     9.0000    10.0000     5.0000    14.0000    16.0000     5.0000    10.0000    16.0000    -0.0005     0.0005   159.4164   -41.1662     2.7933    44.4493     2.0000     1.0000     4.9992     0.000
      2     1.4000     0.0000     1.4000    29.5004    14.7000     43.428      4.000 150721.000     60.000    38.5219   -20.0773   -23.3952   120.0962    -0.1480    -3.0001   -61.8623     0.0000     0.0000     0.0000     1.0000     5.0000   300.0000    -3.0046    33.0454     1.0010    -2.9998     9.0000    10.0000     5.0000    14.0000    16.0000     5.0000    10.0000    16.0000    -0.0005     0.0005   159.4164   -41.1662     2.7932    44.2004     2.0000     1.0000     4.9993     0.000
      3     1.4000     0.0000     1.4000    29.2505    14.7000     43.632      4.000 150721.000     60.000    38.6313   -20.0773   -23.4625   120.0962    -0.1480    -3.0001   -61.6704     0.0000     0.0000     0.0000     1.0000     5.0000   300.0000    -3.2535    33.3127     1.0010    -2.9998     9.0000    10.0000     5.0000    14.0000    16.0000     5.0000    10.0000    16.0000    -0.0005     0.0005   159.4164   -41.1662     2.7933    43.9505     2.0000     1.0000     5.0012     0.000
      4     1.4000     0.0000     1.4001    28.9996    14.7000     43.552      7.000 150721.000     60.000    38.7417   -20.0773   -23.5307   120.0962    -0.1480    -3.0001   -61.4781     0.0000     0.0000     0.0000     1.0000     5.0000   300.0000    -3.5004    33.5787     1.0010    -2.9998     9.0000    10.0000     5.0000    14.0000    16.0000     5.0000    10.0000    16.0000    -0.0005     0.0005   159.4164   -41.1662     2.7933    43.6996     2.0000     1.0000     5.0006     0.000
      5     1.4000     0.0000     1.4000    28.7500    14.7000     43.263      6.000 150721.000     60.000    38.8530   -20.0773   -23.5992   120.0962    -0.1480    -3.0001   -61.2854     0.0000     0.0000     0.0000     1.0000     5.0000   300.0000    -3.7470    33.8385     1.0010    -2.9998     9.0000    10.0000     5.0000    14.0000    16.0000     5.0000    10.0000    16.0000    -0.0005     0.0005   159.4164   -41.1662     2.7932    43.4500     2.0000     1.0000     4.9995     0.000
      6     1.4000     0.0000     1.4000    28.5001    14.7000     43.466      8.000 150721.000     60.000    38.9652   -20.0773   -23.6684   120.0962    -0.1480    -3.0001   -61.0922     0.0000     0.0000     0.0000     1.0000     5.0000   300.0000    -3.9924    34.1021     1.0010    -2.9998     9.0000    10.0000     5.0000    14.0000    16.0000     5.0000    10.0000    16.0000    -0.0005     0.0005   159.4164   -41.1662     2.7932    43.2001     2.0000     1.0000     5.0001     0.000
      7     1.4000     0.0000     1.4001    28.2503    14.7000     43.111      3.000 150721.000     60.000    39.0785   -20.0773   -23.7381   120.0962    -0.1480    -3.0001   -60.8985     0.0000     0.0000     0.0000     1.0000     5.0000   300.0000    -4.2367    34.3653     1.0010    -2.9998     9.0000    10.0000     5.0000    14.0000    16.0000     5.0000    10.0000    16.0000    -0.0005     0.0005   159.4164   -41.1662     2.7933    42.9503     2.0000     1.0000     4.9998     0.000
      8     1.4000     0.0000     1.4000    27.9997    14.7000     42.951      4.000 150721.000     60.000    39.1927   -20.0773   -23.8086   120.0962    -0.1480    -3.0001   -60.7044     0.0000     0.0000     0.0000     1.0000     5.0000   300.0000    -4.4801    34.6245     1.0010    -2.9998     9.0000    10.0000     5.0000    14.0000    16.0000     5.0000    10.0000    16.0000    -0.0005     0.0005   159.4164   -41.1662     2.7932    42.6997     2.0000     1.0000     5.0001     0.000
      9     1.4000     0.0000     1.4000    27.7504    14.7000     42.789      5.000 150721.000     60.000    39.3079   -20.0773   -23.8795   120.0962    -0.1480    -3.0001   -60.5098     0.0000     0.0000     0.0000     1.0000     5.0000   300.0000    -4.7225    34.8848     1.0010    -2.9998     9.0000    10.0000     5.0000    14.0000    16.0000     5.0000    10.0000    16.0000    -0.0005     0.0005   159.4164   -41.1662     2.7933    42.4504     2.0000     1.0000     4.9988     0.000
     10     1.4000     0.0000     1.4000    27.4997    14.7000     42.672      1.000 150721.000     60.000    39.4242   -20.0773   -23.9513   120.0962    -0.1480    -3.0001   -60.3147     0.0000     0.0000     0.0000     1.0000     5.0000   300.0000    -4.9642    35.1436     1.0010    -2.9998     9.0000    10.0000     5.0000    14.0000    16.0000     5.0000    10.0000    16.0000    -0.0005     0.0005   159.4164   -41.1662     2.7932    42.1997     2.0000     1.0000     4.9987     0.000
     11     1.4000     0.0000     1.4001    27.2495    14.7000     42.284      6.000 150721.000     60.000    39.5415   -20.0773   -24.0237   120.0962    -0.1480    -3.0001   -60.1192     0.0000     0.0000     0.0000     1.0000     5.0000   300.0000    -5.2046    35.4033     1.0010    -2.9998     9.0000    10.0000     5.0000    14.0000    16.0000     5.0000    10.0000    16.0000    -0.0005     0.0005   159.4164   -41.1662     2.7933    41.9495     2.0000     1.0000     5.0003     0.000
     12     1.4000     0.0000     1.4000    27.0010    14.7000     41.835      8.000 150721.000     60.000    39.6598   -20.0773   -24.0963   120.0962    -0.1480    -3.0001   -59.9232     0.0000     0.0000     0.0000     1.0000     5.0000   300.0000    -5.4446    35.6586     1.0010    -2.9998     9.0000    10.0000     5.0000    14.0000    16.0000     5.0000    10.0000    16.0000    -0.0005     0.0005   159.4164   -41.1662     2.7933    41.7010     2.0000     1.0000     5.0012     0.000
     13     1.4000     0.0000     1.4000    26.7501    14.7000     41.177     11.000 150721.000     60.000    39.7792   -20.0773   -24.1702   120.0962    -0.1480    -3.0001   -59.7267     0.0000     0.0000     0.0000     1.0000     5.0000   300.0000    -5.6839    35.9159     1.0010    -2.9998     9.0000    10.0000     5.0000    14.0000    16.0000     5.0000    10.0000    16.0000    -0.0005     0.0005   159.4164   -41.1662     2.7933    41.4501     2.0000     1.0000     5.0000     0.000
     14     1.4000     0.0000     1.4001    26.4993    14.7000     40.641      4.000 150721.000     60.000    39.8998   -20.0773   -24.2448   120.0962    -0.1480    -3.0001   -59.5297     0.0000     0.0000     0.0000     1.0000     5.0000   300.0000    -5.9214    36.1727     1.0010    -2.9998     9.0000    10.0000     5.0000    14.0000    16.0000     5.0000    10.0000    16.0000    -0.0005     0.0005   159.4164   -41.1662     2.7933    41.1993     2.0000     1.0000     4.9997     0.000
     15     1.4000     0.0000     1.4000    26.2501    14.7000     40.367      4.000 150721.000     60.000    40.0214   -20.0773   -24.3195   120.0962    -0.1480    -3.0001   -59.3323     0.0000     0.0000     0.0000     1.0000     5.0000   300.0000    -6.1593    36.4263     1.0010    -2.9998     9.0000    10.0000     5.0000    14.0000    16.0000     5.0000    10.0000    16.0000    -0.0005     0.0005   159.4164   -41.1662     2.7933    40.9501     2.0000     1.0000     4.9992     0.000
     16     1.4000     0.0000     1.4000    26.0001    14.7000     40.099      6.000 150721.000     60.000    40.1441   -20.0773   -24.3953   120.0962    -0.1480    -3.0001   -59.1343     0.0000     0.0000     0.0000     1.0000     5.0000   300.0000    -6.3958    36.6798     1.0010    -2.9998     9.0000    10.0000     5.0000    14.0000    16.0000     5.0000    10.0000    16.0000    -0.0005     0.0005   159.4164   -41.1662     2.7932    40.7001     2.0000     1.0000     4.9990     0.000
     17     1.4000     0.0000     1.4001    25.7498    14.7000     39.644      8.000 150721.000     60.000    40.2680   -20.0773   -24.4718   120.0962    -0.1480    -3.0001   -58.9359     0.0000     0.0000     0.0000     1.0000     5.0000   300.0000    -6.6316    36.9355     1.0010    -2.9998     9.0000    10.0000     5.0000    14.0000    16.0000     5.0000    10.0000    16.0000    -0.0005     0.0005   159.4164   -41.1662     2.7933    40.4498     2.0000     1.0000     5.0000     0.000
     18     1.4001     0.0000     1.4001    25.5007    14.7000     39.458      8.000 150721.000     60.000    40.3930   -20.0773   -24.5487   120.0962    -0.1480    -3.0001   -58.7370     0.0000     0.0000     0.0000     1.0000     5.0000   300.0000    -6.8666    37.1885     1.0010    -2.9998     9.0000    10.0000     5.0000    14.0000    16.0000     5.0000    10.0000    16.0000    -0.0005     0.0005   159.4164   -41.1662     2.7933    40.2007     2.0000     1.0000     5.0015     0.000
     19     1.4000     0.0000     1.4000    25.2503    14.7000     39.297      3.000 150721.000     60.000    40.5192   -20.0773   -24.6267   120.0962    -0.1480    -3.0001   -58.5375     0.0000     0.0000     0.0000     1.0000     5.0000   300.0000    -7.1014    37.4397     1.0010    -2.9998     9.0000    10.0000     5.0000    14.0000    16.0000     5.0000    10.0000    16.0000    -0.0005     0.0005   159.4164   -41.1662     2.7933    39.9503     2.0000     1.0000     5.0009     0.000
     20     1.4000     0.0000     1.4000    25.0001    14.7000     39.154      9.000 150721.000     60.000    40.6465   -20.0773   -24.7054   120.0962    -0.1480    -3.0001   -58.3375     0.0000     0.0000     0.0000     1.0000     5.0000   300.0000    -7.3353    37.6905     1.0010    -2.9998     9.0000    10.0000     5.0000    14.0000    16.0000     5.0000    10.0000    16.0000    -0.0005     0.0005   159.4164   -41.1662     2.7932    39.7001     2.0000     1.0000     5.0003     0.000
     21     1.4000     0.0000     1.4000    24.7495    14.7000     39.012      1.000 150721.000     60.000    40.7751   -20.0773   -24.7850   120.0962    -0.1480    -3.0001   -58.1370     0.0000     0.0000     0.0000     1.0000     5.0000   300.0000    -7.5682    37.9424     1.0010    -2.9998     9.0000    10.0000     5.0000    14.0000    16.0000     5.0000    10.0000    16.0000    -0.0005     0.0005   159.4164   -41.1662     2.7932    39.4495     2.0000     1.0000     5.0002     0.000
     22     1.4001     0.0000     1.4001    24.5004    14.7000     38.736     11.000 150721.000     60.000    40.9049   -20.0773   -24.8648   120.0962    -0.1480    -3.0001   -57.9360     0.0000     0.0000     0.0000     1.0000     5.0000   300.0000    -7.8009    38.1946     1.0010    -2.9998     9.0000    10.0000     5.0000    14.0000    16.0000     5.0000    10.0000    16.0000    -0.0005     0.0005   159.4164   -41.1662     2.7934    39.2004     2.0000     1.0000     4.9998     0.000
     23     1.4000     0.0000     1.4000    24.2497    14.7000     39.289      7.000 150721.000     60.000    41.0360   -20.0773   -24.9460   120.0962    -0.1480    -3.0001   -57.7345     0.0000     0.0000     0.0000     1.0000     5.0000   300.0000    -8.0326    38.4414     1.0010    -2.9998     9.0000    10.0000     5.0000    14.0000    16.0000     5.0000    10.0000    16.0000    -0.0005     0.0005   159.4164   -41.1662     2.7932    38.9497     2.0000     1.0000     5.0004     0.000
     24     1.4000     0.0000     1.4000    24.0004    14.7000     39.326      8.000 150721.000     60.000    41.1683   -20.0773   -25.0275   120.0962    -0.1480    -3.0001   -57.5324     0.0000     0.0000     0.0000     1.0000     5.0000   300.0000    -8.2644    38.6905     1.0010    -2.9998     9.0000    10.0000     5.0000    14.0000    16.0000     5.0000    10.0000    16.0000    -0.0005     0.0005   159.4164   -41.1662     2.7932    38.7004     2.0000     1.0000     5.0003     0.000
     25     1.4000     0.0000     1.4001    23.7496    14.7000     39.848      8.000 150721.000     60.000    41.3020   -20.0773   -25.1104   120.0962    -0.1480    -3.0001   -57.3298     0.0000     0.0000     0.0000     1.0000     5.0000   300.0000    -8.4947    38.9434     1.0010    -2.9998     9.0000    10.0000     5.0000    14.0000    16.0000     5.0000    10.0000    16.0000    -0.0005     0.0005   159.4164   -41.1662     2.7933    38.4496     2.0000     1.0000     5.0012     0.000
     26     1.4000     0.0000     1.4001    23.5001    14.7000     39.845      6.000 150721.000     60.000    41.4369   -20.0773   -25.1936   120.0962    -0.1480    -3.0001   -57.1267     0.0000     0.0000     0.0000     1.0000     5.0000   300.0000    -8.7251    39.1912     1.0010    -2.9998     9.0000    10.0000     5.0000    14.0000    16.0000     5.0000    10.0000    16.0000    -0.0005     0.0005   159.4164   -41.1662     2.7933    38.2001     2.0000     1.0000     5.0003     0.000
     27     1.4000     0.0000     1.4000    23.2497    14.7000     40.416      8.000 150721.000     60.000    41.5732   -20.0773   -25.2779   120.0962    -0.1480    -3.0001   -56.9230     0.0000     0.0000     0.0000     1.0000     5.0000   300.0000    -8.9550    39.4369     1.0010    -2.9998     9.0000    10.0000     5.0000    14.0000    16.0000     5.0000    10.0000    16.0000    -0.0005     0.0005   159.4164   -41.1662     2.7932    37.9497     2.0000     1.0000     4.9996     0.000
     28     1.4000     0.0000     1.4000    23.0003    14.7000     40.759      4.000 150721.000     60.000    41.7108   -20.0773   -25.3628   120.0962    -0.1480    -3.0001   -56.7188     0.0000     0.0000     0.0000     1.0000     5.0000   300.0000    -9.1843    39.6848     1.0010    -2.9998     9.0000    10.0000     5.0000    14.0000    16.0000     5.0000    10.0000    16.0000    -0.0005     0.0005   159.4164   -41.1662     2.7932    37.7003     2.0000     1.0000     4.9992     0.000
     29     1.4000     0.0000     1.4001    22.7496    14.7000     41.142      9.000 150721.000     60.000    41.8497   -20.0773   -25.4490   120.0962    -0.1480    -3.0001   -56.5140     0.0000     0.0000     0.0000     1.0000     5.0000   300.0000    -9.4126    39.9336     1.0010    -2.9998     9.0000    10.0000     5.0000    14.0000    16.0000     5.0000    10.0000    16.0000    -0.0005     0.0005   159.4164   -41.1662     2.7933    37.4496     2.0000     1.0000     4.9996     0.000
     30     1.4001     0.0000     1.4000    22.5015    14.7000     41.471      8.000 150721.000     60.000    41.9902   -20.0773   -25.5351   120.0962    -0.1480    -3.0001   -56.3086     0.0000     0.0000     0.0000     1.0000     5.0000   300.0000    -9.6410    40.1808     1.0010    -2.9998     9.0000    10.0000     5.0000    14.0000    16.0000     5.0000    10.0000    16.0000    -0.0005     0.0005   159.4164   -41.1662     2.7934    37.2015     2.0000     1.0000     5.0000     0.000
     31     1.4000     0.0000     1.4000    22.2492    14.7000     42.065     10.000 150721.000     60.000    42.1320   -20.0773   -25.6236   120.0962    -0.1480    -3.0001   -56.1026     0.0000     0.0000     0.0000     1.0000     5.0000   300.0000    -9.8690    40.4259     1.0010    -2.9998     9.0000    10.0000     5.0000    14.0000    16.0000     5.0000    10.0000    16.0000    -0.0005     0.0005   159.4164   -41.1662     2.7932    36.9493     2.0000     1.0000     5.0021     0.000
     32     1.4000     0.0000     1.4000    21.9996    14.7000     42.268      7.000 150721.000     60.000    42.2752   -20.0773   -25.7121   120.0962    -0.1480    -3.0001   -55.8961     0.0000     0.0000     0.0000     1.0000     5.0000   300.0000   -10.0960    40.6722     1.0010    -2.9998     9.0000    10.0000     5.0000    14.0000    16.0000     5.0000    10.0000    16.0000    -0.0005     0.0005   159.4164   -41.1662     2.7932    36.6996     2.0000     1.0000     5.0000     0.000
     33     1.4000     0.0000     1.4000    21.7501    14.7000     42.731      8.000 150721.000     60.000    42.4200   -20.0773   -25.8014   120.0962    -0.1480    -3.0001   -55.6890     0.0000     0.0000     0.0000     1.0000     5.0000   300.0000   -10.3230    40.9188     1.0010    -2.9998     9.0000    10.0000     5.0000    14.0000    16.0000     5.0000    10.0000    16.0000    -0.0005     0.0005   159.4164   -41.1662     2.7933    36.4501     2.0000     1.0000     4.9999     0.000
     34     1.4000     0.0000     1.4001    21.4994    14.7000     42.852     11.000 150721.000     60.000    42.5662   -20.0773   -25.8922   120.0962    -0.1480    -3.0001   -55.4813     0.0000     0.0000     0.0000     1.0000     5.0000   300.0000   -10.5495    41.1661     1.0010    -2.9998     9.0000    10.0000     5.0000    14.0000    16.0000     5.0000    10.0000    16.0000    -0.0005     0.0005   159.4164   -41.1662     2.7933    36.1994     2.0000     1.0000     4.9996     0.000
     35     1.4000     0.0000     1.4001    21.2500    14.7000     42.980      6.000 150721.000     60.000    42.7139   -20.0773   -25.9834   120.0962    -0.1480    -3.0001   -55.2730     0.0000     0.0000     0.0000     1.0000     5.0000   300.0000   -10.7756    41.4109     1.0010    -2.9998     9.0000    10.0000     5.0000    14.0000    16.0000     5.0000    10.0000    16.0000    -0.0005     0.0005   159.4164   -41.1662     2.7933    35.9500     2.0000     1.0000     5.0003     0.000
     36     1.4000     0.0000     1.4000    21.0006    14.7000     42.865      7.000 150721.000     60.000    42.8632   -20.0773   -26.0756   120.0962    -0.1480    -3.0001   -55.0642     0.0000     0.0000     0.0000     1.0000     5.0000   300.0000   -11.0013    41.6537     1.0010    -2.9998     9.0000    10.0000     5.0000    14.0000    16.0000     5.0000    10.0000    16.0000    -0.0005     0.0005   159.4164   -41.1662     2.7933    35.7006     2.0000     1.0000     4.9970     0.000
     37     1.4000     0.0000     1.4000    20.7495    14.7000     43.206     11.000 150721.000     60.000    43.0141   -20.0773   -26.1695   120.0962    -0.1480    -3.0001   -54.8546     0.0000     0.0000     0.0000     1.0000     5.0000   300.0000   -11.2266    41.8983     1.0010    -2.9998     9.0000    10.0000     5.0000    14.0000    16.0000     5.0000    10.0000    16.0000    -0.0005     0.0005   159.4164   -41.1662     2.7932    35.4495     2.0000     1.0000     4.9999     0.000
     38     1.4000     0.0000     1.4000    20.4997    14.7000     43.027      7.000 150721.000     60.000    43.1666   -20.0773   -26.2638   120.0962    -0.1480    -3.0001   -54.6446     0.0000     0.0000     0.0000     1.0000     5.0000   300.0000   -11.4519    42.1434     1.0010    -2.9998     9.0000    10.0000     5.0000    14.0000    16.0000     5.0000    10.0000    16.0000    -0.0005     0.0005   159.4164   -41.1662     2.7932    35.1997     2.0000     1.0000     5.0000     0.000
     39     1.4000     0.0000     1.4001    20.2504    14.7000     43.257      5.000 150721.000     60.000    43.3207   -20.0773   -26.3590   120.0962    -0.1480    -3.0001   -54.4338     0.0000     0.0000     0.0000     1.0000     5.0000   300.0000   -11.6762    42.3893     1.0010    -2.9998     9.0000    10.0000     5.0000    14.0000    16.0000     5.0000    10.0000    16.0000    -0.0005     0.0005   159.4164   -41.1662     2.7933    34.9504     2.0000     1.0000     4.9990     0.000
     40     1.4000     0.0000     1.4000    19.9996    14.7000     43.324      9.000 150721.000     60.000    43.4765   -20.0773   -26.4558   120.0962    -0.1480    -3.0001   -54.2224     0.0000     0.0000     0.0000     1.0000     5.0000   300.0000   -11.9008    42.6302     1.0010    -2.9998     9.0000    10.0000     5.0000    14.0000    16.0000     5.0000    10.0000    16.0000    -0.0005     0.0005   159.4164   -41.1662     2.7932    34.6996     2.0000     1.0000     5.0004     0.000
     41     1.4000     0.0000     1.4000    19.7502    14.7000     43.858     10.000 150721.000     60.000    43.6339   -20.0773   -26.5531   120.0962    -0.1480    -3.0001   -54.0105     0.0000     0.0000     0.0000     1.0000     5.0000   300.0000   -12.1246    42.8759     1.0010    -2.9998     9.0000    10.0000     5.0000    14.0000    16.0000     5.0000    10.0000    16.0000    -0.0005     0.0005   159.4164   -41.1662     2.7933    34.4502     2.0000     1.0000     4.9998     0.000
     42     1.4000     0.0000     1.4000    19.4999    14.7000     44.210      7.000 150721.000     60.000    43.7931   -20.0773   -26.6519   120.0962    -0.1480    -3.0001   -53.7978     0.0000     0.0000     0.0000     1.0000     5.0000   300.0000   -12.3488    43.1194     1.0010    -2.9998     9.0000    10.0000     5.0000    14.0000    16.0000     5.0000    10.0000    16.0000    -0.0005     0.0005   159.4164   -41.1662     2.7932    34.1999     2.0000     1.0000     5.0008     0.000
     43     1.4001     0.0000     1.4001    19.2499    14.7000     44.309      5.000 150721.000     60.000    43.9541   -20.0773   -26.7516   120.0962    -0.1480    -3.0001   -53.5845     0.0000     0.0000     0.0000     1.0000     5.0000   300.0000   -12.5720    43.3659     1.0010    -2.9998     9.0000    10.0000     5.0000    14.0000    16.0000     5.0000    10.0000    16.0000    -0.0005     0.0005   159.4164   -41.1662     2.7934    33.9499     2.0000     1.0000     5.0002     0.000
     44     1.4000     0.0000     1.4000    19.0003    14.7000     45.006     10.000 150721.000     60.000    44.1168   -20.0773   -26.8524   120.0962    -0.1480    -3.0001   -53.3706     0.0000     0.0000     0.0000     1.0000     5.0000   300.0000   -12.7954    43.6076     1.0010    -2.9998     9.0000    10.0000     5.0000    14.0000    16.0000     5.0000    10.0000    16.0000    -0.0005     0.0005   159.4164   -41.1662     2.7933    33.7003     2.0000     1.0000     5.0012     0.000
     45     1.4000     0.0000     1.4000    18.7494    14.7000     45.516      9.000 150721.000     60.000    44.2813   -20.0773   -26.9548   120.0962    -0.1480    -3.0001   -53.1560     0.0000     0.0000     0.0000     1.0000     5.0000   300.0000   -13.0184    43.8489     1.0010    -2.9998     9.0000    10.0000     5.0000    14.0000    16.0000     5.0000    10.0000    16.0000    -0.0005     0.0005   159.4164   -41.1662     2.7932    33.4494     2.0000     1.0000     4.9989     0.000
     46     1.4000     0.0000     1.4000    18.5001    14.7000     45.273     11.000 150721.000     60.000    44.4478   -20.0773   -27.0577   120.0962    -0.1480    -3.0001   -52.9407     0.0000     0.0000     0.0000     1.0000     5.0000   300.0000   -13.2410    44.0918     1.0010    -2.9998     9.0000    10.0000     5.0000    14.0000    16.0000     5.0000    10.0000    16.0000    -0.0005     0.0005   159.4164   -41.1662     2.7932    33.2001     2.0000     1.0000     4.9991     0.000
     47     1.4000     0.0000     1.4000    18.2503    14.7000     45.864      7.000 150721.000     60.000    44.6161   -20.0773   -27.1621   120.0962    -0.1480    -3.0001   -52.7248     0.0000     0.0000     0.0000     1.0000     5.0000   300.0000   -13.4639    44.3367     1.0010    -2.9998     9.0000    10.0000     5.0000    14.0000    16.0000     5.0000    10.0000    16.0000    -0.0005     0.0005   159.4164   -41.1662     2.7933    32.9503     2.0000     1.0000     5.0012     0.000
     48     1.4000     0.0000     1.4001    18.0001    14.7000     46.066      9.000 150721.000     60.000    44.7863   -20.0773   -27.2678   120.0962    -0.1480    -3.0001   -52.5081     0.0000     0.0000     0.0000     1.0000     5.0000   300.0000   -13.6859    44.5806     1.0010    -2.9998     9.0000    10.0000     5.0000    14.0000    16.0000     5.0000    10.0000    16.0000    -0.0005     0.0005   159.4164   -41.1662     2.7933    32.7001     2.0000     1.0000     5.0009     0.000
     49     1.4000     0.0000     1.4000    17.7503    14.7000     46.140      2.000 150721.000     60.000    44.9585   -20.0773   -27.3745   120.0962    -0.1480    -3.0001   -52.2908     0.0000     0.0000     0.0000     1.0000     5.0000   300.0000   -13.9083    44.8224     1.0010    -2.9998     9.0000    10.0000     5.0000    14.0000    16.0000     5.0000    10.0000    16.0000    -0.0005     0.0005   159.4164   -41.1662     2.7932    32.4504     2.0000     1.0000     5.0001     0.000
     50     1.4000     0.0000     1.4000    17.4998    14.7000     46.391      8.000 150721.000     60.000    45.1326   -20.0773   -27.4829   120.0962    -0.1480    -3.0001   -52.0728     0.0000     0.0000     0.0000     1.0000     5.0000   300.0000   -14.1301    45.0653     1.0010    -2.9998     9.0000    10.0000     5.0000    14.0000    16.0000     5.0000    10.0000    16.0000    -0.0005     0.0005   159.4164   -41.1662     2.7932    32.1999     2.0000     1.0000     5.0004     0.000
     51     1.4000     0.0000     1.4000    17.2500    14.7000     46.916      5.000 150721.000     60.000    45.3089   -20.0773   -27.5923   120.0962    -0.1480    -3.0001   -51.8540     0.0000     0.0000     0.0000     1.0000     5.0000   300.0000   -14.3521    45.3090     1.0010    -2.9998     9.0000    10.0000     5.0000    14.0000    16.0000     5.0000    10.0000    16.0000    -0.0005     0.0005   159.4164   -41.1662     2.7932    31.9500     2.0000     1.0000     4.9992     0.000
     52     1.4000     0.0000     1.4000    17.0001    14.7000     46.992      9.000 150721.000     60.000    45.4872   -20.0773   -27.7029   120.0962    -0.1480    -3.0001   -51.6345     0.0000     0.0000     0.0000     1.0000     5.0000   300.0000   -14.5740    45.5529     1.0010    -2.9998     9.0000    10.0000     5.0000    14.0000    16.0000     5.0000    10.0000    16.0000    -0.0005     0.0005   159.4164   -41.1662     2.7933    31.7001     2.0000     1.0000     4.9995     0.000
     53     1.4000     0.0000     1.4000    16.7498    14.7000     47.202      4.000 150721.000     60.000    45.6676   -20.0773   -27.8152   120.0962    -0.1480    -3.0001   -51.4143     0.0000     0.0000     0.0000     1.0000     5.0000   300.0000   -14.7951    45.7956     1.0010    -2.9998     9.0000    10.0000     5.0000    14.0000    16.0000     5.0000    10.0000    16.0000    -0.0005     0.0005   159.4164   -41.1662     2.7933    31.4498     2.0000     1.0000     4.9998     0.000
     54     1.4000     0.0000     1.4000    16.5003    14.7000     47.490      4.000 150721.000     60.000    45.8503   -20.0773   -27.9284   120.0962    -0.1480    -3.0001   -51.1934     0.0000     0.0000     0.0000     1.0000     5.0000   300.0000   -15.0166    46.0373     1.0010    -2.9998     9.0000    10.0000     5.0000    14.0000    16.0000     5.0000    10.0000    16.0000    -0.0005     0.0005   159.4164   -41.1662     2.7932    31.2003     2.0000     1.0000     4.9990     0.000
     55     1.4000     0.0000     1.4000    16.2499    14.7000     47.273      3.000 150721.000     60.000    46.0351   -20.0773   -28.0435   120.0962    -0.1480    -3.0001   -50.9717     0.0000     0.0000     0.0000     1.0000     5.0000   300.0000   -15.2383    46.2812     1.0010    -2.9998     9.0000    10.0000     5.0000    14.0000    16.0000     5.0000    10.0000    16.0000    -0.0005     0.0005   159.4164   -41.1662     2.7932    30.9499     2.0000     1.0000     4.9988     0.000
     56     1.4000     0.0000     1.4000    15.9998    14.7000     47.660      7.000 150721.000     60.000    46.2221   -20.0773   -28.1598   120.0962    -0.1480    -3.0001   -50.7492     0.0000     0.0000     0.0000     1.0000     5.0000   300.0000   -15.4594    46.5257     1.0010    -2.9998     9.0000    10.0000     5.0000    14.0000    16.0000     5.0000    10.0000    16.0000    -0.0005     0.0005   159.4164   -41.1662     2.7933    30.6998     2.0000     1.0000     5.0015     0.000
     57     1.4000     0.0000     1.4001    15.7503    14.7000     47.870      6.000 150721.000     60.000    46.4115   -20.0773   -28.2774   120.0962    -0.1480    -3.0001   -50.5260     0.0000     0.0000     0.0000     1.0000     5.0000   300.0000   -15.6803    46.7700     1.0010    -2.9998     9.0000    10.0000     5.0000    14.0000    16.0000     5.0000    10.0000    16.0000    -0.0005     0.0005   159.4164   -41.1662     2.7933    30.4503     2.0000     1.0000     4.9996     0.000
     58     1.4000     0.0000     1.4000    15.4999    14.7000     48.184      4.000 150721.000     60.000    46.6032   -20.0773   -28.3968   120.0962    -0.1480    -3.0001   -50.3021     0.0000     0.0000     0.0000     1.0000     5.0000   300.0000   -15.9016    47.0117     1.0010    -2.9998     9.0000    10.0000     5.0000    14.0000    16.0000     5.0000    10.0000    16.0000    -0.0005     0.0005   159.4164   -41.1662     2.7932    30.1999     2.0000     1.0000     5.0004     0.000
     59     1.4000     0.0000     1.4000    15.2502    14.7000     48.531      6.000 150721.000     60.000    46.7972   -20.0773   -28.5174   120.0962    -0.1480    -3.0001   -50.0773     0.0000     0.0000     0.0000     1.0000     5.0000   300.0000   -16.1225    47.2556     1.0010    -2.9998     9.0000    10.0000     5.0000    14.0000    16.0000     5.0000    10.0000    16.0000    -0.0005     0.0005   159.4164   -41.1662     2.7933    29.9502     2.0000     1.0000     4.9988     0.000
     60     1.4000     0.0000     1.4000    15.0000    14.7000     48.866      6.000 150721.000     60.000    46.9938   -20.0773   -28.6398   120.0962    -0.1480    -3.0001   -49.8518     0.0000     0.0000     0.0000     1.0000     5.0000   300.0000   -16.3439    47.4993     1.0010    -2.9998     9.0000    10.0000     5.0000    14.0000    16.0000     5.0000    10.0000    16.0000    -0.0005     0.0005   159.4164   -41.1662     2.7932    29.7000     2.0000     1.0000     4.9987     0.000
     61     1.4000     0.0000     1.4000    14.7499    14.7000     48.545      6.000 150721.000     60.000    47.1929   -20.0773   -28.7638   120.0962    -0.1480    -3.0001   -49.6254     0.0000     0.0000     0.0000     1.0000     5.0000   300.0000   -16.5645    47.7446     1.0010    -2.9998     9.0000    10.0000     5.0000    14.0000    16.0000     5.0000    10.0000    16.0000    -0.0005     0.0005   159.4164   -41.1662     2.7933    29.4500     2.0000     1.0000     5.0002     0.000
     62     1.4000     0.0000     1.4001    14.4998    14.7000     48.411      3.000 150721.000     60.000    47.3944   -20.0773   -28.8894   120.0962    -0.1480    -3.0001   -49.3982     0.0000     0.0000     0.0000     1.0000     5.0000   300.0000   -16.7853    47.9889     1.0010    -2.9998     9.0000    10.0000     5.0000    14.0000    16.0000     5.0000    10.0000    16.0000    -0.0005     0.0005   159.4164   -41.1662     2.7933    29.1998     2.0000     1.0000     4.9995     0.000
     63     1.4000     0.0000     1.4000    14.2506    14.7000     47.472      4.000 150721.000     60.000    47.5986   -20.0773   -29.0161   120.0962    -0.1480    -3.0001   -49.1702     0.0000     0.0000     0.0000     1.0000     5.0000   300.0000   -17.0065    48.2318     1.0010    -2.9998     9.0000    10.0000     5.0000    14.0000    16.0000     5.0000    10.0000    16.0000    -0.0005     0.0005   159.4164   -41.1662     2.7933    28.9507     2.0000     1.0000     5.0000     0.000
     64     1.4000     0.0000     1.4000    13.9994    14.7000     46.597      6.000 150721.000     60.000    47.8055   -20.0773   -29.1457   120.0962    -0.1480    -3.0001   -48.9414     0.0000     0.0000     0.0000     1.0000     5.0000   300.0000   -17.2274    48.4763     1.0010    -2.9998     9.0000    10.0000     5.0000    14.0000    16.0000     5.0000    10.0000    16.0000    -0.0005     0.0005   159.4164   -41.1662     2.7932    28.6994     2.0000     1.0000     4.9999     0.000
     65     1.4000     0.0000     1.4000    13.7502    14.7000     45.977      5.000 150721.000     60.000    48.0151   -20.0773   -29.2759   120.0962    -0.1480    -3.0001   -48.7117     0.0000     0.0000     0.0000     1.0000     5.0000   300.0000   -17.4486    48.7218     1.0010    -2.9998     9.0000    10.0000     5.0000    14.0000    16.0000     5.0000    10.0000    16.0000    -0.0005     0.0005   159.4164   -41.1662     2.7933    28.4502     2.0000     1.0000     5.0009     0.000
     66     1.4001     0.0000     1.4001    13.5003    14.7000     45.858      4.000 150721.000     60.000    48.2274   -20.0773   -29.4082   120.0962    -0.1480    -3.0001   -48.4811     0.0000     0.0000     0.0000     1.0000     5.0000   300.0000   -17.6694    48.9694     1.0010    -2.9998     9.0000    10.0000     5.0000    14.0000    16.0000     5.0000    10.0000    16.0000    -0.0005     0.0005   159.4164   -41.1662     2.7934    28.2003     2.0000     1.0000     5.0009     0.000
     67     1.4000     0.0000     1.4000    13.2497    14.7000     45.385      7.000 150721.000     60.000    48.4427   -20.0773   -29.5428   120.0962    -0.1480    -3.0001   -48.2497     0.0000     0.0000     0.0000     1.0000     5.0000   300.0000   -17.8905    49.2121     1.0010    -2.9998     9.0000    10.0000     5.0000    14.0000    16.0000     5.0000    10.0000    16.0000    -0.0005     0.0005   159.4164   -41.1662     2.7932    27.9497     2.0000     1.0000     4.9995     0.000
     68     1.4000     0.0000     1.4000    12.9999    14.7000     46.112      6.000 150721.000     60.000    48.6608   -20.0773   -29.6787   120.0962    -0.1480    -3.0001   -48.0174     0.0000     0.0000     0.0000     1.0000     5.0000   300.0000   -18.1115    49.4586     1.0010    -2.9998     9.0000    10.0000     5.0000    14.0000    16.0000     5.0000    10.0000    16.0000    -0.0005     0.0005   159.4164   -41.1662     2.7933    27.7000     2.0000     1.0000     4.9996     0.000
     69     1.4000     0.0000     1.4000    12.7500    14.7000     46.693      7.000 150721.000     60.000    48.8819   -20.0773   -29.8166   120.0962    -0.1480    -3.0001   -47.7842     0.0000     0.0000     0.0000     1.0000     5.0000   300.0000   -18.3329    49.7038     1.0010    -2.9998     9.0000    10.0000     5.0000    14.0000    16.0000     5.0000    10.0000    16.0000    -0.0005     0.0005   159.4164   -41.1662     2.7932    27.4500     2.0000     1.0000     4.9999     0.000
     70     1.4000     0.0000     1.4000    12.4999    14.7000     47.570      8.000 150721.000     60.000    49.1060   -20.0773   -29.9566   120.0962    -0.1480    -3.0001   -47.5501     0.0000     0.0000     0.0000     1.0000     5.0000   300.0000   -18.5544    49.9505     1.0010    -2.9998     9.0000    10.0000     5.0000    14.0000    16.0000     5.0000    10.0000    16.0000    -0.0005     0.0005   159.4164   -41.1662     2.7932    27.1999     2.0000     1.0000     5.0011     0.000
     71     1.4001     0.0000     1.4001    12.2503    14.7000     48.571      4.000 150721.000     60.000    49.3332   -20.0773   -30.0982   120.0962    -0.1480    -3.0001   -47.3151     0.0000     0.0000     0.0000     1.0000     5.0000   300.0000   -18.7752    50.1993     1.0010    -2.9998     9.0000    10.0000     5.0000    14.0000    16.0000     5.0000    10.0000    16.0000    -0.0005     0.0005   159.4164   -41.1662     2.7934    26.9504     2.0000     1.0000     4.9994     0.000
     72     1.4000     0.0000     1.4000    11.9997    14.7000     48.803      2.000 150721.000     60.000    49.5636   -20.0773   -30.2425   120.0962    -0.1480    -3.0001   -47.0791     0.0000     0.0000     0.0000     1.0000     5.0000   300.0000   -18.9969    50.4438     1.0010    -2.9998     9.0000    10.0000     5.0000    14.0000    16.0000     5.0000    10.0000    16.0000    -0.0005     0.0005   159.4164   -41.1662     2.7932    26.6997     2.0000     1.0000     5.0002     0.000
     73     1.4000     0.0000     1.4000    11.7499    14.7000     49.161      6.000 150721.000     60.000    49.7973   -20.0773   -30.3884   120.0962    -0.1480    -3.0001   -46.8422     0.0000     0.0000     0.0000     1.0000     5.0000   300.0000   -19.2189    50.6909     1.0010    -2.9998     9.0000    10.0000     5.0000    14.0000    16.0000     5.0000    10.0000    16.0000    -0.0005     0.0005   159.4164   -41.1662     2.7932    26.4499     2.0000     1.0000     5.0003     0.000
     74     1.4000     0.0000     1.4000    11.5002    14.7000     48.843      6.000 150721.000     60.000    50.0343   -20.0773   -30.5364   120.0962    -0.1480    -3.0001   -46.6044     0.0000     0.0000     0.0000     1.0000     5.0000   300.0000   -19.4401    50.9397     1.0010    -2.9998     9.0000    10.0000     5.0000    14.0000    16.0000     5.0000    10.0000    16.0000    -0.0005     0.0005   159.4164   -41.1662     2.7932    26.2002     2.0000     1.0000     4.9989     0.000
     75     1.4001     0.0000     1.4000    11.2501    14.7000     48.461     11.000 150721.000     60.000    50.2748   -20.0773   -30.6868   120.0962    -0.1480    -3.0001   -46.3655     0.0000     0.0000     0.0000     1.0000     5.0000   300.0000   -19.6623    51.1905     1.0010    -2.9998     9.0000    10.0000     5.0000    14.0000    16.0000     5.0000    10.0000    16.0000    -0.0005     0.0005   159.4164   -41.1662     2.7934    25.9501     2.0000     1.0000     4.9998     0.000
     76     1.4000     0.0000     1.4000    10.9999    14.7000     48.376      2.000 150721.000     60.000    50.5187   -20.0773   -30.8395   120.0962    -0.1480    -3.0001   -46.1257     0.0000     0.0000     0.0000     1.0000     5.0000   300.0000   -19.8845    51.4367     1.0010    -2.9998     9.0000    10.0000     5.0000    14.0000    16.0000     5.0000    10.0000    16.0000    -0.0005     0.0005   159.4164   -41.1662     2.7932    25.6999     2.0000     1.0000     5.0004     0.000
     77     1.4000     0.0000     1.4000    10.7500    14.7000     48.072      3.000 150721.000     60.000    50.7662   -20.0773   -30.9943   120.0962    -0.1480    -3.0001   -45.8849     0.0000     0.0000     0.0000     1.0000     5.0000   300.0000   -20.1065    51.6861     1.0010    -2.9998     9.0000    10.0000     5.0000    14.0000    16.0000     5.0000    10.0000    16.0000    -0.0005     0.0005   159.4164   -41.1662     2.7932    25.4500     2.0000     1.0000     4.9992     0.000
     78     1.4000     0.0000     1.4000    10.5001    14.7000     47.966      3.000 150721.000     60.000    51.0174   -20.0773   -31.1515   120.0962    -0.1480    -3.0001   -45.6430     0.0000     0.0000     0.0000     1.0000     5.0000   300.0000   -20.3294    51.9373     1.0010    -2.9998     9.0000    10.0000     5.0000    14.0000    16.0000     5.0000    10.0000    16.0000    -0.0005     0.0005   159.4164   -41.1662     2.7933    25.2001     2.0000     1.0000     4.9991     0.000
     79     1.4001     0.0000     1.4001    10.2502    14.7000     48.391      2.000 150721.000     60.000    51.2724   -20.0773   -31.3111   120.0962    -0.1480    -3.0001   -45.4002     0.0000     0.0000     0.0000     1.0000     5.0000   300.0000   -20.5516    52.1891     1.0010    -2.9998     9.0000    10.0000     5.0000    14.0000    16.0000     5.0000    10.0000    16.0000    -0.0005     0.0005   159.4164   -41.1662     2.7934    24.9502     2.0000     1.0000     4.9994     0.000
     80     1.4000     0.0000     1.4000    10.0000    14.7000     48.583      9.000 150721.000     60.000    51.5312   -20.0773   -31.4734   120.0962    -0.1480    -3.0001   -45.1562     0.0000     0.0000     0.0000     1.0000     5.0000   300.0000   -20.7748    52.4363     1.0010    -2.9998     9.0000    10.0000     5.0000    14.0000    16.0000     5.0000    10.0000    16.0000    -0.0005     0.0005   159.4164   -41.1662     2.7932    24.7000     2.0000     1.0000     5.0004     0.000
     81     1.4000     0.0000     1.4000     9.7497    14.7000     49.672      5.000 150721.000     60.000    51.7940   -20.0773   -31.6383   120.0962    -0.1480    -3.0001   -44.9112     0.0000     0.0000     0.0000     1.0000     5.0000   300.0000   -20.9976    52.6885     1.0010    -2.9998     9.0000    10.0000     5.0000    14.0000    16.0000     5.0000    10.0000    16.0000    -0.0005     0.0005   159.4164   -41.1662     2.7932    24.4497     2.0000     1.0000     4.9995     0.000
     82     1.4000     0.0000     1.4000     9.4997    14.7000     50.625      3.000 150721.000     60.000    52.0609   -20.0773   -31.8056   120.0962    -0.1480    -3.0001   -44.6652     0.0000     0.0000     0.0000     1.0000     5.0000   300.0000   -21.2213    52.9407     1.0010    -2.9998     9.0000    10.0000     5.0000    14.0000    16.0000     5.0000    10.0000    16.0000    -0.0005     0.0005   159.4164   -41.1662     2.7932    24.1997     2.0000     1.0000     5.0000     0.000
     83     1.4001     0.0000     1.4000     9.2504    14.7000     51.124      9.000 150721.000     60.000    52.3319   -20.0773   -31.9751   120.0962    -0.1480    -3.0001   -44.4180     0.0000     0.0000     0.0000     1.0000     5.0000   300.0000   -21.4447    53.1958     1.0010    -2.9998     9.0000    10.0000     5.0000    14.0000    16.0000     5.0000    10.0000    16.0000    -0.0005     0.0005   159.4164   -41.1662     2.7934    23.9504     2.0000     1.0000     5.0011     0.000
     84     1.4000     0.0000     1.4000     9.0000    14.7000     50.671     11.000 150721.000     60.000    52.6071   -20.0773   -32.1481   120.0962    -0.1480    -3.0001   -44.1697     0.0000     0.0000     0.0000     1.0000     5.0000   300.0000   -21.6690    53.4468     1.0010    -2.9998     9.0000    10.0000     5.0000    14.0000    16.0000     5.0000    10.0000    16.0000    -0.0005     0.0005   159.4164   -41.1662     2.7932    23.7000     2.0000     1.0000     5.0003     0.000
# Sum of Counts = 533
# Center of Mass = 19.627577+/-1.228404
# Full Width Half-Maximum = 11.627729+/-0.519565
# 2:27:45 AM  9/11/2024   scan completed.
