# scan = 30
# date = 9/9/2024
# time = 5:16:26 PM
# proposal = 34735
# experiment = Magnons and paramagnon coupling in MnTe
# experiment_number = 813
# command = scanrel s1 2 -2 0.2
# builtin_command = scan s1 @(s1)+2 @(s1)+-2 0.200000
# users = Benjamin Frandsen, Songxue Chi, George Yumnam, Huibo Cao, Michael Manley, Raphael Hermann, Eleanor Clements
# local_contact = Eleanor Clements
# scan_title = slit scan with (100)
# monochromator = PG002
# analyzer = Pg002
# sense = -+-
# collimation = 48-40-40-120
# samplename = MnTe
# sampletype = crystal
# samplemosaic = 30.000000
# latticeconstants = 4.128474,4.128474,6.651507,90.000000,90.000000,120.000000
# ubmatrix = -0.000328,-0.004396,-0.150319,-0.279308,-0.152332,0.000314,-0.014647,0.234528,-0.002614
# mode = 0
# plane_normal = -0.017470,-0.052341,0.998476
# ubconf = UB09Sep2024_43441PM.ini
# preset_type = normal 
# preset_channel = time
# preset_value = 1.000000
# def_x = s1
# def_y = detector
# col_headers = 
#   Pt.         s1       time   detector    monitor        mcu focal_length         m1         m2   mcrystal       marc     mtrans     mfocus       ampl         dc       freq     output       temp     temp_2         s2        sgl        sgu        bbb        bbl        bbr        bbt        bab        bal        bar        bat        stl        stu         a1         a2          q          h          k          l         ei         ef          e   ampl_out output_state        vti     sample
      1    12.2814      1.000    140.000   2456.000      0.379    66.7975   -20.0773   -41.1657   120.0962    -0.1480    -3.0001   -34.2897     0.0000     0.0000     0.0000     1.0000     5.0000   300.0000    20.4253     1.0010    -2.9998     9.0000    10.0000     5.0000    14.0000    16.0000     5.0000    10.0000    16.0000    -0.0005     0.0005   159.4164   -41.1662     0.9445    -0.0188    -0.0000     0.9992    14.7003    14.7000     0.0003     2.0000     1.0000     5.0002     0.000
      2    12.0814      1.000    162.000   2523.000      0.390    66.7975   -20.0773   -41.1657   120.0962    -0.1480    -3.0001   -34.2897     0.0000     0.0000     0.0000     1.0000     5.0000   300.0000    20.4253     1.0010    -2.9998     9.0000    10.0000     5.0000    14.0000    16.0000     5.0000    10.0000    16.0000    -0.0005     0.0005   159.4164   -41.1662     0.9445    -0.0169    -0.0000     0.9994    14.7003    14.7000     0.0003     2.0000     1.0000     5.0003     0.000
      3    11.8810      1.000    187.000   2524.000      0.390    66.7975   -20.0773   -41.1657   120.0962    -0.1480    -3.0001   -34.2897     0.0000     0.0000     0.0000     1.0000     5.0000   300.0000    20.4253     1.0010    -2.9998     9.0000    10.0000     5.0000    14.0000    16.0000     5.0000    10.0000    16.0000    -0.0005     0.0005   159.4164   -41.1662     0.9445    -0.0150    -0.0000     0.9995    14.7003    14.7000     0.0003     2.0000     1.0000     4.9999     0.000
      4    11.6818      1.000    222.000   2533.000      0.391    66.7975   -20.0773   -41.1657   120.0962    -0.1480    -3.0001   -34.2897     0.0000     0.0000     0.0000     1.0000     5.0000   300.0000    20.4253     1.0010    -2.9998     9.0000    10.0000     5.0000    14.0000    16.0000     5.0000    10.0000    16.0000    -0.0005     0.0005   159.4164   -41.1662     0.9445    -0.0131    -0.0000     0.9996    14.7003    14.7000     0.0003     2.0000     1.0000     5.0012     0.000
      5    11.4817      1.000    262.000   2552.000      0.394    66.7975   -20.0773   -41.1657   120.0962    -0.1480    -3.0001   -34.2897     0.0000     0.0000     0.0000     1.0000     5.0000   300.0000    20.4253     1.0010    -2.9998     9.0000    10.0000     5.0000    14.0000    16.0000     5.0000    10.0000    16.0000    -0.0005     0.0005   159.4164   -41.1662     0.9445    -0.0113    -0.0000     0.9996    14.7003    14.7000     0.0003     2.0000     1.0000     4.9999     0.000
      6    11.2818      1.000    357.000   2444.000      0.377    66.7975   -20.0773   -41.1657   120.0962    -0.1480    -3.0001   -34.2897     0.0000     0.0000     0.0000     1.0000     5.0000   300.0000    20.4253     1.0010    -2.9998     9.0000    10.0000     5.0000    14.0000    16.0000     5.0000    10.0000    16.0000    -0.0005     0.0005   159.4164   -41.1662     0.9445    -0.0094    -0.0000     0.9997    14.7003    14.7000     0.0003     2.0000     1.0000     5.0007     0.000
      7    11.0814      1.000    681.000   2502.000      0.386    66.7975   -20.0773   -41.1657   120.0962    -0.1480    -3.0001   -34.2897     0.0000     0.0000     0.0000     1.0000     5.0000   300.0000    20.4253     1.0010    -2.9998     9.0000    10.0000     5.0000    14.0000    16.0000     5.0000    10.0000    16.0000    -0.0005     0.0005   159.4164   -41.1662     0.9445    -0.0075    -0.0000     0.9998    14.7003    14.7000     0.0003     2.0000     1.0000     5.0000     0.000
      8    10.8814      1.000   2924.000   2477.000      0.382    66.7975   -20.0773   -41.1657   120.0962    -0.1480    -3.0001   -34.2897     0.0000     0.0000     0.0000     1.0000     5.0000   300.0000    20.4253     1.0010    -2.9998     9.0000    10.0000     5.0000    14.0000    16.0000     5.0000    10.0000    16.0000    -0.0005     0.0005   159.4164   -41.1662     0.9445    -0.0056    -0.0000     0.9998    14.7003    14.7000     0.0003     2.0000     1.0000     4.9994     0.000
      9    10.6818      1.000  13606.000   2537.000      0.392    66.7975   -20.0773   -41.1657   120.0962    -0.1480    -3.0001   -34.2897     0.0000     0.0000     0.0000     1.0000     5.0000   300.0000    20.4253     1.0010    -2.9998     9.0000    10.0000     5.0000    14.0000    16.0000     5.0000    10.0000    16.0000    -0.0005     0.0005   159.4164   -41.1662     0.9445    -0.0038    -0.0000     0.9998    14.7003    14.7000     0.0003     2.0000     1.0000     5.0015     0.000
     10    10.4817      1.000  26393.000   2559.000      0.395    66.7975   -20.0773   -41.1657   120.0962    -0.1480    -3.0001   -34.2897     0.0000     0.0000     0.0000     1.0000     5.0000   300.0000    20.4253     1.0010    -2.9998     9.0000    10.0000     5.0000    14.0000    16.0000     5.0000    10.0000    16.0000    -0.0005     0.0005   159.4164   -41.1662     0.9445    -0.0019    -0.0000     0.9998    14.7003    14.7000     0.0003     2.0000     1.0000     5.0003     0.000
     11    10.2818      1.000  28006.000   2457.000      0.379    66.7975   -20.0773   -41.1657   120.0962    -0.1480    -3.0001   -34.2897     0.0000     0.0000     0.0000     1.0000     5.0000   300.0000    20.4253     1.0010    -2.9998     9.0000    10.0000     5.0000    14.0000    16.0000     5.0000    10.0000    16.0000    -0.0005     0.0005   159.4164   -41.1662     0.9445    -0.0000    -0.0000     0.9999    14.7003    14.7000     0.0003     2.0000     1.0000     5.0006     0.000
     12    10.0817      1.000  20245.000   2535.000      0.391    66.7975   -20.0773   -41.1657   120.0962    -0.1480    -3.0001   -34.2897     0.0000     0.0000     0.0000     1.0000     5.0000   300.0000    20.4253     1.0010    -2.9998     9.0000    10.0000     5.0000    14.0000    16.0000     5.0000    10.0000    16.0000    -0.0005     0.0005   159.4164   -41.1662     0.9445     0.0019     0.0000     0.9998    14.7003    14.7000     0.0003     2.0000     1.0000     4.9997     0.000
     13     9.8812      1.000  11801.000   2522.000      0.389    66.7975   -20.0773   -41.1657   120.0962    -0.1480    -3.0001   -34.2897     0.0000     0.0000     0.0000     1.0000     5.0000   300.0000    20.4253     1.0010    -2.9998     9.0000    10.0000     5.0000    14.0000    16.0000     5.0000    10.0000    16.0000    -0.0005     0.0005   159.4164   -41.1662     0.9445     0.0038     0.0000     0.9998    14.7003    14.7000     0.0003     2.0000     1.0000     5.0006     0.000
     14     9.6814      1.000   6645.000   2474.000      0.382    66.7975   -20.0773   -41.1657   120.0962    -0.1480    -3.0001   -34.2897     0.0000     0.0000     0.0000     1.0000     5.0000   300.0000    20.4253     1.0010    -2.9998     9.0000    10.0000     5.0000    14.0000    16.0000     5.0000    10.0000    16.0000    -0.0005     0.0005   159.4164   -41.1662     0.9445     0.0056     0.0000     0.9998    14.7003    14.7000     0.0003     2.0000     1.0000     5.0010     0.000
     15     9.4815      1.000   5234.000   2515.000      0.388    66.7975   -20.0773   -41.1657   120.0962    -0.1480    -3.0001   -34.2897     0.0000     0.0000     0.0000     1.0000     5.0000   300.0000    20.4253     1.0010    -2.9998     9.0000    10.0000     5.0000    14.0000    16.0000     5.0000    10.0000    16.0000    -0.0005     0.0005   159.4164   -41.1662     0.9445     0.0075     0.0000     0.9998    14.7003    14.7000     0.0003     2.0000     1.0000     5.0005     0.000
     16     9.2818      1.000   4682.000   2471.000      0.382    66.7975   -20.0773   -41.1657   120.0962    -0.1480    -3.0001   -34.2897     0.0000     0.0000     0.0000     1.0000     5.0000   300.0000    20.4253     1.0010    -2.9998     9.0000    10.0000     5.0000    14.0000    16.0000     5.0000    10.0000    16.0000    -0.0005     0.0005   159.4164   -41.1662     0.9445     0.0094     0.0000     0.9997    14.7003    14.7000     0.0003     2.0000     1.0000     5.0004     0.000
     17     9.0817      1.000   3442.000   2522.000      0.389    66.7975   -20.0773   -41.1657   120.0962    -0.1480    -3.0001   -34.2897     0.0000     0.0000     0.0000     1.0000     5.0000   300.0000    20.4253     1.0010    -2.9998     9.0000    10.0000     5.0000    14.0000    16.0000     5.0000    10.0000    16.0000    -0.0005     0.0005   159.4164   -41.1662     0.9445     0.0113     0.0000     0.9996    14.7003    14.7000     0.0003     2.0000     1.0000     4.9998     0.000
     18     8.8818      1.000   2169.000   2521.000      0.389    66.7975   -20.0773   -41.1657   120.0962    -0.1480    -3.0001   -34.2897     0.0000     0.0000     0.0000     1.0000     5.0000   300.0000    20.4253     1.0010    -2.9998     9.0000    10.0000     5.0000    14.0000    16.0000     5.0000    10.0000    16.0000    -0.0005     0.0005   159.4164   -41.1662     0.9445     0.0131     0.0000     0.9996    14.7003    14.7000     0.0003     2.0000     1.0000     5.0002     0.000
     19     8.6814      1.000   2800.000   2484.000      0.384    66.7975   -20.0773   -41.1657   120.0962    -0.1480    -3.0001   -34.2897     0.0000     0.0000     0.0000     1.0000     5.0000   300.0000    20.4253     1.0010    -2.9998     9.0000    10.0000     5.0000    14.0000    16.0000     5.0000    10.0000    16.0000    -0.0005     0.0005   159.4164   -41.1662     0.9445     0.0150     0.0000     0.9995    14.7003    14.7000     0.0003     2.0000     1.0000     5.0004     0.000
     20     8.4814      1.000   3941.000   2491.000      0.385    66.7975   -20.0773   -41.1657   120.0962    -0.1480    -3.0001   -34.2897     0.0000     0.0000     0.0000     1.0000     5.0000   300.0000    20.4253     1.0010    -2.9998     9.0000    10.0000     5.0000    14.0000    16.0000     5.0000    10.0000    16.0000    -0.0005     0.0005   159.4164   -41.1662     0.9445     0.0169     0.0000     0.9994    14.7003    14.7000     0.0003     2.0000     1.0000     4.9993     0.000
     21     8.2814      1.000   2961.000   2510.000      0.388    66.7975   -20.0773   -41.1657   120.0962    -0.1480    -3.0001   -34.2897     0.0000     0.0000     0.0000     1.0000     5.0000   300.0000    20.4253     1.0010    -2.9998     9.0000    10.0000     5.0000    14.0000    16.0000     5.0000    10.0000    16.0000    -0.0005     0.0005   159.4164   -41.1662     0.9445     0.0188     0.0000     0.9992    14.7003    14.7000     0.0003     2.0000     1.0000     5.0001     0.000
# Sum of Counts = 136860
# Center of Mass = 10.052097+/-0.038464
# Full Width Half-Maximum = 1.260543+/-0.017833
# 5:17:58 PM  9/9/2024   scan completed.
