# scan = 46
# date = 9/10/2024
# time = 1:48:38 AM
# proposal = 34735
# experiment = Magnons and paramagnon coupling in MnTe
# experiment_number = 813
# command = scan h 1.2 k 0.0 l 1.2 e 35 5 0.25 ef 14.7 preset mcu 60
# builtin_command = scan h 1.2 k 0.0 l 1.2 e 35 5 0.25 ef 14.7 preset mcu 60
# users = Benjamin Frandsen, Songxue Chi, George Yumnam, Huibo Cao, Michael Manley, Raphael Hermann, Eleanor Clements
# local_contact = Eleanor Clements
# scan_title = H0L scans along (101) to (1.5, 0, 1.5) at H/L = 1.2, mcu = 60
# monochromator = PG002
# analyzer = Pg002
# sense = -+-
# collimation = 48-40-40-120
# samplename = MnTe
# sampletype = crystal
# samplemosaic = 30.000000
# latticeconstants = 4.128474,4.128474,6.651507,90.000000,90.000000,120.000000
# ubmatrix = -0.000328,-0.004396,-0.150319,-0.279308,-0.152332,0.000314,-0.014647,0.234528,-0.002614
# mode = 0
# plane_normal = -0.017470,-0.052341,0.998476
# ubconf = UB09Sep2024_43441PM.ini
# preset_type = normal 
# preset_channel = mcu
# preset_value = 60.000000
# def_x = e
# def_y = detector
# col_headers = 
#   Pt.          h          k          l          e         ef       time   detector    monitor        mcu focal_length         m1         m2   mcrystal       marc     mtrans     mfocus       ampl         dc       freq     output       temp     temp_2         s1         s2        sgl        sgu        bbb        bbl        bbr        bbt        bab        bal        bar        bat        stl        stu         a1         a2          q         ei   ampl_out output_state        vti     sample
      1     1.2001     0.0000     1.1998    35.0032    14.7000     49.686      8.000 150721.000     60.000    36.3279   -20.0773   -22.0449   120.0962    -0.1480    -3.0001   -65.9790     0.0000     0.0000     0.0000     1.0000     5.0000   300.0000    13.0580    13.6875     1.0010    -2.9998     9.0000    10.0000     5.0000    14.0000    16.0000     5.0000    10.0000    16.0000    -0.0005     0.0005   159.4164   -41.1662     2.3942    49.7032     2.0000     1.0000     4.9993     0.000
      2     1.2000     0.0000     1.2001    34.7502    14.7000     48.728      7.000 150721.000     60.000    36.4196   -20.0773   -22.1019   120.0962    -0.1480    -3.0001   -65.7959     0.0000     0.0000     0.0000     1.0000     5.0000   300.0000    12.4759    14.2137     1.0010    -2.9998     9.0000    10.0000     5.0000    14.0000    16.0000     5.0000    10.0000    16.0000    -0.0005     0.0005   159.4164   -41.1662     2.3942    49.4502     2.0000     1.0000     4.9986     0.000
      3     1.2000     0.0000     1.2001    34.5003    14.7000     48.206     17.000 150721.000     60.000    36.5121   -20.0773   -22.1587   120.0962    -0.1480    -3.0001   -65.6125     0.0000     0.0000     0.0000     1.0000     5.0000   300.0000    11.9135    14.7149     1.0010    -2.9998     9.0000    10.0000     5.0000    14.0000    16.0000     5.0000    10.0000    16.0000    -0.0005     0.0005   159.4164   -41.1662     2.3942    49.2003     2.0000     1.0000     4.9990     0.000
      4     1.2000     0.0000     1.2002    34.2489    14.7000     47.515      7.000 150721.000     60.000    36.6052   -20.0773   -22.2162   120.0962    -0.1480    -3.0001   -65.4288     0.0000     0.0000     0.0000     1.0000     5.0000   300.0000    11.3666    15.2046     1.0010    -2.9998     9.0000    10.0000     5.0000    14.0000    16.0000     5.0000    10.0000    16.0000    -0.0005     0.0005   159.4164   -41.1662     2.3942    48.9489     2.0000     1.0000     4.9992     0.000
      5     1.2000     0.0000     1.1999    33.9997    14.7000     47.311     13.000 150721.000     60.000    36.6990   -20.0773   -22.2737   120.0962    -0.1480    -3.0001   -65.2446     0.0000     0.0000     0.0000     1.0000     5.0000   300.0000    10.8358    15.6727     1.0010    -2.9998     9.0000    10.0000     5.0000    14.0000    16.0000     5.0000    10.0000    16.0000    -0.0005     0.0005   159.4164   -41.1662     2.3941    48.6997     2.0000     1.0000     5.0001     0.000
      6     1.2000     0.0000     1.2001    33.7509    14.7000     46.670      6.000 150721.000     60.000    36.7936   -20.0773   -22.3316   120.0962    -0.1480    -3.0001   -65.0601     0.0000     0.0000     0.0000     1.0000     5.0000   300.0000    10.3185    16.1371     1.0010    -2.9998     9.0000    10.0000     5.0000    14.0000    16.0000     5.0000    10.0000    16.0000    -0.0005     0.0005   159.4164   -41.1662     2.3943    48.4509     2.0000     1.0000     5.0008     0.000
      7     1.2000     0.0000     1.2001    33.5002    14.7000     46.292     11.000 150721.000     60.000    36.8889   -20.0773   -22.3903   120.0962    -0.1480    -3.0001   -64.8752     0.0000     0.0000     0.0000     1.0000     5.0000   300.0000     9.8135    16.5857     1.0010    -2.9998     9.0000    10.0000     5.0000    14.0000    16.0000     5.0000    10.0000    16.0000    -0.0005     0.0005   159.4164   -41.1662     2.3942    48.2002     2.0000     1.0000     4.9993     0.000
      8     1.2000     0.0000     1.2001    33.2499    14.7000     46.020     11.000 150721.000     60.000    36.9849   -20.0773   -22.4494   120.0962    -0.1480    -3.0001   -64.6899     0.0000     0.0000     0.0000     1.0000     5.0000   300.0000     9.3201    17.0233     1.0010    -2.9998     9.0000    10.0000     5.0000    14.0000    16.0000     5.0000    10.0000    16.0000    -0.0005     0.0005   159.4164   -41.1662     2.3942    47.9499     2.0000     1.0000     5.0004     0.000
      9     1.2000     0.0000     1.1999    32.9999    14.7000     46.007     11.000 150721.000     60.000    37.0817   -20.0773   -22.5090   120.0962    -0.1480    -3.0001   -64.5042     0.0000     0.0000     0.0000     1.0000     5.0000   300.0000     8.8374    17.4499     1.0010    -2.9998     9.0000    10.0000     5.0000    14.0000    16.0000     5.0000    10.0000    16.0000    -0.0005     0.0005   159.4164   -41.1662     2.3941    47.6999     2.0000     1.0000     4.9993     0.000
     10     1.2000     0.0000     1.2000    32.7489    14.7000     45.574     22.000 150721.000     60.000    37.1793   -20.0773   -22.5692   120.0962    -0.1480    -3.0001   -64.3182     0.0000     0.0000     0.0000     1.0000     5.0000   300.0000     8.3645    17.8712     1.0010    -2.9998     9.0000    10.0000     5.0000    14.0000    16.0000     5.0000    10.0000    16.0000    -0.0005     0.0005   159.4164   -41.1662     2.3941    47.4489     2.0000     1.0000     4.9993     0.000
     11     1.2000     0.0000     1.2001    32.5010    14.7000     45.792     14.000 150721.000     60.000    37.2776   -20.0773   -22.6292   120.0962    -0.1480    -3.0001   -64.1317     0.0000     0.0000     0.0000     1.0000     5.0000   300.0000     7.9008    18.2838     1.0010    -2.9998     9.0000    10.0000     5.0000    14.0000    16.0000     5.0000    10.0000    16.0000    -0.0005     0.0005   159.4164   -41.1662     2.3943    47.2010     2.0000     1.0000     5.0003     0.000
     12     1.2000     0.0000     1.2001    32.2499    14.7000     45.505     17.000 150721.000     60.000    37.3767   -20.0773   -22.6904   120.0962    -0.1480    -3.0001   -63.9448     0.0000     0.0000     0.0000     1.0000     5.0000   300.0000     7.4458    18.6873     1.0010    -2.9998     9.0000    10.0000     5.0000    14.0000    16.0000     5.0000    10.0000    16.0000    -0.0005     0.0005   159.4164   -41.1662     2.3942    46.9499     2.0000     1.0000     5.0002     0.000
     13     1.2000     0.0000     1.2001    31.9998    14.7000     45.418     17.000 150721.000     60.000    37.4766   -20.0773   -22.7519   120.0962    -0.1480    -3.0001   -63.7576     0.0000     0.0000     0.0000     1.0000     5.0000   300.0000     6.9990    19.0838     1.0010    -2.9998     9.0000    10.0000     5.0000    14.0000    16.0000     5.0000    10.0000    16.0000    -0.0005     0.0005   159.4164   -41.1662     2.3942    46.6998     2.0000     1.0000     4.9986     0.000
     14     1.2000     0.0000     1.2000    31.7500    14.7000     45.347     13.000 150721.000     60.000    37.5773   -20.0773   -22.8138   120.0962    -0.1480    -3.0001   -63.5699     0.0000     0.0000     0.0000     1.0000     5.0000   300.0000     6.5591    19.4714     1.0010    -2.9998     9.0000    10.0000     5.0000    14.0000    16.0000     5.0000    10.0000    16.0000    -0.0005     0.0005   159.4164   -41.1662     2.3942    46.4500     2.0000     1.0000     4.9999     0.000
     15     1.2000     0.0000     1.1999    31.5003    14.7000     45.266     14.000 150721.000     60.000    37.6789   -20.0773   -22.8762   120.0962    -0.1480    -3.0001   -63.3819     0.0000     0.0000     0.0000     1.0000     5.0000   300.0000     6.1260    19.8533     1.0010    -2.9998     9.0000    10.0000     5.0000    14.0000    16.0000     5.0000    10.0000    16.0000    -0.0005     0.0005   159.4164   -41.1662     2.3941    46.2003     2.0000     1.0000     5.0000     0.000
     16     1.2000     0.0000     1.2000    31.2498    14.7000     45.364     19.000 150721.000     60.000    37.7812   -20.0773   -22.9393   120.0962    -0.1480    -3.0001   -63.1934     0.0000     0.0000     0.0000     1.0000     5.0000   300.0000     5.7004    20.2310     1.0010    -2.9998     9.0000    10.0000     5.0000    14.0000    16.0000     5.0000    10.0000    16.0000    -0.0005     0.0005   159.4164   -41.1662     2.3941    45.9498     2.0000     1.0000     5.0011     0.000
     17     1.2000     0.0000     1.2002    30.9992    14.7000     44.932      9.000 150721.000     60.000    37.8844   -20.0773   -23.0030   120.0962    -0.1480    -3.0001   -63.0045     0.0000     0.0000     0.0000     1.0000     5.0000   300.0000     5.2805    20.6064     1.0010    -2.9998     9.0000    10.0000     5.0000    14.0000    16.0000     5.0000    10.0000    16.0000    -0.0005     0.0005   159.4164   -41.1662     2.3943    45.6992     2.0000     1.0000     5.0012     0.000
     18     1.2000     0.0000     1.2001    30.7507    14.7000     44.671     10.000 150721.000     60.000    37.9885   -20.0773   -23.0667   120.0962    -0.1480    -3.0001   -62.8152     0.0000     0.0000     0.0000     1.0000     5.0000   300.0000     4.8664    20.9716     1.0010    -2.9998     9.0000    10.0000     5.0000    14.0000    16.0000     5.0000    10.0000    16.0000    -0.0005     0.0005   159.4164   -41.1662     2.3943    45.4507     2.0000     1.0000     5.0002     0.000
     19     1.2000     0.0000     1.2001    30.4997    14.7000     44.464     17.000 150721.000     60.000    38.0934   -20.0773   -23.1315   120.0962    -0.1480    -3.0001   -62.6255     0.0000     0.0000     0.0000     1.0000     5.0000   300.0000     4.4583    21.3318     1.0010    -2.9998     9.0000    10.0000     5.0000    14.0000    16.0000     5.0000    10.0000    16.0000    -0.0005     0.0005   159.4164   -41.1662     2.3943    45.1997     2.0000     1.0000     4.9998     0.000
     20     1.2000     0.0000     1.2000    30.2508    14.7000     44.124     17.000 150721.000     60.000    38.1992   -20.0773   -23.1963   120.0962    -0.1480    -3.0001   -62.4354     0.0000     0.0000     0.0000     1.0000     5.0000   300.0000     4.0549    21.6851     1.0010    -2.9998     9.0000    10.0000     5.0000    14.0000    16.0000     5.0000    10.0000    16.0000    -0.0005     0.0005   159.4164   -41.1662     2.3942    44.9509     2.0000     1.0000     5.0009     0.000
     21     1.2000     0.0000     1.2000    29.9995    14.7000     43.994     14.000 150721.000     60.000    38.3059   -20.0773   -23.2624   120.0962    -0.1480    -3.0001   -62.2448     0.0000     0.0000     0.0000     1.0000     5.0000   300.0000     3.6562    22.0353     1.0010    -2.9998     9.0000    10.0000     5.0000    14.0000    16.0000     5.0000    10.0000    16.0000    -0.0005     0.0005   159.4164   -41.1662     2.3941    44.6995     2.0000     1.0000     4.9988     0.000
     22     1.2000     0.0000     1.2001    29.7493    14.7000     43.796     13.000 150721.000     60.000    38.4134   -20.0773   -23.3286   120.0962    -0.1480    -3.0001   -62.0538     0.0000     0.0000     0.0000     1.0000     5.0000   300.0000     3.2631    22.3846     1.0010    -2.9998     9.0000    10.0000     5.0000    14.0000    16.0000     5.0000    10.0000    16.0000    -0.0005     0.0005   159.4164   -41.1662     2.3942    44.4493     2.0000     1.0000     4.9989     0.000
     23     1.2000     0.0000     1.2001    29.5002    14.7000     43.473     18.000 150721.000     60.000    38.5219   -20.0773   -23.3952   120.0962    -0.1480    -3.0001   -61.8623     0.0000     0.0000     0.0000     1.0000     5.0000   300.0000     2.8740    22.7261     1.0010    -2.9998     9.0000    10.0000     5.0000    14.0000    16.0000     5.0000    10.0000    16.0000    -0.0005     0.0005   159.4164   -41.1662     2.3942    44.2002     2.0000     1.0000     5.0009     0.000
     24     1.2000     0.0000     1.2000    29.2507    14.7000     43.523     24.000 150721.000     60.000    38.6313   -20.0773   -23.4625   120.0962    -0.1480    -3.0001   -61.6704     0.0000     0.0000     0.0000     1.0000     5.0000   300.0000     2.4890    23.0635     1.0010    -2.9998     9.0000    10.0000     5.0000    14.0000    16.0000     5.0000    10.0000    16.0000    -0.0005     0.0005   159.4164   -41.1662     2.3942    43.9507     2.0000     1.0000     4.9989     0.000
     25     1.2000     0.0000     1.2001    28.9994    14.7000     43.575     31.000 150721.000     60.000    38.7417   -20.0773   -23.5308   120.0962    -0.1480    -3.0001   -61.4781     0.0000     0.0000     0.0000     1.0000     5.0000   300.0000     2.1085    23.3995     1.0010    -2.9998     9.0000    10.0000     5.0000    14.0000    16.0000     5.0000    10.0000    16.0000    -0.0005     0.0005   159.4164   -41.1662     2.3942    43.6994     2.0000     1.0000     4.9995     0.000
     26     1.2000     0.0000     1.2000    28.7501    14.7000     43.469     23.000 150721.000     60.000    38.8530   -20.0773   -23.5992   120.0962    -0.1480    -3.0001   -61.2854     0.0000     0.0000     0.0000     1.0000     5.0000   300.0000     1.7314    23.7302     1.0010    -2.9998     9.0000    10.0000     5.0000    14.0000    16.0000     5.0000    10.0000    16.0000    -0.0005     0.0005   159.4164   -41.1662     2.3942    43.4502     2.0000     1.0000     4.9997     0.000
     27     1.2000     0.0000     1.2000    28.4999    14.7000     43.119     26.000 150721.000     60.000    38.9652   -20.0773   -23.6684   120.0962    -0.1480    -3.0001   -61.0922     0.0000     0.0000     0.0000     1.0000     5.0000   300.0000     1.3585    24.0558     1.0010    -2.9998     9.0000    10.0000     5.0000    14.0000    16.0000     5.0000    10.0000    16.0000    -0.0005     0.0005   159.4164   -41.1662     2.3941    43.1999     2.0000     1.0000     4.9989     0.000
     28     1.2000     0.0000     1.2001    28.2503    14.7000     43.141     30.000 150721.000     60.000    39.0785   -20.0773   -23.7381   120.0962    -0.1480    -3.0001   -60.8985     0.0000     0.0000     0.0000     1.0000     5.0000   300.0000     0.9888    24.3836     1.0010    -2.9998     9.0000    10.0000     5.0000    14.0000    16.0000     5.0000    10.0000    16.0000    -0.0005     0.0005   159.4164   -41.1662     2.3943    42.9503     2.0000     1.0000     4.9991     0.000
     29     1.2000     0.0000     1.2000    27.9999    14.7000     43.148     24.000 150721.000     60.000    39.1927   -20.0773   -23.8086   120.0962    -0.1480    -3.0001   -60.7044     0.0000     0.0000     0.0000     1.0000     5.0000   300.0000     0.6225    24.7019     1.0010    -2.9998     9.0000    10.0000     5.0000    14.0000    16.0000     5.0000    10.0000    16.0000    -0.0005     0.0005   159.4164   -41.1662     2.3942    42.6999     2.0000     1.0000     5.0001     0.000
     30     1.2000     0.0000     1.2000    27.7504    14.7000     42.848     32.000 150721.000     60.000    39.3079   -20.0773   -23.8795   120.0962    -0.1480    -3.0001   -60.5098     0.0000     0.0000     0.0000     1.0000     5.0000   300.0000     0.2594    25.0196     1.0010    -2.9998     9.0000    10.0000     5.0000    14.0000    16.0000     5.0000    10.0000    16.0000    -0.0005     0.0005   159.4164   -41.1662     2.3942    42.4504     2.0000     1.0000     5.0010     0.000
     31     1.2000     0.0000     1.2001    27.4997    14.7000     42.568     32.000 150721.000     60.000    39.4242   -20.0773   -23.9513   120.0962    -0.1480    -3.0001   -60.3147     0.0000     0.0000     0.0000     1.0000     5.0000   300.0000    -0.1006    25.3363     1.0010    -2.9998     9.0000    10.0000     5.0000    14.0000    16.0000     5.0000    10.0000    16.0000    -0.0005     0.0005   159.4164   -41.1662     2.3942    42.1997     2.0000     1.0000     5.0011     0.000
     32     1.2000     0.0000     1.1999    27.2496    14.7000     42.100     21.000 150721.000     60.000    39.5415   -20.0773   -24.0237   120.0962    -0.1480    -3.0001   -60.1192     0.0000     0.0000     0.0000     1.0000     5.0000   300.0000    -0.4575    25.6454     1.0010    -2.9998     9.0000    10.0000     5.0000    14.0000    16.0000     5.0000    10.0000    16.0000    -0.0005     0.0005   159.4164   -41.1662     2.3941    41.9497     2.0000     1.0000     5.0010     0.000
     33     1.2000     0.0000     1.2001    27.0008    14.7000     41.862     20.000 150721.000     60.000    39.6598   -20.0773   -24.0963   120.0962    -0.1480    -3.0001   -59.9232     0.0000     0.0000     0.0000     1.0000     5.0000   300.0000    -0.8119    25.9584     1.0010    -2.9998     9.0000    10.0000     5.0000    14.0000    16.0000     5.0000    10.0000    16.0000    -0.0005     0.0005   159.4164   -41.1662     2.3943    41.7008     2.0000     1.0000     5.0004     0.000
     34     1.2000     0.0000     1.2000    26.7501    14.7000     41.540     28.000 150721.000     60.000    39.7792   -20.0773   -24.1702   120.0962    -0.1480    -3.0001   -59.7267     0.0000     0.0000     0.0000     1.0000     5.0000   300.0000    -1.1633    26.2629     1.0010    -2.9998     9.0000    10.0000     5.0000    14.0000    16.0000     5.0000    10.0000    16.0000    -0.0005     0.0005   159.4164   -41.1662     2.3942    41.4501     2.0000     1.0000     5.0006     0.000
     35     1.2000     0.0000     1.2001    26.4991    14.7000     41.038     25.000 150721.000     60.000    39.8998   -20.0773   -24.2448   120.0962    -0.1480    -3.0001   -59.5297     0.0000     0.0000     0.0000     1.0000     5.0000   300.0000    -1.5121    26.5706     1.0010    -2.9998     9.0000    10.0000     5.0000    14.0000    16.0000     5.0000    10.0000    16.0000    -0.0005     0.0005   159.4164   -41.1662     2.3943    41.1991     2.0000     1.0000     5.0005     0.000
     36     1.2000     0.0000     1.1999    26.2501    14.7000     40.491     21.000 150721.000     60.000    40.0214   -20.0773   -24.3195   120.0962    -0.1480    -3.0001   -59.3323     0.0000     0.0000     0.0000     1.0000     5.0000   300.0000    -1.8588    26.8676     1.0010    -2.9998     9.0000    10.0000     5.0000    14.0000    16.0000     5.0000    10.0000    16.0000    -0.0005     0.0005   159.4164   -41.1662     2.3941    40.9501     2.0000     1.0000     4.9988     0.000
     37     1.2000     0.0000     1.2002    25.9999    14.7000     40.196     17.000 150721.000     60.000    40.1441   -20.0773   -24.3953   120.0962    -0.1480    -3.0001   -59.1343     0.0000     0.0000     0.0000     1.0000     5.0000   300.0000    -2.2023    27.1727     1.0010    -2.9998     9.0000    10.0000     5.0000    14.0000    16.0000     5.0000    10.0000    16.0000    -0.0005     0.0005   159.4164   -41.1662     2.3943    40.6999     2.0000     1.0000     4.9997     0.000
     38     1.2000     0.0000     1.2000    25.7499    14.7000     39.662     16.000 150721.000     60.000    40.2680   -20.0773   -24.4718   120.0962    -0.1480    -3.0001   -58.9359     0.0000     0.0000     0.0000     1.0000     5.0000   300.0000    -2.5445    27.4672     1.0010    -2.9998     9.0000    10.0000     5.0000    14.0000    16.0000     5.0000    10.0000    16.0000    -0.0005     0.0005   159.4164   -41.1662     2.3942    40.4499     2.0000     1.0000     5.0007     0.000
     39     1.2000     0.0000     1.2001    25.5007    14.7000     39.426     15.000 150721.000     60.000    40.3930   -20.0773   -24.5487   120.0962    -0.1480    -3.0001   -58.7370     0.0000     0.0000     0.0000     1.0000     5.0000   300.0000    -2.8839    27.7635     1.0010    -2.9998     9.0000    10.0000     5.0000    14.0000    16.0000     5.0000    10.0000    16.0000    -0.0005     0.0005   159.4164   -41.1662     2.3943    40.2007     2.0000     1.0000     4.9995     0.000
     40     1.2000     0.0000     1.2000    25.2501    14.7000     38.963     15.000 150721.000     60.000    40.5192   -20.0773   -24.6267   120.0962    -0.1480    -3.0001   -58.5375     0.0000     0.0000     0.0000     1.0000     5.0000   300.0000    -3.2211    28.0538     1.0010    -2.9998     9.0000    10.0000     5.0000    14.0000    16.0000     5.0000    10.0000    16.0000    -0.0005     0.0005   159.4164   -41.1662     2.3942    39.9501     2.0000     1.0000     4.9999     0.000
     41     1.2000     0.0000     1.2001    24.9999    14.7000     39.063      8.000 150721.000     60.000    40.6465   -20.0773   -24.7054   120.0962    -0.1480    -3.0001   -58.3375     0.0000     0.0000     0.0000     1.0000     5.0000   300.0000    -3.5566    28.3475     1.0010    -2.9998     9.0000    10.0000     5.0000    14.0000    16.0000     5.0000    10.0000    16.0000    -0.0005     0.0005   159.4164   -41.1662     2.3943    39.6999     2.0000     1.0000     5.0011     0.000
     42     1.2000     0.0000     1.2000    24.7497    14.7000     39.102      7.000 150721.000     60.000    40.7751   -20.0773   -24.7849   120.0962    -0.1480    -3.0001   -58.1370     0.0000     0.0000     0.0000     1.0000     5.0000   300.0000    -3.8901    28.6334     1.0010    -2.9998     9.0000    10.0000     5.0000    14.0000    16.0000     5.0000    10.0000    16.0000    -0.0005     0.0005   159.4164   -41.1662     2.3941    39.4497     2.0000     1.0000     4.9987     0.000
     43     1.2000     0.0000     1.2001    24.5001    14.7000     39.021      8.000 150721.000     60.000    40.9049   -20.0773   -24.8649   120.0962    -0.1480    -3.0001   -57.9360     0.0000     0.0000     0.0000     1.0000     5.0000   300.0000    -4.2216    28.9229     1.0010    -2.9998     9.0000    10.0000     5.0000    14.0000    16.0000     5.0000    10.0000    16.0000    -0.0005     0.0005   159.4164   -41.1662     2.3942    39.2001     2.0000     1.0000     4.9998     0.000
     44     1.2000     0.0000     1.2001    24.2499    14.7000     39.128      7.000 150721.000     60.000    41.0360   -20.0773   -24.9460   120.0962    -0.1480    -3.0001   -57.7345     0.0000     0.0000     0.0000     1.0000     5.0000   300.0000    -4.5516    29.2086     1.0010    -2.9998     9.0000    10.0000     5.0000    14.0000    16.0000     5.0000    10.0000    16.0000    -0.0005     0.0005   159.4164   -41.1662     2.3942    38.9499     2.0000     1.0000     5.0005     0.000
     45     1.2000     0.0000     1.2000    24.0003    14.7000     39.360     10.000 150721.000     60.000    41.1683   -20.0773   -25.0276   120.0962    -0.1480    -3.0001   -57.5324     0.0000     0.0000     0.0000     1.0000     5.0000   300.0000    -4.8796    29.4914     1.0010    -2.9998     9.0000    10.0000     5.0000    14.0000    16.0000     5.0000    10.0000    16.0000    -0.0005     0.0005   159.4164   -41.1662     2.3942    38.7003     2.0000     1.0000     5.0000     0.000
     46     1.2000     0.0000     1.2001    23.7496    14.7000     39.695      6.000 150721.000     60.000    41.3020   -20.0773   -25.1104   120.0962    -0.1480    -3.0001   -57.3298     0.0000     0.0000     0.0000     1.0000     5.0000   300.0000    -5.2058    29.7743     1.0010    -2.9998     9.0000    10.0000     5.0000    14.0000    16.0000     5.0000    10.0000    16.0000    -0.0005     0.0005   159.4164   -41.1662     2.3942    38.4496     2.0000     1.0000     5.0000     0.000
     47     1.2000     0.0000     1.1999    23.5001    14.7000     39.928     10.000 150721.000     60.000    41.4369   -20.0773   -25.1936   120.0962    -0.1480    -3.0001   -57.1267     0.0000     0.0000     0.0000     1.0000     5.0000   300.0000    -5.5309    30.0509     1.0010    -2.9998     9.0000    10.0000     5.0000    14.0000    16.0000     5.0000    10.0000    16.0000    -0.0005     0.0005   159.4164   -41.1662     2.3941    38.2001     2.0000     1.0000     5.0002     0.000
     48     1.2000     0.0000     1.2001    23.2497    14.7000     40.409      4.000 150721.000     60.000    41.5732   -20.0773   -25.2779   120.0962    -0.1480    -3.0001   -56.9230     0.0000     0.0000     0.0000     1.0000     5.0000   300.0000    -5.8544    30.3334     1.0010    -2.9998     9.0000    10.0000     5.0000    14.0000    16.0000     5.0000    10.0000    16.0000    -0.0005     0.0005   159.4164   -41.1662     2.3943    37.9497     2.0000     1.0000     5.0003     0.000
     49     1.2000     0.0000     1.2001    23.0003    14.7000     40.991      8.000 150721.000     60.000    41.7108   -20.0773   -25.3628   120.0962    -0.1480    -3.0001   -56.7188     0.0000     0.0000     0.0000     1.0000     5.0000   300.0000    -6.1757    30.6101     1.0010    -2.9998     9.0000    10.0000     5.0000    14.0000    16.0000     5.0000    10.0000    16.0000    -0.0005     0.0005   159.4164   -41.1662     2.3943    37.7003     2.0000     1.0000     5.0010     0.000
     50     1.2000     0.0000     1.2000    22.7497    14.7000     41.261      7.000 150721.000     60.000    41.8497   -20.0773   -25.4489   120.0962    -0.1480    -3.0001   -56.5140     0.0000     0.0000     0.0000     1.0000     5.0000   300.0000    -6.4961    30.8828     1.0010    -2.9998     9.0000    10.0000     5.0000    14.0000    16.0000     5.0000    10.0000    16.0000    -0.0005     0.0005   159.4164   -41.1662     2.3941    37.4497     2.0000     1.0000     4.9998     0.000
     51     1.2001     0.0000     1.2001    22.5010    14.7000     41.723      7.000 150721.000     60.000    41.9902   -20.0773   -25.5353   120.0962    -0.1480    -3.0001   -56.3086     0.0000     0.0000     0.0000     1.0000     5.0000   300.0000    -6.8156    31.1599     1.0010    -2.9998     9.0000    10.0000     5.0000    14.0000    16.0000     5.0000    10.0000    16.0000    -0.0005     0.0005   159.4164   -41.1662     2.3943    37.2010     2.0000     1.0000     4.9998     0.000
     52     1.2000     0.0000     1.2000    22.2497    14.7000     42.048      7.000 150721.000     60.000    42.1320   -20.0773   -25.6235   120.0962    -0.1480    -3.0001   -56.1026     0.0000     0.0000     0.0000     1.0000     5.0000   300.0000    -7.1333    31.4302     1.0010    -2.9998     9.0000    10.0000     5.0000    14.0000    16.0000     5.0000    10.0000    16.0000    -0.0005     0.0005   159.4164   -41.1662     2.3941    36.9497     2.0000     1.0000     5.0000     0.000
     53     1.2000     0.0000     1.2000    21.9997    14.7000     42.404      2.000 150721.000     60.000    42.2752   -20.0773   -25.7121   120.0962    -0.1480    -3.0001   -55.8961     0.0000     0.0000     0.0000     1.0000     5.0000   300.0000    -7.4496    31.7031     1.0010    -2.9998     9.0000    10.0000     5.0000    14.0000    16.0000     5.0000    10.0000    16.0000    -0.0005     0.0005   159.4164   -41.1662     2.3942    36.6997     2.0000     1.0000     4.9998     0.000
     54     1.2000     0.0000     1.2001    21.7501    14.7000     42.579      7.000 150721.000     60.000    42.4200   -20.0773   -25.8014   120.0962    -0.1480    -3.0001   -55.6890     0.0000     0.0000     0.0000     1.0000     5.0000   300.0000    -7.7651    31.9743     1.0010    -2.9998     9.0000    10.0000     5.0000    14.0000    16.0000     5.0000    10.0000    16.0000    -0.0005     0.0005   159.4164   -41.1662     2.3943    36.4501     2.0000     1.0000     4.9995     0.000
     55     1.2000     0.0000     1.2000    21.4996    14.7000     42.963      6.000 150721.000     60.000    42.5662   -20.0773   -25.8921   120.0962    -0.1480    -3.0001   -55.4813     0.0000     0.0000     0.0000     1.0000     5.0000   300.0000    -8.0795    32.2416     1.0010    -2.9998     9.0000    10.0000     5.0000    14.0000    16.0000     5.0000    10.0000    16.0000    -0.0005     0.0005   159.4164   -41.1662     2.3942    36.1996     2.0000     1.0000     5.0000     0.000
     56     1.2000     0.0000     1.2000    21.2502    14.7000     42.933      9.000 150721.000     60.000    42.7139   -20.0773   -25.9834   120.0962    -0.1480    -3.0001   -55.2730     0.0000     0.0000     0.0000     1.0000     5.0000   300.0000    -8.3924    32.5099     1.0010    -2.9998     9.0000    10.0000     5.0000    14.0000    16.0000     5.0000    10.0000    16.0000    -0.0005     0.0005   159.4164   -41.1662     2.3942    35.9502     2.0000     1.0000     5.0010     0.000
     57     1.2000     0.0000     1.2001    21.0006    14.7000     42.952     10.000 150721.000     60.000    42.8632   -20.0773   -26.0756   120.0962    -0.1480    -3.0001   -55.0642     0.0000     0.0000     0.0000     1.0000     5.0000   300.0000    -8.7046    32.7775     1.0010    -2.9998     9.0000    10.0000     5.0000    14.0000    16.0000     5.0000    10.0000    16.0000    -0.0005     0.0005   159.4164   -41.1662     2.3943    35.7006     2.0000     1.0000     4.9999     0.000
     58     1.2000     0.0000     1.2000    20.7496    14.7000     43.111      5.000 150721.000     60.000    43.0141   -20.0773   -26.1694   120.0962    -0.1480    -3.0001   -54.8546     0.0000     0.0000     0.0000     1.0000     5.0000   300.0000    -9.0156    33.0414     1.0010    -2.9998     9.0000    10.0000     5.0000    14.0000    16.0000     5.0000    10.0000    16.0000    -0.0005     0.0005   159.4164   -41.1662     2.3942    35.4496     2.0000     1.0000     4.9999     0.000
     59     1.2000     0.0000     1.2001    20.4998    14.7000     43.170      8.000 150721.000     60.000    43.1666   -20.0773   -26.2637   120.0962    -0.1480    -3.0001   -54.6446     0.0000     0.0000     0.0000     1.0000     5.0000   300.0000    -9.3256    33.3068     1.0010    -2.9998     9.0000    10.0000     5.0000    14.0000    16.0000     5.0000    10.0000    16.0000    -0.0005     0.0005   159.4164   -41.1662     2.3942    35.1998     2.0000     1.0000     4.9996     0.000
     60     1.2000     0.0000     1.2001    20.2504    14.7000     43.438     10.000 150721.000     60.000    43.3207   -20.0773   -26.3590   120.0962    -0.1480    -3.0001   -54.4338     0.0000     0.0000     0.0000     1.0000     5.0000   300.0000    -9.6351    33.5710     1.0010    -2.9998     9.0000    10.0000     5.0000    14.0000    16.0000     5.0000    10.0000    16.0000    -0.0005     0.0005   159.4164   -41.1662     2.3943    34.9504     2.0000     1.0000     5.0004     0.000
     61     1.2000     0.0000     1.2000    19.9997    14.7000     43.315      4.000 150721.000     60.000    43.4765   -20.0773   -26.4557   120.0962    -0.1480    -3.0001   -54.2224     0.0000     0.0000     0.0000     1.0000     5.0000   300.0000    -9.9436    33.8314     1.0010    -2.9998     9.0000    10.0000     5.0000    14.0000    16.0000     5.0000    10.0000    16.0000    -0.0005     0.0005   159.4164   -41.1662     2.3942    34.6997     2.0000     1.0000     5.0007     0.000
     62     1.2000     0.0000     1.2000    19.7502    14.7000     43.759      5.000 150721.000     60.000    43.6339   -20.0773   -26.5531   120.0962    -0.1480    -3.0001   -54.0105     0.0000     0.0000     0.0000     1.0000     5.0000   300.0000   -10.2506    34.0912     1.0010    -2.9998     9.0000    10.0000     5.0000    14.0000    16.0000     5.0000    10.0000    16.0000    -0.0005     0.0005   159.4164   -41.1662     2.3942    34.4502     2.0000     1.0000     4.9986     0.000
     63     1.2000     0.0000     1.2000    19.4998    14.7000     44.022      4.000 150721.000     60.000    43.7931   -20.0773   -26.6519   120.0962    -0.1480    -3.0001   -53.7978     0.0000     0.0000     0.0000     1.0000     5.0000   300.0000   -10.5576    34.3527     1.0010    -2.9998     9.0000    10.0000     5.0000    14.0000    16.0000     5.0000    10.0000    16.0000    -0.0005     0.0005   159.4164   -41.1662     2.3942    34.1998     2.0000     1.0000     5.0007     0.000
     64     1.2000     0.0000     1.2000    19.2501    14.7000     44.549     16.000 150721.000     60.000    43.9541   -20.0773   -26.7516   120.0962    -0.1480    -3.0001   -53.5845     0.0000     0.0000     0.0000     1.0000     5.0000   300.0000   -10.8640    34.6121     1.0010    -2.9998     9.0000    10.0000     5.0000    14.0000    16.0000     5.0000    10.0000    16.0000    -0.0005     0.0005   159.4164   -41.1662     2.3942    33.9501     2.0000     1.0000     5.0006     0.000
     65     1.2000     0.0000     1.2000    19.0003    14.7000     44.912      5.000 150721.000     60.000    44.1168   -20.0773   -26.8524   120.0962    -0.1480    -3.0001   -53.3706     0.0000     0.0000     0.0000     1.0000     5.0000   300.0000   -11.1690    34.8700     1.0010    -2.9998     9.0000    10.0000     5.0000    14.0000    16.0000     5.0000    10.0000    16.0000    -0.0005     0.0005   159.4164   -41.1662     2.3942    33.7003     2.0000     1.0000     5.0001     0.000
     66     1.2000     0.0000     1.2001    18.7494    14.7000     45.297      9.000 150721.000     60.000    44.2813   -20.0773   -26.9548   120.0962    -0.1480    -3.0001   -53.1560     0.0000     0.0000     0.0000     1.0000     5.0000   300.0000   -11.4740    35.1304     1.0010    -2.9998     9.0000    10.0000     5.0000    14.0000    16.0000     5.0000    10.0000    16.0000    -0.0005     0.0005   159.4164   -41.1662     2.3943    33.4494     2.0000     1.0000     4.9988     0.000
     67     1.2000     0.0000     1.2001    18.5002    14.7000     45.573     10.000 150721.000     60.000    44.4478   -20.0773   -27.0577   120.0962    -0.1480    -3.0001   -52.9407     0.0000     0.0000     0.0000     1.0000     5.0000   300.0000   -11.7773    35.3851     1.0010    -2.9998     9.0000    10.0000     5.0000    14.0000    16.0000     5.0000    10.0000    16.0000    -0.0005     0.0005   159.4164   -41.1662     2.3943    33.2002     2.0000     1.0000     5.0007     0.000
     68     1.2000     0.0000     1.2000    18.2502    14.7000     45.845      3.000 150721.000     60.000    44.6161   -20.0773   -27.1621   120.0962    -0.1480    -3.0001   -52.7248     0.0000     0.0000     0.0000     1.0000     5.0000   300.0000   -12.0813    35.6387     1.0010    -2.9998     9.0000    10.0000     5.0000    14.0000    16.0000     5.0000    10.0000    16.0000    -0.0005     0.0005   159.4164   -41.1662     2.3942    32.9502     2.0000     1.0000     4.9993     0.000
     69     1.2000     0.0000     1.2000    17.9999    14.7000     46.042      9.000 150721.000     60.000    44.7863   -20.0773   -27.2678   120.0962    -0.1480    -3.0001   -52.5081     0.0000     0.0000     0.0000     1.0000     5.0000   300.0000   -12.3844    35.8940     1.0010    -2.9998     9.0000    10.0000     5.0000    14.0000    16.0000     5.0000    10.0000    16.0000    -0.0005     0.0005   159.4164   -41.1662     2.3942    32.7000     2.0000     1.0000     4.9999     0.000
     70     1.2000     0.0000     1.2001    17.7503    14.7000     46.286     10.000 150721.000     60.000    44.9585   -20.0773   -27.3745   120.0962    -0.1480    -3.0001   -52.2908     0.0000     0.0000     0.0000     1.0000     5.0000   300.0000   -12.6863    36.1497     1.0010    -2.9998     9.0000    10.0000     5.0000    14.0000    16.0000     5.0000    10.0000    16.0000    -0.0005     0.0005   159.4164   -41.1662     2.3943    32.4504     2.0000     1.0000     4.9994     0.000
     71     1.2000     0.0000     1.2000    17.4998    14.7000     46.714      6.000 150721.000     60.000    45.1326   -20.0773   -27.4829   120.0962    -0.1480    -3.0001   -52.0728     0.0000     0.0000     0.0000     1.0000     5.0000   300.0000   -12.9886    36.4029     1.0010    -2.9998     9.0000    10.0000     5.0000    14.0000    16.0000     5.0000    10.0000    16.0000    -0.0005     0.0005   159.4164   -41.1662     2.3942    32.1999     2.0000     1.0000     5.0003     0.000
     72     1.2000     0.0000     1.2000    17.2500    14.7000     46.977      6.000 150721.000     60.000    45.3089   -20.0773   -27.5923   120.0962    -0.1480    -3.0001   -51.8540     0.0000     0.0000     0.0000     1.0000     5.0000   300.0000   -13.2896    36.6529     1.0010    -2.9998     9.0000    10.0000     5.0000    14.0000    16.0000     5.0000    10.0000    16.0000    -0.0005     0.0005   159.4164   -41.1662     2.3941    31.9500     2.0000     1.0000     5.0011     0.000
     73     1.2000     0.0000     1.2000    17.0000    14.7000     47.386      9.000 150721.000     60.000    45.4872   -20.0773   -27.7030   120.0962    -0.1480    -3.0001   -51.6345     0.0000     0.0000     0.0000     1.0000     5.0000   300.0000   -13.5909    36.9074     1.0010    -2.9998     9.0000    10.0000     5.0000    14.0000    16.0000     5.0000    10.0000    16.0000    -0.0005     0.0005   159.4164   -41.1662     2.3942    31.7000     2.0000     1.0000     4.9995     0.000
     74     1.2000     0.0000     1.2001    16.7499    14.7000     47.361      8.000 150721.000     60.000    45.6676   -20.0773   -27.8151   120.0962    -0.1480    -3.0001   -51.4143     0.0000     0.0000     0.0000     1.0000     5.0000   300.0000   -13.8916    37.1599     1.0010    -2.9998     9.0000    10.0000     5.0000    14.0000    16.0000     5.0000    10.0000    16.0000    -0.0005     0.0005   159.4164   -41.1662     2.3943    31.4499     2.0000     1.0000     5.0000     0.000
     75     1.2000     0.0000     1.2001    16.5002    14.7000     47.443      7.000 150721.000     60.000    45.8503   -20.0773   -27.9285   120.0962    -0.1480    -3.0001   -51.1934     0.0000     0.0000     0.0000     1.0000     5.0000   300.0000   -14.1919    37.4105     1.0010    -2.9998     9.0000    10.0000     5.0000    14.0000    16.0000     5.0000    10.0000    16.0000    -0.0005     0.0005   159.4164   -41.1662     2.3943    31.2002     2.0000     1.0000     4.9993     0.000
     76     1.2000     0.0000     1.2000    16.2498    14.7000     47.533      4.000 150721.000     60.000    46.0351   -20.0773   -28.0435   120.0962    -0.1480    -3.0001   -50.9717     0.0000     0.0000     0.0000     1.0000     5.0000   300.0000   -14.4919    37.6576     1.0010    -2.9998     9.0000    10.0000     5.0000    14.0000    16.0000     5.0000    10.0000    16.0000    -0.0005     0.0005   159.4164   -41.1662     2.3941    30.9498     2.0000     1.0000     4.9995     0.000
     77     1.2000     0.0000     1.2000    15.9998    14.7000     47.768      9.000 150721.000     60.000    46.2221   -20.0773   -28.1598   120.0962    -0.1480    -3.0001   -50.7492     0.0000     0.0000     0.0000     1.0000     5.0000   300.0000   -14.7915    37.9084     1.0010    -2.9998     9.0000    10.0000     5.0000    14.0000    16.0000     5.0000    10.0000    16.0000    -0.0005     0.0005   159.4164   -41.1662     2.3942    30.6998     2.0000     1.0000     5.0009     0.000
     78     1.2000     0.0000     1.2000    15.7504    14.7000     47.961      7.000 150721.000     60.000    46.4115   -20.0773   -28.2773   120.0962    -0.1480    -3.0001   -50.5260     0.0000     0.0000     0.0000     1.0000     5.0000   300.0000   -15.0910    38.1584     1.0010    -2.9998     9.0000    10.0000     5.0000    14.0000    16.0000     5.0000    10.0000    16.0000    -0.0005     0.0005   159.4164   -41.1662     2.3943    30.4504     2.0000     1.0000     5.0005     0.000
     79     1.2000     0.0000     1.2000    15.4998    14.7000     48.099      3.000 150721.000     60.000    46.6032   -20.0773   -28.3968   120.0962    -0.1480    -3.0001   -50.3021     0.0000     0.0000     0.0000     1.0000     5.0000   300.0000   -15.3902    38.4060     1.0010    -2.9998     9.0000    10.0000     5.0000    14.0000    16.0000     5.0000    10.0000    16.0000    -0.0005     0.0005   159.4164   -41.1662     2.3942    30.1998     2.0000     1.0000     5.0004     0.000
     80     1.1999     0.0000     1.1999    15.2502    14.7000     48.771     13.000 150721.000     60.000    46.7972   -20.0773   -28.5174   120.0962    -0.1480    -3.0001   -50.0773     0.0000     0.0000     0.0000     1.0000     5.0000   300.0000   -15.6895    38.6505     1.0010    -2.9998     9.0000    10.0000     5.0000    14.0000    16.0000     5.0000    10.0000    16.0000    -0.0005     0.0005   159.4164   -41.1662     2.3941    29.9502     2.0000     1.0000     5.0007     0.000
     81     1.2000     0.0000     1.2000    14.9999    14.7000     48.651      7.000 150721.000     60.000    46.9938   -20.0773   -28.6399   120.0962    -0.1480    -3.0001   -49.8518     0.0000     0.0000     0.0000     1.0000     5.0000   300.0000   -15.9881    38.8991     1.0010    -2.9998     9.0000    10.0000     5.0000    14.0000    16.0000     5.0000    10.0000    16.0000    -0.0005     0.0005   159.4164   -41.1662     2.3941    29.6999     2.0000     1.0000     5.0000     0.000
     82     1.2000     0.0000     1.2000    14.7499    14.7000     48.538      5.000 150721.000     60.000    47.1929   -20.0773   -28.7638   120.0962    -0.1480    -3.0001   -49.6254     0.0000     0.0000     0.0000     1.0000     5.0000   300.0000   -16.2871    39.1477     1.0010    -2.9998     9.0000    10.0000     5.0000    14.0000    16.0000     5.0000    10.0000    16.0000    -0.0005     0.0005   159.4164   -41.1662     2.3942    29.4500     2.0000     1.0000     4.9986     0.000
     83     1.2000     0.0000     1.2000    14.4999    14.7000     48.022      7.000 150721.000     60.000    47.3944   -20.0773   -28.8893   120.0962    -0.1480    -3.0001   -49.3982     0.0000     0.0000     0.0000     1.0000     5.0000   300.0000   -16.5858    39.3946     1.0010    -2.9998     9.0000    10.0000     5.0000    14.0000    16.0000     5.0000    10.0000    16.0000    -0.0005     0.0005   159.4164   -41.1662     2.3942    29.1999     2.0000     1.0000     5.0010     0.000
     84     1.2000     0.0000     1.2000    14.2506    14.7000     47.447      5.000 150721.000     60.000    47.5986   -20.0773   -29.0162   120.0962    -0.1480    -3.0001   -49.1702     0.0000     0.0000     0.0000     1.0000     5.0000   300.0000   -16.8846    39.6387     1.0010    -2.9998     9.0000    10.0000     5.0000    14.0000    16.0000     5.0000    10.0000    16.0000    -0.0005     0.0005   159.4164   -41.1662     2.3942    28.9506     2.0000     1.0000     4.9997     0.000
     85     1.2000     0.0000     1.2000    13.9994    14.7000     46.754      5.000 150721.000     60.000    47.8055   -20.0773   -29.1457   120.0962    -0.1480    -3.0001   -48.9414     0.0000     0.0000     0.0000     1.0000     5.0000   300.0000   -17.1830    39.8849     1.0010    -2.9998     9.0000    10.0000     5.0000    14.0000    16.0000     5.0000    10.0000    16.0000    -0.0005     0.0005   159.4164   -41.1662     2.3942    28.6994     2.0000     1.0000     5.0011     0.000
     86     1.2000     0.0000     1.2000    13.7503    14.7000     45.768      6.000 150721.000     60.000    48.0151   -20.0773   -29.2758   120.0962    -0.1480    -3.0001   -48.7117     0.0000     0.0000     0.0000     1.0000     5.0000   300.0000   -17.4816    40.1306     1.0010    -2.9998     9.0000    10.0000     5.0000    14.0000    16.0000     5.0000    10.0000    16.0000    -0.0005     0.0005   159.4164   -41.1662     2.3943    28.4503     2.0000     1.0000     4.9998     0.000
     87     1.2001     0.0000     1.2001    13.5003    14.7000     45.309      7.000 150721.000     60.000    48.2274   -20.0773   -29.4082   120.0962    -0.1480    -3.0001   -48.4811     0.0000     0.0000     0.0000     1.0000     5.0000   300.0000   -17.7802    40.3763     1.0010    -2.9998     9.0000    10.0000     5.0000    14.0000    16.0000     5.0000    10.0000    16.0000    -0.0005     0.0005   159.4164   -41.1662     2.3943    28.2003     2.0000     1.0000     4.9995     0.000
     88     1.2000     0.0000     1.2000    13.2497    14.7000     45.642      7.000 150721.000     60.000    48.4427   -20.0773   -29.5428   120.0962    -0.1480    -3.0001   -48.2497     0.0000     0.0000     0.0000     1.0000     5.0000   300.0000   -18.0794    40.6198     1.0010    -2.9998     9.0000    10.0000     5.0000    14.0000    16.0000     5.0000    10.0000    16.0000    -0.0005     0.0005   159.4164   -41.1662     2.3943    27.9497     2.0000     1.0000     5.0005     0.000
     89     1.2000     0.0000     1.2000    12.9999    14.7000     45.993     11.000 150721.000     60.000    48.6608   -20.0773   -29.6787   120.0962    -0.1480    -3.0001   -48.0174     0.0000     0.0000     0.0000     1.0000     5.0000   300.0000   -18.3776    40.8629     1.0010    -2.9998     9.0000    10.0000     5.0000    14.0000    16.0000     5.0000    10.0000    16.0000    -0.0005     0.0005   159.4164   -41.1662     2.3942    27.7000     2.0000     1.0000     4.9988     0.000
     90     1.2000     0.0000     1.2000    12.7500    14.7000     46.549      6.000 150721.000     60.000    48.8819   -20.0773   -29.8166   120.0962    -0.1480    -3.0001   -47.7842     0.0000     0.0000     0.0000     1.0000     5.0000   300.0000   -18.6770    41.1052     1.0010    -2.9998     9.0000    10.0000     5.0000    14.0000    16.0000     5.0000    10.0000    16.0000    -0.0005     0.0005   159.4164   -41.1662     2.3942    27.4500     2.0000     1.0000     5.0010     0.000
     91     1.2000     0.0000     1.2000    12.4999    14.7000     47.822      3.000 150721.000     60.000    49.1060   -20.0773   -29.9566   120.0962    -0.1480    -3.0001   -47.5501     0.0000     0.0000     0.0000     1.0000     5.0000   300.0000   -18.9759    41.3487     1.0010    -2.9998     9.0000    10.0000     5.0000    14.0000    16.0000     5.0000    10.0000    16.0000    -0.0005     0.0005   159.4164   -41.1662     2.3942    27.1999     2.0000     1.0000     5.0002     0.000
     92     1.2000     0.0000     1.2000    12.2503    14.7000     48.631      5.000 150721.000     60.000    49.3332   -20.0773   -30.0982   120.0962    -0.1480    -3.0001   -47.3151     0.0000     0.0000     0.0000     1.0000     5.0000   300.0000   -19.2755    41.5924     1.0010    -2.9998     9.0000    10.0000     5.0000    14.0000    16.0000     5.0000    10.0000    16.0000    -0.0005     0.0005   159.4164   -41.1662     2.3943    26.9504     2.0000     1.0000     4.9997     0.000
     93     1.2000     0.0000     1.2000    11.9997    14.7000     49.093      9.000 150721.000     60.000    49.5636   -20.0773   -30.2425   120.0962    -0.1480    -3.0001   -47.0791     0.0000     0.0000     0.0000     1.0000     5.0000   300.0000   -19.5748    41.8334     1.0010    -2.9998     9.0000    10.0000     5.0000    14.0000    16.0000     5.0000    10.0000    16.0000    -0.0005     0.0005   159.4164   -41.1662     2.3942    26.6997     2.0000     1.0000     4.9977     0.000
     94     1.2000     0.0000     1.2000    11.7499    14.7000     49.042      1.000 150721.000     60.000    49.7973   -20.0773   -30.3884   120.0962    -0.1480    -3.0001   -46.8422     0.0000     0.0000     0.0000     1.0000     5.0000   300.0000   -19.8747    42.0765     1.0010    -2.9998     9.0000    10.0000     5.0000    14.0000    16.0000     5.0000    10.0000    16.0000    -0.0005     0.0005   159.4164   -41.1662     2.3942    26.4499     2.0000     1.0000     4.9998     0.000
     95     1.2000     0.0000     1.2000    11.5002    14.7000     48.806      8.000 150721.000     60.000    50.0343   -20.0773   -30.5364   120.0962    -0.1480    -3.0001   -46.6044     0.0000     0.0000     0.0000     1.0000     5.0000   300.0000   -20.1747    42.3198     1.0010    -2.9998     9.0000    10.0000     5.0000    14.0000    16.0000     5.0000    10.0000    16.0000    -0.0005     0.0005   159.4164   -41.1662     2.3943    26.2002     2.0000     1.0000     4.9984     0.000
     96     1.2001     0.0000     1.2001    11.2501    14.7000     48.450      4.000 150721.000     60.000    50.2748   -20.0773   -30.6868   120.0962    -0.1480    -3.0001   -46.3655     0.0000     0.0000     0.0000     1.0000     5.0000   300.0000   -20.4750    42.5621     1.0010    -2.9998     9.0000    10.0000     5.0000    14.0000    16.0000     5.0000    10.0000    16.0000    -0.0005     0.0005   159.4164   -41.1662     2.3943    25.9501     2.0000     1.0000     4.9997     0.000
     97     1.2000     0.0000     1.2000    10.9998    14.7000     48.288     11.000 150721.000     60.000    50.5187   -20.0773   -30.8396   120.0962    -0.1480    -3.0001   -46.1257     0.0000     0.0000     0.0000     1.0000     5.0000   300.0000   -20.7759    42.8029     1.0010    -2.9998     9.0000    10.0000     5.0000    14.0000    16.0000     5.0000    10.0000    16.0000    -0.0005     0.0005   159.4164   -41.1662     2.3943    25.6998     2.0000     1.0000     4.9995     0.000
     98     1.2000     0.0000     1.2000    10.7500    14.7000     48.083      7.000 150721.000     60.000    50.7662   -20.0773   -30.9943   120.0962    -0.1480    -3.0001   -45.8849     0.0000     0.0000     0.0000     1.0000     5.0000   300.0000   -21.0769    43.0422     1.0010    -2.9998     9.0000    10.0000     5.0000    14.0000    16.0000     5.0000    10.0000    16.0000    -0.0005     0.0005   159.4164   -41.1662     2.3942    25.4501     2.0000     1.0000     4.9980     0.000
     99     1.2000     0.0000     1.2000    10.5000    14.7000     47.613      3.000 150721.000     60.000    51.0174   -20.0773   -31.1516   120.0962    -0.1480    -3.0001   -45.6430     0.0000     0.0000     0.0000     1.0000     5.0000   300.0000   -21.3789    43.2849     1.0010    -2.9998     9.0000    10.0000     5.0000    14.0000    16.0000     5.0000    10.0000    16.0000    -0.0005     0.0005   159.4164   -41.1662     2.3943    25.2000     2.0000     1.0000     4.9999     0.000
    100     1.2000     0.0000     1.2000    10.2502    14.7000     48.120      6.000 150721.000     60.000    51.2724   -20.0773   -31.3111   120.0962    -0.1480    -3.0001   -45.4002     0.0000     0.0000     0.0000     1.0000     5.0000   300.0000   -21.6803    43.5251     1.0010    -2.9998     9.0000    10.0000     5.0000    14.0000    16.0000     5.0000    10.0000    16.0000    -0.0005     0.0005   159.4164   -41.1662     2.3942    24.9502     2.0000     1.0000     5.0005     0.000
    101     1.2001     0.0000     1.2001    10.0000    14.7000     48.613     10.000 150721.000     60.000    51.5312   -20.0773   -31.4734   120.0962    -0.1480    -3.0001   -45.1562     0.0000     0.0000     0.0000     1.0000     5.0000   300.0000   -21.9831    43.7678     1.0010    -2.9998     9.0000    10.0000     5.0000    14.0000    16.0000     5.0000    10.0000    16.0000    -0.0005     0.0005   159.4164   -41.1662     2.3943    24.7000     2.0000     1.0000     4.9996     0.000
    102     1.2000     0.0000     1.2000     9.7498    14.7000     49.565     10.000 150721.000     60.000    51.7940   -20.0773   -31.6382   120.0962    -0.1480    -3.0001   -44.9112     0.0000     0.0000     0.0000     1.0000     5.0000   300.0000   -22.2859    44.0062     1.0010    -2.9998     9.0000    10.0000     5.0000    14.0000    16.0000     5.0000    10.0000    16.0000    -0.0005     0.0005   159.4164   -41.1662     2.3942    24.4498     2.0000     1.0000     4.9996     0.000
    103     1.2000     0.0000     1.2000     9.4998    14.7000     50.574     10.000 150721.000     60.000    52.0609   -20.0773   -31.8055   120.0962    -0.1480    -3.0001   -44.6652     0.0000     0.0000     0.0000     1.0000     5.0000   300.0000   -22.5896    44.2454     1.0010    -2.9998     9.0000    10.0000     5.0000    14.0000    16.0000     5.0000    10.0000    16.0000    -0.0005     0.0005   159.4164   -41.1662     2.3942    24.1998     2.0000     1.0000     5.0008     0.000
    104     1.2000     0.0000     1.2000     9.2502    14.7000     51.046      7.000 150721.000     60.000    52.3319   -20.0773   -31.9753   120.0962    -0.1480    -3.0001   -44.4180     0.0000     0.0000     0.0000     1.0000     5.0000   300.0000   -22.8941    44.4846     1.0010    -2.9998     9.0000    10.0000     5.0000    14.0000    16.0000     5.0000    10.0000    16.0000    -0.0005     0.0005   159.4164   -41.1662     2.3941    23.9502     2.0000     1.0000     5.0003     0.000
    105     1.2000     0.0000     1.2000     9.0000    14.7000     50.683      6.000 150721.000     60.000    52.6071   -20.0773   -32.1481   120.0962    -0.1480    -3.0001   -44.1697     0.0000     0.0000     0.0000     1.0000     5.0000   300.0000   -23.1983    44.7267     1.0010    -2.9998     9.0000    10.0000     5.0000    14.0000    16.0000     5.0000    10.0000    16.0000    -0.0005     0.0005   159.4164   -41.1662     2.3942    23.7000     2.0000     1.0000     5.0001     0.000
    106     1.2000     0.0000     1.2000     8.7502    14.7000     49.363      9.000 150721.000     60.000    52.8868   -20.0773   -32.3236   120.0962    -0.1480    -3.0001   -43.9203     0.0000     0.0000     0.0000     1.0000     5.0000   300.0000   -23.5041    44.9672     1.0010    -2.9998     9.0000    10.0000     5.0000    14.0000    16.0000     5.0000    10.0000    16.0000    -0.0005     0.0005   159.4164   -41.1662     2.3942    23.4502     2.0000     1.0000     5.0000     0.000
    107     1.2000     0.0000     1.2000     8.4999    14.7000     47.892      5.000 150721.000     60.000    53.1710   -20.0773   -32.5023   120.0962    -0.1480    -3.0001   -43.6697     0.0000     0.0000     0.0000     1.0000     5.0000   300.0000   -23.8098    45.2078     1.0010    -2.9998     9.0000    10.0000     5.0000    14.0000    16.0000     5.0000    10.0000    16.0000    -0.0005     0.0005   159.4164   -41.1662     2.3942    23.1999     2.0000     1.0000     5.0012     0.000
    108     1.2000     0.0000     1.2000     8.2501    14.7000     46.219      5.000 150721.000     60.000    53.4598   -20.0773   -32.6836   120.0962    -0.1480    -3.0001   -43.4180     0.0000     0.0000     0.0000     1.0000     5.0000   300.0000   -24.1169    45.4470     1.0010    -2.9998     9.0000    10.0000     5.0000    14.0000    16.0000     5.0000    10.0000    16.0000    -0.0005     0.0005   159.4164   -41.1662     2.3942    22.9501     2.0000     1.0000     5.0008     0.000
    109     1.2000     0.0000     1.2000     7.9999    14.7000     45.024      3.000 150721.000     60.000    53.7534   -20.0773   -32.8683   120.0962    -0.1480    -3.0001   -43.1651     0.0000     0.0000     0.0000     1.0000     5.0000   300.0000   -24.4246    45.6863     1.0010    -2.9998     9.0000    10.0000     5.0000    14.0000    16.0000     5.0000    10.0000    16.0000    -0.0005     0.0005   159.4164   -41.1662     2.3942    22.6999     2.0000     1.0000     4.9998     0.000
    110     1.2000     0.0000     1.2000     7.7501    14.7000     44.518      4.000 150721.000     60.000    54.0519   -20.0773   -33.0559   120.0962    -0.1480    -3.0001   -42.9109     0.0000     0.0000     0.0000     1.0000     5.0000   300.0000   -24.7331    45.9273     1.0010    -2.9998     9.0000    10.0000     5.0000    14.0000    16.0000     5.0000    10.0000    16.0000    -0.0005     0.0005   159.4164   -41.1662     2.3942    22.4501     2.0000     1.0000     5.0008     0.000
    111     1.2001     0.0000     1.2000     7.5000    14.7000     44.314      8.000 150721.000     60.000    54.3554   -20.0773   -33.2469   120.0962    -0.1480    -3.0001   -42.6556     0.0000     0.0000     0.0000     1.0000     5.0000   300.0000   -25.0421    46.1686     1.0010    -2.9998     9.0000    10.0000     5.0000    14.0000    16.0000     5.0000    10.0000    16.0000    -0.0005     0.0005   159.4164   -41.1662     2.3943    22.2000     2.0000     1.0000     5.0006     0.000
    112     1.2000     0.0000     1.2000     7.2501    14.7000     44.407      5.000 150721.000     60.000    54.6640   -20.0773   -33.4412   120.0962    -0.1480    -3.0001   -42.3989     0.0000     0.0000     0.0000     1.0000     5.0000   300.0000   -25.3526    46.4068     1.0010    -2.9998     9.0000    10.0000     5.0000    14.0000    16.0000     5.0000    10.0000    16.0000    -0.0005     0.0005   159.4164   -41.1662     2.3942    21.9501     2.0000     1.0000     5.0000     0.000
    113     1.2000     0.0000     1.2000     6.9998    14.7000     44.621      4.000 150721.000     60.000    54.9780   -20.0773   -33.6392   120.0962    -0.1480    -3.0001   -42.1410     0.0000     0.0000     0.0000     1.0000     5.0000   300.0000   -25.6638    46.6454     1.0010    -2.9998     9.0000    10.0000     5.0000    14.0000    16.0000     5.0000    10.0000    16.0000    -0.0005     0.0005   159.4164   -41.1662     2.3941    21.6998     2.0000     1.0000     5.0001     0.000
    114     1.2000     0.0000     1.2000     6.7503    14.7000     44.637      4.000 150721.000     60.000    55.2975   -20.0773   -33.8402   120.0962    -0.1480    -3.0001   -41.8818     0.0000     0.0000     0.0000     1.0000     5.0000   300.0000   -25.9756    46.8861     1.0010    -2.9998     9.0000    10.0000     5.0000    14.0000    16.0000     5.0000    10.0000    16.0000    -0.0005     0.0005   159.4164   -41.1662     2.3942    21.4503     2.0000     1.0000     5.0004     0.000
    115     1.2000     0.0000     1.2000     6.4998    14.7000     45.399      6.000 150721.000     60.000    55.6225   -20.0773   -34.0456   120.0962    -0.1480    -3.0001   -41.6214     0.0000     0.0000     0.0000     1.0000     5.0000   300.0000   -26.2890    47.1269     1.0010    -2.9998     9.0000    10.0000     5.0000    14.0000    16.0000     5.0000    10.0000    16.0000    -0.0005     0.0005   159.4164   -41.1662     2.3942    21.1998     2.0000     1.0000     4.9996     0.000
    116     1.2000     0.0000     1.2000     6.2502    14.7000     45.899      6.000 150721.000     60.000    55.9535   -20.0773   -34.2540   120.0962    -0.1480    -3.0001   -41.3595     0.0000     0.0000     0.0000     1.0000     5.0000   300.0000   -26.6028    47.3678     1.0010    -2.9998     9.0000    10.0000     5.0000    14.0000    16.0000     5.0000    10.0000    16.0000    -0.0005     0.0005   159.4164   -41.1662     2.3943    20.9502     2.0000     1.0000     5.0011     0.000
    117     1.2000     0.0000     1.2000     5.9999    14.7000     46.747      2.000 150721.000     60.000    56.2903   -20.0773   -34.4669   120.0962    -0.1480    -3.0001   -41.0963     0.0000     0.0000     0.0000     1.0000     5.0000   300.0000   -26.9186    47.6070     1.0010    -2.9998     9.0000    10.0000     5.0000    14.0000    16.0000     5.0000    10.0000    16.0000    -0.0005     0.0005   159.4164   -41.1662     2.3942    20.6999     2.0000     1.0000     4.9991     0.000
    118     1.2000     0.0000     1.2000     5.7502    14.7000     47.958      5.000 150721.000     60.000    56.6333   -20.0773   -34.6833   120.0962    -0.1480    -3.0001   -40.8317     0.0000     0.0000     0.0000     1.0000     5.0000   300.0000   -27.2348    47.8466     1.0010    -2.9998     9.0000    10.0000     5.0000    14.0000    16.0000     5.0000    10.0000    16.0000    -0.0005     0.0005   159.4164   -41.1662     2.3942    20.4502     2.0000     1.0000     5.0008     0.000
    119     1.2000     0.0000     1.2000     5.4998    14.7000     48.889      5.000 150721.000     60.000    56.9827   -20.0773   -34.9044   120.0962    -0.1480    -3.0001   -40.5656     0.0000     0.0000     0.0000     1.0000     5.0000   300.0000   -27.5524    48.0849     1.0010    -2.9998     9.0000    10.0000     5.0000    14.0000    16.0000     5.0000    10.0000    16.0000    -0.0005     0.0005   159.4164   -41.1662     2.3941    20.1998     2.0000     1.0000     4.9999     0.000
    120     1.2000     0.0000     1.2000     5.2501    14.7000     49.565      2.000 150721.000     60.000    57.3387   -20.0773   -35.1293   120.0962    -0.1480    -3.0001   -40.2982     0.0000     0.0000     0.0000     1.0000     5.0000   300.0000   -27.8712    48.3269     1.0010    -2.9998     9.0000    10.0000     5.0000    14.0000    16.0000     5.0000    10.0000    16.0000    -0.0005     0.0005   159.4164   -41.1662     2.3942    19.9501     2.0000     1.0000     5.0004     0.000
    121     1.2001     0.0000     1.2000     5.0000    14.7000     50.115      2.000 150721.000     60.000    57.7013   -20.0773   -35.3589   120.0962    -0.1480    -3.0001   -40.0292     0.0000     0.0000     0.0000     1.0000     5.0000   300.0000   -28.1917    48.5692     1.0010    -2.9998     9.0000    10.0000     5.0000    14.0000    16.0000     5.0000    10.0000    16.0000    -0.0005     0.0005   159.4164   -41.1662     2.3943    19.7000     2.0000     1.0000     5.0018     0.000
# Sum of Counts = 1239
# Center of Mass = 23.511520+/-0.971439
# Full Width Half-Maximum = 15.956536+/-0.448058
# 3:44:24 AM  9/10/2024   scan completed.
