# scan = 45
# date = 9/9/2024
# time = 11:52:59 PM
# proposal = 34735
# experiment = Magnons and paramagnon coupling in MnTe
# experiment_number = 813
# command = scan h 1.15 k 0.0 l 1.15 e 35 5 0.25 ef 14.7 preset mcu 60
# builtin_command = scan h 1.15 k 0.0 l 1.15 e 35 5 0.25 ef 14.7 preset mcu 60
# users = Benjamin Frandsen, Songxue Chi, George Yumnam, Huibo Cao, Michael Manley, Raphael Hermann, Eleanor Clements
# local_contact = Eleanor Clements
# scan_title = H0L scans along (101) to (1.5, 0, 1.5) at H/L = 1.15, mcu = 60
# monochromator = PG002
# analyzer = Pg002
# sense = -+-
# collimation = 48-40-40-120
# samplename = MnTe
# sampletype = crystal
# samplemosaic = 30.000000
# latticeconstants = 4.128474,4.128474,6.651507,90.000000,90.000000,120.000000
# ubmatrix = -0.000328,-0.004396,-0.150319,-0.279308,-0.152332,0.000314,-0.014647,0.234528,-0.002614
# mode = 0
# plane_normal = -0.017470,-0.052341,0.998476
# ubconf = UB09Sep2024_43441PM.ini
# preset_type = normal 
# preset_channel = mcu
# preset_value = 60.000000
# def_x = e
# def_y = detector
# col_headers = 
#   Pt.          h          k          l          e         ef       time   detector    monitor        mcu focal_length         m1         m2   mcrystal       marc     mtrans     mfocus       ampl         dc       freq     output       temp     temp_2         s1         s2        sgl        sgu        bbb        bbl        bbr        bbt        bab        bal        bar        bat        stl        stu         a1         a2          q         ei   ampl_out output_state        vti     sample
      1     1.1501     0.0000     1.1499    35.0029    14.7000     49.759      5.000 150721.000     60.000    36.3279   -20.0773   -22.0449   120.0962    -0.1480    -3.0001   -65.9790     0.0000     0.0000     0.0000     1.0000     5.0000   300.0000    18.6705     8.3050     1.0010    -2.9998     9.0000    10.0000     5.0000    14.0000    16.0000     5.0000    10.0000    16.0000    -0.0005     0.0005   159.4164   -41.1662     2.2945    49.7029     2.0000     1.0000     4.9996     0.000
      2     1.1500     0.0000     1.1501    34.7504    14.7000     48.883      4.000 150721.000     60.000    36.4196   -20.0773   -22.1019   120.0962    -0.1480    -3.0001   -65.7959     0.0000     0.0000     0.0000     1.0000     5.0000   300.0000    17.7278     9.1178     1.0010    -2.9998     9.0000    10.0000     5.0000    14.0000    16.0000     5.0000    10.0000    16.0000    -0.0005     0.0005   159.4164   -41.1662     2.2945    49.4504     2.0000     1.0000     5.0000     0.000
      3     1.1500     0.0000     1.1499    34.5001    14.7000     48.270      6.000 150721.000     60.000    36.5121   -20.0773   -22.1587   120.0962    -0.1480    -3.0001   -65.6125     0.0000     0.0000     0.0000     1.0000     5.0000   300.0000    16.8592     9.8596     1.0010    -2.9998     9.0000    10.0000     5.0000    14.0000    16.0000     5.0000    10.0000    16.0000    -0.0005     0.0005   159.4164   -41.1662     2.2944    49.2001     2.0000     1.0000     5.0003     0.000
      4     1.1500     0.0000     1.1501    34.2489    14.7000     47.630      9.000 150721.000     60.000    36.6052   -20.0773   -22.2162   120.0962    -0.1480    -3.0001   -65.4288     0.0000     0.0000     0.0000     1.0000     5.0000   300.0000    16.0485    10.5570     1.0010    -2.9998     9.0000    10.0000     5.0000    14.0000    16.0000     5.0000    10.0000    16.0000    -0.0005     0.0005   159.4164   -41.1662     2.2944    48.9489     2.0000     1.0000     4.9999     0.000
      5     1.1500     0.0000     1.1501    33.9999    14.7000     47.236      6.000 150721.000     60.000    36.6990   -20.0773   -22.2737   120.0962    -0.1480    -3.0001   -65.2446     0.0000     0.0000     0.0000     1.0000     5.0000   300.0000    15.2854    11.2113     1.0010    -2.9998     9.0000    10.0000     5.0000    14.0000    16.0000     5.0000    10.0000    16.0000    -0.0005     0.0005   159.4164   -41.1662     2.2945    48.6999     2.0000     1.0000     4.9998     0.000
      6     1.1500     0.0000     1.1500    33.7509    14.7000     46.462      8.000 150721.000     60.000    36.7936   -20.0773   -22.3316   120.0962    -0.1480    -3.0001   -65.0601     0.0000     0.0000     0.0000     1.0000     5.0000   300.0000    14.5621    11.8275     1.0010    -2.9998     9.0000    10.0000     5.0000    14.0000    16.0000     5.0000    10.0000    16.0000    -0.0005     0.0005   159.4164   -41.1662     2.2945    48.4509     2.0000     1.0000     5.0006     0.000
      7     1.1500     0.0000     1.1500    33.5000    14.7000     46.533     13.000 150721.000     60.000    36.8889   -20.0773   -22.3904   120.0962    -0.1480    -3.0001   -64.8752     0.0000     0.0000     0.0000     1.0000     5.0000   300.0000    13.8720    12.4172     1.0010    -2.9998     9.0000    10.0000     5.0000    14.0000    16.0000     5.0000    10.0000    16.0000    -0.0005     0.0005   159.4164   -41.1662     2.2944    48.2000     2.0000     1.0000     5.0001     0.000
      8     1.1500     0.0000     1.1502    33.2499    14.7000     45.987      8.000 150721.000     60.000    36.9849   -20.0773   -22.4494   120.0962    -0.1480    -3.0001   -64.6899     0.0000     0.0000     0.0000     1.0000     5.0000   300.0000    13.2108    12.9849     1.0010    -2.9998     9.0000    10.0000     5.0000    14.0000    16.0000     5.0000    10.0000    16.0000    -0.0005     0.0005   159.4164   -41.1662     2.2945    47.9499     2.0000     1.0000     5.0001     0.000
      9     1.1500     0.0000     1.1501    32.9999    14.7000     45.894      6.000 150721.000     60.000    37.0817   -20.0773   -22.5090   120.0962    -0.1480    -3.0001   -64.5042     0.0000     0.0000     0.0000     1.0000     5.0000   300.0000    12.5753    13.5253     1.0010    -2.9998     9.0000    10.0000     5.0000    14.0000    16.0000     5.0000    10.0000    16.0000    -0.0005     0.0005   159.4164   -41.1662     2.2944    47.6999     2.0000     1.0000     5.0006     0.000
     10     1.1500     0.0000     1.1499    32.7491    14.7000     45.953      5.000 150721.000     60.000    37.1793   -20.0773   -22.5691   120.0962    -0.1480    -3.0001   -64.3182     0.0000     0.0000     0.0000     1.0000     5.0000   300.0000    11.9612    14.0452     1.0010    -2.9998     9.0000    10.0000     5.0000    14.0000    16.0000     5.0000    10.0000    16.0000    -0.0005     0.0005   159.4164   -41.1662     2.2943    47.4491     2.0000     1.0000     5.0004     0.000
     11     1.1500     0.0000     1.1501    32.5008    14.7000     45.881      3.000 150721.000     60.000    37.2776   -20.0773   -22.6292   120.0962    -0.1480    -3.0001   -64.1317     0.0000     0.0000     0.0000     1.0000     5.0000   300.0000    11.3680    14.5544     1.0010    -2.9998     9.0000    10.0000     5.0000    14.0000    16.0000     5.0000    10.0000    16.0000    -0.0005     0.0005   159.4164   -41.1662     2.2945    47.2008     2.0000     1.0000     5.0009     0.000
     12     1.1500     0.0000     1.1499    32.2499    14.7000     45.871      5.000 150721.000     60.000    37.3767   -20.0773   -22.6904   120.0962    -0.1480    -3.0001   -63.9448     0.0000     0.0000     0.0000     1.0000     5.0000   300.0000    10.7919    15.0412     1.0010    -2.9998     9.0000    10.0000     5.0000    14.0000    16.0000     5.0000    10.0000    16.0000    -0.0005     0.0005   159.4164   -41.1662     2.2944    46.9499     2.0000     1.0000     5.0002     0.000
     13     1.1500     0.0000     1.1501    31.9998    14.7000     45.571      9.000 150721.000     60.000    37.4766   -20.0773   -22.7519   120.0962    -0.1480    -3.0001   -63.7576     0.0000     0.0000     0.0000     1.0000     5.0000   300.0000    10.2320    15.5204     1.0010    -2.9998     9.0000    10.0000     5.0000    14.0000    16.0000     5.0000    10.0000    16.0000    -0.0005     0.0005   159.4164   -41.1662     2.2945    46.6998     2.0000     1.0000     5.0002     0.000
     14     1.1500     0.0000     1.1501    31.7500    14.7000     45.578     10.000 150721.000     60.000    37.5773   -20.0773   -22.8138   120.0962    -0.1480    -3.0001   -63.5699     0.0000     0.0000     0.0000     1.0000     5.0000   300.0000     9.6865    15.9838     1.0010    -2.9998     9.0000    10.0000     5.0000    14.0000    16.0000     5.0000    10.0000    16.0000    -0.0005     0.0005   159.4164   -41.1662     2.2945    46.4500     2.0000     1.0000     4.9994     0.000
     15     1.1500     0.0000     1.1501    31.5005    14.7000     45.234     12.000 150721.000     60.000    37.6789   -20.0773   -22.8762   120.0962    -0.1480    -3.0001   -63.3819     0.0000     0.0000     0.0000     1.0000     5.0000   300.0000     9.1553    16.4340     1.0010    -2.9998     9.0000    10.0000     5.0000    14.0000    16.0000     5.0000    10.0000    16.0000    -0.0005     0.0005   159.4164   -41.1662     2.2945    46.2005     2.0000     1.0000     5.0009     0.000
     16     1.1500     0.0000     1.1500    31.2496    14.7000     45.118      9.000 150721.000     60.000    37.7812   -20.0773   -22.9394   120.0962    -0.1480    -3.0001   -63.1934     0.0000     0.0000     0.0000     1.0000     5.0000   300.0000     8.6353    16.8739     1.0010    -2.9998     9.0000    10.0000     5.0000    14.0000    16.0000     5.0000    10.0000    16.0000    -0.0005     0.0005   159.4164   -41.1662     2.2944    45.9496     2.0000     1.0000     5.0001     0.000
     17     1.1500     0.0000     1.1501    30.9992    14.7000     44.909     13.000 150721.000     60.000    37.8844   -20.0773   -23.0030   120.0962    -0.1480    -3.0001   -63.0045     0.0000     0.0000     0.0000     1.0000     5.0000   300.0000     8.1264    17.3058     1.0010    -2.9998     9.0000    10.0000     5.0000    14.0000    16.0000     5.0000    10.0000    16.0000    -0.0005     0.0005   159.4164   -41.1662     2.2944    45.6992     2.0000     1.0000     5.0001     0.000
     18     1.1500     0.0000     1.1502    30.7507    14.7000     44.672     15.000 150721.000     60.000    37.9885   -20.0773   -23.0667   120.0962    -0.1480    -3.0001   -62.8152     0.0000     0.0000     0.0000     1.0000     5.0000   300.0000     7.6292    17.7288     1.0010    -2.9998     9.0000    10.0000     5.0000    14.0000    16.0000     5.0000    10.0000    16.0000    -0.0005     0.0005   159.4164   -41.1662     2.2945    45.4507     2.0000     1.0000     5.0001     0.000
     19     1.1500     0.0000     1.1501    30.4997    14.7000     44.229     14.000 150721.000     60.000    38.0934   -20.0773   -23.1315   120.0962    -0.1480    -3.0001   -62.6255     0.0000     0.0000     0.0000     1.0000     5.0000   300.0000     7.1404    18.1414     1.0010    -2.9998     9.0000    10.0000     5.0000    14.0000    16.0000     5.0000    10.0000    16.0000    -0.0005     0.0005   159.4164   -41.1662     2.2945    45.1997     2.0000     1.0000     5.0003     0.000
     20     1.1500     0.0000     1.1501    30.2508    14.7000     43.922     19.000 150721.000     60.000    38.1992   -20.0773   -23.1963   120.0962    -0.1480    -3.0001   -62.4354     0.0000     0.0000     0.0000     1.0000     5.0000   300.0000     6.6612    18.5446     1.0010    -2.9998     9.0000    10.0000     5.0000    14.0000    16.0000     5.0000    10.0000    16.0000    -0.0005     0.0005   159.4164   -41.1662     2.2945    44.9509     2.0000     1.0000     5.0000     0.000
     21     1.1500     0.0000     1.1501    29.9995    14.7000     43.904     18.000 150721.000     60.000    38.3059   -20.0773   -23.2624   120.0962    -0.1480    -3.0001   -62.2448     0.0000     0.0000     0.0000     1.0000     5.0000   300.0000     6.1905    18.9424     1.0010    -2.9998     9.0000    10.0000     5.0000    14.0000    16.0000     5.0000    10.0000    16.0000    -0.0005     0.0005   159.4164   -41.1662     2.2944    44.6995     2.0000     1.0000     4.9992     0.000
     22     1.1500     0.0000     1.1501    29.7495    14.7000     43.743     12.000 150721.000     60.000    38.4134   -20.0773   -23.3286   120.0962    -0.1480    -3.0001   -62.0538     0.0000     0.0000     0.0000     1.0000     5.0000   300.0000     5.7276    19.3334     1.0010    -2.9998     9.0000    10.0000     5.0000    14.0000    16.0000     5.0000    10.0000    16.0000    -0.0005     0.0005   159.4164   -41.1662     2.2945    44.4495     2.0000     1.0000     5.0000     0.000
     23     1.1500     0.0000     1.1501    29.5002    14.7000     43.586     13.000 150721.000     60.000    38.5219   -20.0773   -23.3952   120.0962    -0.1480    -3.0001   -61.8623     0.0000     0.0000     0.0000     1.0000     5.0000   300.0000     5.2715    19.7168     1.0010    -2.9998     9.0000    10.0000     5.0000    14.0000    16.0000     5.0000    10.0000    16.0000    -0.0005     0.0005   159.4164   -41.1662     2.2945    44.2002     2.0000     1.0000     5.0009     0.000
     24     1.1500     0.0000     1.1500    29.2507    14.7000     43.502     13.000 150721.000     60.000    38.6313   -20.0773   -23.4625   120.0962    -0.1480    -3.0001   -61.6704     0.0000     0.0000     0.0000     1.0000     5.0000   300.0000     4.8231    20.0932     1.0010    -2.9998     9.0000    10.0000     5.0000    14.0000    16.0000     5.0000    10.0000    16.0000    -0.0005     0.0005   159.4164   -41.1662     2.2945    43.9507     2.0000     1.0000     5.0008     0.000
     25     1.1500     0.0000     1.1499    28.9994    14.7000     43.777     14.000 150721.000     60.000    38.7417   -20.0773   -23.5308   120.0962    -0.1480    -3.0001   -61.4781     0.0000     0.0000     0.0000     1.0000     5.0000   300.0000     4.3804    20.4639     1.0010    -2.9998     9.0000    10.0000     5.0000    14.0000    16.0000     5.0000    10.0000    16.0000    -0.0005     0.0005   159.4164   -41.1662     2.2944    43.6994     2.0000     1.0000     4.9995     0.000
     26     1.1500     0.0000     1.1500    28.7501    14.7000     43.499     12.000 150721.000     60.000    38.8530   -20.0773   -23.5992   120.0962    -0.1480    -3.0001   -61.2854     0.0000     0.0000     0.0000     1.0000     5.0000   300.0000     3.9446    20.8310     1.0010    -2.9998     9.0000    10.0000     5.0000    14.0000    16.0000     5.0000    10.0000    16.0000    -0.0005     0.0005   159.4164   -41.1662     2.2944    43.4502     2.0000     1.0000     5.0001     0.000
     27     1.1500     0.0000     1.1502    28.4997    14.7000     43.454     14.000 150721.000     60.000    38.9652   -20.0773   -23.6684   120.0962    -0.1480    -3.0001   -61.0922     0.0000     0.0000     0.0000     1.0000     5.0000   300.0000     3.5141    21.1970     1.0010    -2.9998     9.0000    10.0000     5.0000    14.0000    16.0000     5.0000    10.0000    16.0000    -0.0005     0.0005   159.4164   -41.1662     2.2946    43.1997     2.0000     1.0000     5.0000     0.000
     28     1.1500     0.0000     1.1501    28.2504    14.7000     43.421     10.000 150721.000     60.000    39.0785   -20.0773   -23.7380   120.0962    -0.1480    -3.0001   -60.8985     0.0000     0.0000     0.0000     1.0000     5.0000   300.0000     3.0893    21.5497     1.0010    -2.9998     9.0000    10.0000     5.0000    14.0000    16.0000     5.0000    10.0000    16.0000    -0.0005     0.0005   159.4164   -41.1662     2.2945    42.9504     2.0000     1.0000     4.9999     0.000
     29     1.1500     0.0000     1.1500    27.9999    14.7000     43.154     20.000 150721.000     60.000    39.1927   -20.0773   -23.8086   120.0962    -0.1480    -3.0001   -60.7044     0.0000     0.0000     0.0000     1.0000     5.0000   300.0000     2.6692    21.9005     1.0010    -2.9998     9.0000    10.0000     5.0000    14.0000    16.0000     5.0000    10.0000    16.0000    -0.0005     0.0005   159.4164   -41.1662     2.2944    42.6999     2.0000     1.0000     4.9995     0.000
     30     1.1500     0.0000     1.1500    27.7504    14.7000     42.830     10.000 150721.000     60.000    39.3079   -20.0773   -23.8795   120.0962    -0.1480    -3.0001   -60.5098     0.0000     0.0000     0.0000     1.0000     5.0000   300.0000     2.2546    22.2466     1.0010    -2.9998     9.0000    10.0000     5.0000    14.0000    16.0000     5.0000    10.0000    16.0000    -0.0005     0.0005   159.4164   -41.1662     2.2944    42.4504     2.0000     1.0000     4.9989     0.000
     31     1.1500     0.0000     1.1501    27.4996    14.7000     42.656     15.000 150721.000     60.000    39.4242   -20.0773   -23.9514   120.0962    -0.1480    -3.0001   -60.3147     0.0000     0.0000     0.0000     1.0000     5.0000   300.0000     1.8442    22.5928     1.0010    -2.9998     9.0000    10.0000     5.0000    14.0000    16.0000     5.0000    10.0000    16.0000    -0.0005     0.0005   159.4164   -41.1662     2.2945    42.1996     2.0000     1.0000     4.9984     0.000
     32     1.1500     0.0000     1.1501    27.2498    14.7000     42.343     21.000 150721.000     60.000    39.5415   -20.0773   -24.0236   120.0962    -0.1480    -3.0001   -60.1192     0.0000     0.0000     0.0000     1.0000     5.0000   300.0000     1.4389    22.9306     1.0010    -2.9998     9.0000    10.0000     5.0000    14.0000    16.0000     5.0000    10.0000    16.0000    -0.0005     0.0005   159.4164   -41.1662     2.2945    41.9498     2.0000     1.0000     5.0001     0.000
     33     1.1500     0.0000     1.1500    27.0010    14.7000     41.752     10.000 150721.000     60.000    39.6598   -20.0773   -24.0963   120.0962    -0.1480    -3.0001   -59.9232     0.0000     0.0000     0.0000     1.0000     5.0000   300.0000     1.0370    23.2641     1.0010    -2.9998     9.0000    10.0000     5.0000    14.0000    16.0000     5.0000    10.0000    16.0000    -0.0005     0.0005   159.4164   -41.1662     2.2945    41.7010     2.0000     1.0000     5.0001     0.000
     34     1.1500     0.0000     1.1501    26.7501    14.7000     41.412     18.000 150721.000     60.000    39.7792   -20.0773   -24.1702   120.0962    -0.1480    -3.0001   -59.7267     0.0000     0.0000     0.0000     1.0000     5.0000   300.0000     0.6398    23.5972     1.0010    -2.9998     9.0000    10.0000     5.0000    14.0000    16.0000     5.0000    10.0000    16.0000    -0.0005     0.0005   159.4164   -41.1662     2.2945    41.4501     2.0000     1.0000     4.9995     0.000
     35     1.1500     0.0000     1.1501    26.4991    14.7000     40.763     11.000 150721.000     60.000    39.8998   -20.0773   -24.2448   120.0962    -0.1480    -3.0001   -59.5297     0.0000     0.0000     0.0000     1.0000     5.0000   300.0000     0.2455    23.9231     1.0010    -2.9998     9.0000    10.0000     5.0000    14.0000    16.0000     5.0000    10.0000    16.0000    -0.0005     0.0005   159.4164   -41.1662     2.2944    41.1991     2.0000     1.0000     5.0002     0.000
     36     1.1500     0.0000     1.1500    26.2501    14.7000     40.656     11.000 150721.000     60.000    40.0214   -20.0773   -24.3195   120.0962    -0.1480    -3.0001   -59.3323     0.0000     0.0000     0.0000     1.0000     5.0000   300.0000    -0.1441    24.2462     1.0010    -2.9998     9.0000    10.0000     5.0000    14.0000    16.0000     5.0000    10.0000    16.0000    -0.0005     0.0005   159.4164   -41.1662     2.2944    40.9501     2.0000     1.0000     4.9994     0.000
     37     1.1500     0.0000     1.1501    26.0001    14.7000     39.936     18.000 150721.000     60.000    40.1441   -20.0773   -24.3953   120.0962    -0.1480    -3.0001   -59.1343     0.0000     0.0000     0.0000     1.0000     5.0000   300.0000    -0.5306    24.5688     1.0010    -2.9998     9.0000    10.0000     5.0000    14.0000    16.0000     5.0000    10.0000    16.0000    -0.0005     0.0005   159.4164   -41.1662     2.2945    40.7001     2.0000     1.0000     4.9989     0.000
     38     1.1500     0.0000     1.1500    25.7496    14.7000     39.565     13.000 150721.000     60.000    40.2680   -20.0773   -24.4719   120.0962    -0.1480    -3.0001   -58.9359     0.0000     0.0000     0.0000     1.0000     5.0000   300.0000    -0.9145    24.8853     1.0010    -2.9998     9.0000    10.0000     5.0000    14.0000    16.0000     5.0000    10.0000    16.0000    -0.0005     0.0005   159.4164   -41.1662     2.2944    40.4496     2.0000     1.0000     5.0002     0.000
     39     1.1500     0.0000     1.1501    25.5007    14.7000     39.459     17.000 150721.000     60.000    40.3930   -20.0773   -24.5487   120.0962    -0.1480    -3.0001   -58.7370     0.0000     0.0000     0.0000     1.0000     5.0000   300.0000    -1.2943    25.2007     1.0010    -2.9998     9.0000    10.0000     5.0000    14.0000    16.0000     5.0000    10.0000    16.0000    -0.0005     0.0005   159.4164   -41.1662     2.2945    40.2007     2.0000     1.0000     4.9981     0.000
     40     1.1500     0.0000     1.1500    25.2503    14.7000     39.129     24.000 150721.000     60.000    40.5192   -20.0773   -24.6267   120.0962    -0.1480    -3.0001   -58.5375     0.0000     0.0000     0.0000     1.0000     5.0000   300.0000    -1.6711    25.5117     1.0010    -2.9998     9.0000    10.0000     5.0000    14.0000    16.0000     5.0000    10.0000    16.0000    -0.0005     0.0005   159.4164   -41.1662     2.2945    39.9503     2.0000     1.0000     4.9981     0.000
     41     1.1500     0.0000     1.1500    24.9999    14.7000     38.847     21.000 150721.000     60.000    40.6465   -20.0773   -24.7054   120.0962    -0.1480    -3.0001   -58.3375     0.0000     0.0000     0.0000     1.0000     5.0000   300.0000    -2.0456    25.8206     1.0010    -2.9998     9.0000    10.0000     5.0000    14.0000    16.0000     5.0000    10.0000    16.0000    -0.0005     0.0005   159.4164   -41.1662     2.2944    39.6999     2.0000     1.0000     4.9996     0.000
     42     1.1500     0.0000     1.1501    24.7497    14.7000     38.941     16.000 150721.000     60.000    40.7751   -20.0773   -24.7849   120.0962    -0.1480    -3.0001   -58.1370     0.0000     0.0000     0.0000     1.0000     5.0000   300.0000    -2.4171    26.1288     1.0010    -2.9998     9.0000    10.0000     5.0000    14.0000    16.0000     5.0000    10.0000    16.0000    -0.0005     0.0005   159.4164   -41.1662     2.2945    39.4497     2.0000     1.0000     5.0008     0.000
     43     1.1500     0.0000     1.1501    24.5003    14.7000     39.002     12.000 150721.000     60.000    40.9049   -20.0773   -24.8649   120.0962    -0.1480    -3.0001   -57.9360     0.0000     0.0000     0.0000     1.0000     5.0000   300.0000    -2.7860    26.4322     1.0010    -2.9998     9.0000    10.0000     5.0000    14.0000    16.0000     5.0000    10.0000    16.0000    -0.0005     0.0005   159.4164   -41.1662     2.2945    39.2003     2.0000     1.0000     4.9998     0.000
     44     1.1500     0.0000     1.1500    24.2497    14.7000     39.185     16.000 150721.000     60.000    41.0360   -20.0773   -24.9460   120.0962    -0.1480    -3.0001   -57.7345     0.0000     0.0000     0.0000     1.0000     5.0000   300.0000    -3.1522    26.7336     1.0010    -2.9998     9.0000    10.0000     5.0000    14.0000    16.0000     5.0000    10.0000    16.0000    -0.0005     0.0005   159.4164   -41.1662     2.2945    38.9497     2.0000     1.0000     4.9999     0.000
     45     1.1500     0.0000     1.1500    24.0003    14.7000     39.566     26.000 150721.000     60.000    41.1683   -20.0773   -25.0276   120.0962    -0.1480    -3.0001   -57.5324     0.0000     0.0000     0.0000     1.0000     5.0000   300.0000    -3.5161    27.0316     1.0010    -2.9998     9.0000    10.0000     5.0000    14.0000    16.0000     5.0000    10.0000    16.0000    -0.0005     0.0005   159.4164   -41.1662     2.2944    38.7003     2.0000     1.0000     5.0012     0.000
     46     1.1500     0.0000     1.1501    23.7496    14.7000     39.637     27.000 150721.000     60.000    41.3020   -20.0773   -25.1104   120.0962    -0.1480    -3.0001   -57.3298     0.0000     0.0000     0.0000     1.0000     5.0000   300.0000    -3.8779    27.3310     1.0010    -2.9998     9.0000    10.0000     5.0000    14.0000    16.0000     5.0000    10.0000    16.0000    -0.0005     0.0005   159.4164   -41.1662     2.2945    38.4496     2.0000     1.0000     5.0017     0.000
     47     1.1500     0.0000     1.1500    23.5002    14.7000     40.002     31.000 150721.000     60.000    41.4369   -20.0773   -25.1935   120.0962    -0.1480    -3.0001   -57.1267     0.0000     0.0000     0.0000     1.0000     5.0000   300.0000    -4.2371    27.6229     1.0010    -2.9998     9.0000    10.0000     5.0000    14.0000    16.0000     5.0000    10.0000    16.0000    -0.0005     0.0005   159.4164   -41.1662     2.2944    38.2002     2.0000     1.0000     5.0023     0.000
     48     1.1500     0.0000     1.1500    23.2496    14.7000     40.286     27.000 150721.000     60.000    41.5732   -20.0773   -25.2780   120.0962    -0.1480    -3.0001   -56.9230     0.0000     0.0000     0.0000     1.0000     5.0000   300.0000    -4.5945    27.9168     1.0010    -2.9998     9.0000    10.0000     5.0000    14.0000    16.0000     5.0000    10.0000    16.0000    -0.0005     0.0005   159.4164   -41.1662     2.2944    37.9496     2.0000     1.0000     5.0004     0.000
     49     1.1500     0.0000     1.1501    23.0002    14.7000     40.579     36.000 150721.000     60.000    41.7108   -20.0773   -25.3628   120.0962    -0.1480    -3.0001   -56.7188     0.0000     0.0000     0.0000     1.0000     5.0000   300.0000    -4.9494    28.2080     1.0010    -2.9998     9.0000    10.0000     5.0000    14.0000    16.0000     5.0000    10.0000    16.0000    -0.0005     0.0005   159.4164   -41.1662     2.2945    37.7002     2.0000     1.0000     4.9997     0.000
     50     1.1500     0.0000     1.1500    22.7497    14.7000     41.284     24.000 150721.000     60.000    41.8497   -20.0773   -25.4489   120.0962    -0.1480    -3.0001   -56.5140     0.0000     0.0000     0.0000     1.0000     5.0000   300.0000    -5.3026    28.4954     1.0010    -2.9998     9.0000    10.0000     5.0000    14.0000    16.0000     5.0000    10.0000    16.0000    -0.0005     0.0005   159.4164   -41.1662     2.2944    37.4497     2.0000     1.0000     4.9993     0.000
     51     1.1501     0.0000     1.1501    22.5010    14.7000     41.477     28.000 150721.000     60.000    41.9902   -20.0773   -25.5353   120.0962    -0.1480    -3.0001   -56.3086     0.0000     0.0000     0.0000     1.0000     5.0000   300.0000    -5.6545    28.7851     1.0010    -2.9998     9.0000    10.0000     5.0000    14.0000    16.0000     5.0000    10.0000    16.0000    -0.0005     0.0005   159.4164   -41.1662     2.2946    37.2010     2.0000     1.0000     5.0002     0.000
     52     1.1500     0.0000     1.1500    22.2497    14.7000     41.839     25.000 150721.000     60.000    42.1320   -20.0773   -25.6235   120.0962    -0.1480    -3.0001   -56.1026     0.0000     0.0000     0.0000     1.0000     5.0000   300.0000    -6.0036    29.0649     1.0010    -2.9998     9.0000    10.0000     5.0000    14.0000    16.0000     5.0000    10.0000    16.0000    -0.0005     0.0005   159.4164   -41.1662     2.2944    36.9497     2.0000     1.0000     4.9994     0.000
     53     1.1500     0.0000     1.1500    22.0000    14.7000     42.367     27.000 150721.000     60.000    42.2752   -20.0773   -25.7120   120.0962    -0.1480    -3.0001   -55.8961     0.0000     0.0000     0.0000     1.0000     5.0000   300.0000    -6.3515    29.3493     1.0010    -2.9998     9.0000    10.0000     5.0000    14.0000    16.0000     5.0000    10.0000    16.0000    -0.0005     0.0005   159.4164   -41.1662     2.2944    36.7000     2.0000     1.0000     4.9981     0.000
     54     1.1500     0.0000     1.1500    21.7501    14.7000     42.579     22.000 150721.000     60.000    42.4200   -20.0773   -25.8014   120.0962    -0.1480    -3.0001   -55.6890     0.0000     0.0000     0.0000     1.0000     5.0000   300.0000    -6.6979    29.6294     1.0010    -2.9998     9.0000    10.0000     5.0000    14.0000    16.0000     5.0000    10.0000    16.0000    -0.0005     0.0005   159.4164   -41.1662     2.2944    36.4501     2.0000     1.0000     4.9986     0.000
     55     1.1500     0.0000     1.1501    21.4994    14.7000     42.946     19.000 150721.000     60.000    42.5662   -20.0773   -25.8922   120.0962    -0.1480    -3.0001   -55.4813     0.0000     0.0000     0.0000     1.0000     5.0000   300.0000    -7.0425    29.9107     1.0010    -2.9998     9.0000    10.0000     5.0000    14.0000    16.0000     5.0000    10.0000    16.0000    -0.0005     0.0005   159.4164   -41.1662     2.2944    36.1994     2.0000     1.0000     4.9995     0.000
     56     1.1500     0.0000     1.1501    21.2500    14.7000     43.136     16.000 150721.000     60.000    42.7139   -20.0773   -25.9834   120.0962    -0.1480    -3.0001   -55.2730     0.0000     0.0000     0.0000     1.0000     5.0000   300.0000    -7.3859    30.1903     1.0010    -2.9998     9.0000    10.0000     5.0000    14.0000    16.0000     5.0000    10.0000    16.0000    -0.0005     0.0005   159.4164   -41.1662     2.2945    35.9500     2.0000     1.0000     5.0011     0.000
     57     1.1500     0.0000     1.1500    21.0008    14.7000     42.949     12.000 150721.000     60.000    42.8632   -20.0773   -26.0756   120.0962    -0.1480    -3.0001   -55.0642     0.0000     0.0000     0.0000     1.0000     5.0000   300.0000    -7.7275    30.4651     1.0010    -2.9998     9.0000    10.0000     5.0000    14.0000    16.0000     5.0000    10.0000    16.0000    -0.0005     0.0005   159.4164   -41.1662     2.2945    35.7008     2.0000     1.0000     5.0007     0.000
     58     1.1500     0.0000     1.1501    20.7497    14.7000     42.990     16.000 150721.000     60.000    43.0141   -20.0773   -26.1694   120.0962    -0.1480    -3.0001   -54.8546     0.0000     0.0000     0.0000     1.0000     5.0000   300.0000    -8.0680    30.7403     1.0010    -2.9998     9.0000    10.0000     5.0000    14.0000    16.0000     5.0000    10.0000    16.0000    -0.0005     0.0005   159.4164   -41.1662     2.2945    35.4497     2.0000     1.0000     4.9996     0.000
     59     1.1500     0.0000     1.1500    20.4997    14.7000     42.974     11.000 150721.000     60.000    43.1666   -20.0773   -26.2638   120.0962    -0.1480    -3.0001   -54.6446     0.0000     0.0000     0.0000     1.0000     5.0000   300.0000    -8.4070    31.0121     1.0010    -2.9998     9.0000    10.0000     5.0000    14.0000    16.0000     5.0000    10.0000    16.0000    -0.0005     0.0005   159.4164   -41.1662     2.2944    35.1997     2.0000     1.0000     5.0000     0.000
     60     1.1500     0.0000     1.1501    20.2504    14.7000     43.201     10.000 150721.000     60.000    43.3207   -20.0773   -26.3590   120.0962    -0.1480    -3.0001   -54.4338     0.0000     0.0000     0.0000     1.0000     5.0000   300.0000    -8.7447    31.2859     1.0010    -2.9998     9.0000    10.0000     5.0000    14.0000    16.0000     5.0000    10.0000    16.0000    -0.0005     0.0005   159.4164   -41.1662     2.2945    34.9504     2.0000     1.0000     5.0014     0.000
     61     1.1500     0.0000     1.1501    19.9997    14.7000     43.520      9.000 150721.000     60.000    43.4765   -20.0773   -26.4557   120.0962    -0.1480    -3.0001   -54.2224     0.0000     0.0000     0.0000     1.0000     5.0000   300.0000    -9.0816    31.5562     1.0010    -2.9998     9.0000    10.0000     5.0000    14.0000    16.0000     5.0000    10.0000    16.0000    -0.0005     0.0005   159.4164   -41.1662     2.2945    34.6997     2.0000     1.0000     4.9994     0.000
     62     1.1500     0.0000     1.1500    19.7500    14.7000     43.802      5.000 150721.000     60.000    43.6339   -20.0773   -26.5532   120.0962    -0.1480    -3.0001   -54.0105     0.0000     0.0000     0.0000     1.0000     5.0000   300.0000    -9.4171    31.8235     1.0010    -2.9998     9.0000    10.0000     5.0000    14.0000    16.0000     5.0000    10.0000    16.0000    -0.0005     0.0005   159.4164   -41.1662     2.2944    34.4500     2.0000     1.0000     4.9993     0.000
     63     1.1500     0.0000     1.1500    19.4999    14.7000     44.118     14.000 150721.000     60.000    43.7931   -20.0773   -26.6519   120.0962    -0.1480    -3.0001   -53.7978     0.0000     0.0000     0.0000     1.0000     5.0000   300.0000    -9.7516    32.0922     1.0010    -2.9998     9.0000    10.0000     5.0000    14.0000    16.0000     5.0000    10.0000    16.0000    -0.0005     0.0005   159.4164   -41.1662     2.2944    34.1999     2.0000     1.0000     5.0027     0.000
     64     1.1500     0.0000     1.1501    19.2501    14.7000     44.219      3.000 150721.000     60.000    43.9541   -20.0773   -26.7516   120.0962    -0.1480    -3.0001   -53.5845     0.0000     0.0000     0.0000     1.0000     5.0000   300.0000   -10.0847    32.3603     1.0010    -2.9998     9.0000    10.0000     5.0000    14.0000    16.0000     5.0000    10.0000    16.0000    -0.0005     0.0005   159.4164   -41.1662     2.2945    33.9501     2.0000     1.0000     4.9993     0.000
     65     1.1500     0.0000     1.1500    19.0003    14.7000     44.883     11.000 150721.000     60.000    44.1168   -20.0773   -26.8524   120.0962    -0.1480    -3.0001   -53.3706     0.0000     0.0000     0.0000     1.0000     5.0000   300.0000   -10.4176    32.6231     1.0010    -2.9998     9.0000    10.0000     5.0000    14.0000    16.0000     5.0000    10.0000    16.0000    -0.0005     0.0005   159.4164   -41.1662     2.2944    33.7003     2.0000     1.0000     5.0001     0.000
     66     1.1500     0.0000     1.1500    18.7495    14.7000     45.395      7.000 150721.000     60.000    44.2813   -20.0773   -26.9548   120.0962    -0.1480    -3.0001   -53.1560     0.0000     0.0000     0.0000     1.0000     5.0000   300.0000   -10.7492    32.8879     1.0010    -2.9998     9.0000    10.0000     5.0000    14.0000    16.0000     5.0000    10.0000    16.0000    -0.0005     0.0005   159.4164   -41.1662     2.2944    33.4495     2.0000     1.0000     5.0003     0.000
     67     1.1500     0.0000     1.1500    18.5000    14.7000     45.556      4.000 150721.000     60.000    44.4478   -20.0773   -27.0578   120.0962    -0.1480    -3.0001   -52.9407     0.0000     0.0000     0.0000     1.0000     5.0000   300.0000   -11.0796    33.1521     1.0010    -2.9998     9.0000    10.0000     5.0000    14.0000    16.0000     5.0000    10.0000    16.0000    -0.0005     0.0005   159.4164   -41.1662     2.2945    33.2000     2.0000     1.0000     5.0006     0.000
     68     1.1500     0.0000     1.1500    18.2504    14.7000     45.773     13.000 150721.000     60.000    44.6161   -20.0773   -27.1620   120.0962    -0.1480    -3.0001   -52.7248     0.0000     0.0000     0.0000     1.0000     5.0000   300.0000   -11.4095    33.4139     1.0010    -2.9998     9.0000    10.0000     5.0000    14.0000    16.0000     5.0000    10.0000    16.0000    -0.0005     0.0005   159.4164   -41.1662     2.2945    32.9504     2.0000     1.0000     4.9992     0.000
     69     1.1500     0.0000     1.1500    17.9999    14.7000     45.894      6.000 150721.000     60.000    44.7863   -20.0773   -27.2678   120.0962    -0.1480    -3.0001   -52.5081     0.0000     0.0000     0.0000     1.0000     5.0000   300.0000   -11.7389    33.6737     1.0010    -2.9998     9.0000    10.0000     5.0000    14.0000    16.0000     5.0000    10.0000    16.0000    -0.0005     0.0005   159.4164   -41.1662     2.2944    32.7000     2.0000     1.0000     5.0012     0.000
     70     1.1500     0.0000     1.1500    17.7503    14.7000     46.155      3.000 150721.000     60.000    44.9585   -20.0773   -27.3745   120.0962    -0.1480    -3.0001   -52.2908     0.0000     0.0000     0.0000     1.0000     5.0000   300.0000   -12.0668    33.9349     1.0010    -2.9998     9.0000    10.0000     5.0000    14.0000    16.0000     5.0000    10.0000    16.0000    -0.0005     0.0005   159.4164   -41.1662     2.2945    32.4504     2.0000     1.0000     5.0002     0.000
     71     1.1500     0.0000     1.1501    17.4998    14.7000     46.615      7.000 150721.000     60.000    45.1326   -20.0773   -27.4829   120.0962    -0.1480    -3.0001   -52.0728     0.0000     0.0000     0.0000     1.0000     5.0000   300.0000   -12.3948    34.1958     1.0010    -2.9998     9.0000    10.0000     5.0000    14.0000    16.0000     5.0000    10.0000    16.0000    -0.0005     0.0005   159.4164   -41.1662     2.2945    32.1999     2.0000     1.0000     4.9998     0.000
     72     1.1500     0.0000     1.1501    17.2498    14.7000     46.842     11.000 150721.000     60.000    45.3089   -20.0773   -27.5924   120.0962    -0.1480    -3.0001   -51.8540     0.0000     0.0000     0.0000     1.0000     5.0000   300.0000   -12.7219    34.4529     1.0010    -2.9998     9.0000    10.0000     5.0000    14.0000    16.0000     5.0000    10.0000    16.0000    -0.0005     0.0005   159.4164   -41.1662     2.2945    31.9498     2.0000     1.0000     5.0001     0.000
     73     1.1500     0.0000     1.1500    17.0002    14.7000     47.292      4.000 150721.000     60.000    45.4872   -20.0773   -27.7029   120.0962    -0.1480    -3.0001   -51.6345     0.0000     0.0000     0.0000     1.0000     5.0000   300.0000   -13.0482    34.7082     1.0010    -2.9998     9.0000    10.0000     5.0000    14.0000    16.0000     5.0000    10.0000    16.0000    -0.0005     0.0005   159.4164   -41.1662     2.2944    31.7003     2.0000     1.0000     4.9993     0.000
     74     1.1500     0.0000     1.1501    16.7498    14.7000     47.769      4.000 150721.000     60.000    45.6676   -20.0773   -27.8152   120.0962    -0.1480    -3.0001   -51.4143     0.0000     0.0000     0.0000     1.0000     5.0000   300.0000   -13.3745    34.9657     1.0010    -2.9998     9.0000    10.0000     5.0000    14.0000    16.0000     5.0000    10.0000    16.0000    -0.0005     0.0005   159.4164   -41.1662     2.2945    31.4498     2.0000     1.0000     4.9992     0.000
     75     1.1500     0.0000     1.1500    16.5002    14.7000     47.515      8.000 150721.000     60.000    45.8503   -20.0773   -27.9285   120.0962    -0.1480    -3.0001   -51.1934     0.0000     0.0000     0.0000     1.0000     5.0000   300.0000   -13.6995    35.2194     1.0010    -2.9998     9.0000    10.0000     5.0000    14.0000    16.0000     5.0000    10.0000    16.0000    -0.0005     0.0005   159.4164   -41.1662     2.2944    31.2002     2.0000     1.0000     4.9996     0.000
     76     1.1500     0.0000     1.1500    16.2497    14.7000     47.691      8.000 150721.000     60.000    46.0351   -20.0773   -28.0436   120.0962    -0.1480    -3.0001   -50.9717     0.0000     0.0000     0.0000     1.0000     5.0000   300.0000   -14.0245    35.4741     1.0010    -2.9998     9.0000    10.0000     5.0000    14.0000    16.0000     5.0000    10.0000    16.0000    -0.0005     0.0005   159.4164   -41.1662     2.2944    30.9497     2.0000     1.0000     4.9992     0.000
     77     1.1500     0.0000     1.1500    15.9999    14.7000     47.730     10.000 150721.000     60.000    46.2221   -20.0773   -28.1598   120.0962    -0.1480    -3.0001   -50.7492     0.0000     0.0000     0.0000     1.0000     5.0000   300.0000   -14.3491    35.7275     1.0010    -2.9998     9.0000    10.0000     5.0000    14.0000    16.0000     5.0000    10.0000    16.0000    -0.0005     0.0005   159.4164   -41.1662     2.2944    30.6999     2.0000     1.0000     4.9998     0.000
     78     1.1501     0.0000     1.1501    15.7504    14.7000     47.695      1.000 150721.000     60.000    46.4115   -20.0773   -28.2773   120.0962    -0.1480    -3.0001   -50.5260     0.0000     0.0000     0.0000     1.0000     5.0000   300.0000   -14.6732    35.9818     1.0010    -2.9998     9.0000    10.0000     5.0000    14.0000    16.0000     5.0000    10.0000    16.0000    -0.0005     0.0005   159.4164   -41.1662     2.2946    30.4504     2.0000     1.0000     5.0006     0.000
     79     1.1500     0.0000     1.1500    15.4998    14.7000     48.405      5.000 150721.000     60.000    46.6032   -20.0773   -28.3968   120.0962    -0.1480    -3.0001   -50.3021     0.0000     0.0000     0.0000     1.0000     5.0000   300.0000   -14.9969    36.2320     1.0010    -2.9998     9.0000    10.0000     5.0000    14.0000    16.0000     5.0000    10.0000    16.0000    -0.0005     0.0005   159.4164   -41.1662     2.2944    30.1998     2.0000     1.0000     4.9998     0.000
     80     1.1500     0.0000     1.1500    15.2501    14.7000     48.698      7.000 150721.000     60.000    46.7972   -20.0773   -28.5175   120.0962    -0.1480    -3.0001   -50.0773     0.0000     0.0000     0.0000     1.0000     5.0000   300.0000   -15.3206    36.4816     1.0010    -2.9998     9.0000    10.0000     5.0000    14.0000    16.0000     5.0000    10.0000    16.0000    -0.0005     0.0005   159.4164   -41.1662     2.2944    29.9501     2.0000     1.0000     5.0001     0.000
     81     1.1500     0.0000     1.1500    15.0001    14.7000     48.875      7.000 150721.000     60.000    46.9938   -20.0773   -28.6398   120.0962    -0.1480    -3.0001   -49.8518     0.0000     0.0000     0.0000     1.0000     5.0000   300.0000   -15.6441    36.7330     1.0010    -2.9998     9.0000    10.0000     5.0000    14.0000    16.0000     5.0000    10.0000    16.0000    -0.0005     0.0005   159.4164   -41.1662     2.2944    29.7001     2.0000     1.0000     5.0002     0.000
     82     1.1500     0.0000     1.1501    14.7499    14.7000     48.809      5.000 150721.000     60.000    47.1929   -20.0773   -28.7638   120.0962    -0.1480    -3.0001   -49.6254     0.0000     0.0000     0.0000     1.0000     5.0000   300.0000   -15.9665    36.9846     1.0010    -2.9998     9.0000    10.0000     5.0000    14.0000    16.0000     5.0000    10.0000    16.0000    -0.0005     0.0005   159.4164   -41.1662     2.2945    29.4499     2.0000     1.0000     5.0005     0.000
     83     1.1500     0.0000     1.1501    14.4999    14.7000     48.185      9.000 150721.000     60.000    47.3944   -20.0773   -28.8893   120.0962    -0.1480    -3.0001   -49.3982     0.0000     0.0000     0.0000     1.0000     5.0000   300.0000   -16.2898    37.2330     1.0010    -2.9998     9.0000    10.0000     5.0000    14.0000    16.0000     5.0000    10.0000    16.0000    -0.0005     0.0005   159.4164   -41.1662     2.2945    29.1999     2.0000     1.0000     5.0000     0.000
     84     1.1500     0.0000     1.1500    14.2506    14.7000     47.537      3.000 150721.000     60.000    47.5986   -20.0773   -29.0162   120.0962    -0.1480    -3.0001   -49.1702     0.0000     0.0000     0.0000     1.0000     5.0000   300.0000   -16.6124    37.4792     1.0010    -2.9998     9.0000    10.0000     5.0000    14.0000    16.0000     5.0000    10.0000    16.0000    -0.0005     0.0005   159.4164   -41.1662     2.2944    28.9506     2.0000     1.0000     5.0004     0.000
     85     1.1500     0.0000     1.1501    13.9994    14.7000     46.783      7.000 150721.000     60.000    47.8055   -20.0773   -29.1456   120.0962    -0.1480    -3.0001   -48.9414     0.0000     0.0000     0.0000     1.0000     5.0000   300.0000   -16.9351    37.7290     1.0010    -2.9998     9.0000    10.0000     5.0000    14.0000    16.0000     5.0000    10.0000    16.0000    -0.0005     0.0005   159.4164   -41.1662     2.2945    28.6995     2.0000     1.0000     4.9987     0.000
     86     1.1501     0.0000     1.1501    13.7502    14.7000     46.151      7.000 150721.000     60.000    48.0151   -20.0773   -29.2759   120.0962    -0.1480    -3.0001   -48.7117     0.0000     0.0000     0.0000     1.0000     5.0000   300.0000   -17.2574    37.9767     1.0010    -2.9998     9.0000    10.0000     5.0000    14.0000    16.0000     5.0000    10.0000    16.0000    -0.0005     0.0005   159.4164   -41.1662     2.2946    28.4502     2.0000     1.0000     5.0009     0.000
     87     1.1500     0.0000     1.1500    13.5004    14.7000     45.492      5.000 150721.000     60.000    48.2274   -20.0773   -29.4082   120.0962    -0.1480    -3.0001   -48.4811     0.0000     0.0000     0.0000     1.0000     5.0000   300.0000   -17.5801    38.2212     1.0010    -2.9998     9.0000    10.0000     5.0000    14.0000    16.0000     5.0000    10.0000    16.0000    -0.0005     0.0005   159.4164   -41.1662     2.2945    28.2004     2.0000     1.0000     5.0007     0.000
     88     1.1500     0.0000     1.1500    13.2496    14.7000     45.666      4.000 150721.000     60.000    48.4427   -20.0773   -29.5428   120.0962    -0.1480    -3.0001   -48.2497     0.0000     0.0000     0.0000     1.0000     5.0000   300.0000   -17.9026    38.4664     1.0010    -2.9998     9.0000    10.0000     5.0000    14.0000    16.0000     5.0000    10.0000    16.0000    -0.0005     0.0005   159.4164   -41.1662     2.2944    27.9496     2.0000     1.0000     5.0002     0.000
     89     1.1500     0.0000     1.1500    13.0000    14.7000     46.221      1.000 150721.000     60.000    48.6608   -20.0773   -29.6786   120.0962    -0.1480    -3.0001   -48.0174     0.0000     0.0000     0.0000     1.0000     5.0000   300.0000   -18.2251    38.7115     1.0010    -2.9998     9.0000    10.0000     5.0000    14.0000    16.0000     5.0000    10.0000    16.0000    -0.0005     0.0005   159.4164   -41.1662     2.2944    27.7000     2.0000     1.0000     5.0009     0.000
     90     1.1500     0.0000     1.1500    12.7500    14.7000     46.731      7.000 150721.000     60.000    48.8819   -20.0773   -29.8166   120.0962    -0.1480    -3.0001   -47.7842     0.0000     0.0000     0.0000     1.0000     5.0000   300.0000   -18.5478    38.9568     1.0010    -2.9998     9.0000    10.0000     5.0000    14.0000    16.0000     5.0000    10.0000    16.0000    -0.0005     0.0005   159.4164   -41.1662     2.2945    27.4500     2.0000     1.0000     5.0010     0.000
     91     1.1500     0.0000     1.1500    12.4999    14.7000     47.756      2.000 150721.000     60.000    49.1060   -20.0773   -29.9566   120.0962    -0.1480    -3.0001   -47.5501     0.0000     0.0000     0.0000     1.0000     5.0000   300.0000   -18.8706    39.2013     1.0010    -2.9998     9.0000    10.0000     5.0000    14.0000    16.0000     5.0000    10.0000    16.0000    -0.0005     0.0005   159.4164   -41.1662     2.2945    27.1999     2.0000     1.0000     4.9996     0.000
     92     1.1500     0.0000     1.1500    12.2503    14.7000     48.552      6.000 150721.000     60.000    49.3332   -20.0773   -30.0982   120.0962    -0.1480    -3.0001   -47.3151     0.0000     0.0000     0.0000     1.0000     5.0000   300.0000   -19.1939    39.4452     1.0010    -2.9998     9.0000    10.0000     5.0000    14.0000    16.0000     5.0000    10.0000    16.0000    -0.0005     0.0005   159.4164   -41.1662     2.2945    26.9504     2.0000     1.0000     5.0005     0.000
     93     1.1500     0.0000     1.1500    11.9997    14.7000     49.141      4.000 150721.000     60.000    49.5636   -20.0773   -30.2425   120.0962    -0.1480    -3.0001   -47.0791     0.0000     0.0000     0.0000     1.0000     5.0000   300.0000   -19.5162    39.6875     1.0010    -2.9998     9.0000    10.0000     5.0000    14.0000    16.0000     5.0000    10.0000    16.0000    -0.0005     0.0005   159.4164   -41.1662     2.2944    26.6997     2.0000     1.0000     4.9996     0.000
     94     1.1500     0.0000     1.1500    11.7499    14.7000     48.927      5.000 150721.000     60.000    49.7973   -20.0773   -30.3884   120.0962    -0.1480    -3.0001   -46.8422     0.0000     0.0000     0.0000     1.0000     5.0000   300.0000   -19.8400    39.9304     1.0010    -2.9998     9.0000    10.0000     5.0000    14.0000    16.0000     5.0000    10.0000    16.0000    -0.0005     0.0005   159.4164   -41.1662     2.2945    26.4499     2.0000     1.0000     5.0011     0.000
     95     1.1501     0.0000     1.1501    11.5002    14.7000     48.937      6.000 150721.000     60.000    50.0343   -20.0773   -30.5364   120.0962    -0.1480    -3.0001   -46.6044     0.0000     0.0000     0.0000     1.0000     5.0000   300.0000   -20.1639    40.1751     1.0010    -2.9998     9.0000    10.0000     5.0000    14.0000    16.0000     5.0000    10.0000    16.0000    -0.0005     0.0005   159.4164   -41.1662     2.2946    26.2002     2.0000     1.0000     4.9991     0.000
     96     1.1500     0.0000     1.1501    11.2500    14.7000     48.621      5.000 150721.000     60.000    50.2748   -20.0773   -30.6869   120.0962    -0.1480    -3.0001   -46.3655     0.0000     0.0000     0.0000     1.0000     5.0000   300.0000   -20.4872    40.4153     1.0010    -2.9998     9.0000    10.0000     5.0000    14.0000    16.0000     5.0000    10.0000    16.0000    -0.0005     0.0005   159.4164   -41.1662     2.2945    25.9500     2.0000     1.0000     4.9999     0.000
     97     1.1500     0.0000     1.1500    10.9999    14.7000     48.185      4.000 150721.000     60.000    50.5187   -20.0773   -30.8395   120.0962    -0.1480    -3.0001   -46.1257     0.0000     0.0000     0.0000     1.0000     5.0000   300.0000   -20.8121    40.6552     1.0010    -2.9998     9.0000    10.0000     5.0000    14.0000    16.0000     5.0000    10.0000    16.0000    -0.0005     0.0005   159.4164   -41.1662     2.2945    25.6999     2.0000     1.0000     5.0000     0.000
     98     1.1500     0.0000     1.1500    10.7500    14.7000     47.998      4.000 150721.000     60.000    50.7662   -20.0773   -30.9943   120.0962    -0.1480    -3.0001   -45.8849     0.0000     0.0000     0.0000     1.0000     5.0000   300.0000   -21.1366    40.8950     1.0010    -2.9998     9.0000    10.0000     5.0000    14.0000    16.0000     5.0000    10.0000    16.0000    -0.0005     0.0005   159.4164   -41.1662     2.2944    25.4500     2.0000     1.0000     5.0003     0.000
     99     1.1500     0.0000     1.1500    10.5000    14.7000     47.971      7.000 150721.000     60.000    51.0174   -20.0773   -31.1516   120.0962    -0.1480    -3.0001   -45.6430     0.0000     0.0000     0.0000     1.0000     5.0000   300.0000   -21.4619    41.1369     1.0010    -2.9998     9.0000    10.0000     5.0000    14.0000    16.0000     5.0000    10.0000    16.0000    -0.0005     0.0005   159.4164   -41.1662     2.2945    25.2000     2.0000     1.0000     4.9998     0.000
    100     1.1501     0.0000     1.1501    10.2503    14.7000     48.086      7.000 150721.000     60.000    51.2724   -20.0773   -31.3111   120.0962    -0.1480    -3.0001   -45.4002     0.0000     0.0000     0.0000     1.0000     5.0000   300.0000   -21.7873    41.3787     1.0010    -2.9998     9.0000    10.0000     5.0000    14.0000    16.0000     5.0000    10.0000    16.0000    -0.0005     0.0005   159.4164   -41.1662     2.2946    24.9503     2.0000     1.0000     5.0005     0.000
    101     1.1500     0.0000     1.1500    10.0000    14.7000     48.972      7.000 150721.000     60.000    51.5312   -20.0773   -31.4734   120.0962    -0.1480    -3.0001   -45.1562     0.0000     0.0000     0.0000     1.0000     5.0000   300.0000   -22.1140    41.6164     1.0010    -2.9998     9.0000    10.0000     5.0000    14.0000    16.0000     5.0000    10.0000    16.0000    -0.0005     0.0005   159.4164   -41.1662     2.2945    24.7000     2.0000     1.0000     4.9997     0.000
    102     1.1500     0.0000     1.1500     9.7498    14.7000     49.715      6.000 150721.000     60.000    51.7940   -20.0773   -31.6382   120.0962    -0.1480    -3.0001   -44.9112     0.0000     0.0000     0.0000     1.0000     5.0000   300.0000   -22.4399    41.8550     1.0010    -2.9998     9.0000    10.0000     5.0000    14.0000    16.0000     5.0000    10.0000    16.0000    -0.0005     0.0005   159.4164   -41.1662     2.2944    24.4498     2.0000     1.0000     5.0003     0.000
    103     1.1500     0.0000     1.1500     9.4998    14.7000     50.469      3.000 150721.000     60.000    52.0609   -20.0773   -31.8055   120.0962    -0.1480    -3.0001   -44.6652     0.0000     0.0000     0.0000     1.0000     5.0000   300.0000   -22.7676    42.0938     1.0010    -2.9998     9.0000    10.0000     5.0000    14.0000    16.0000     5.0000    10.0000    16.0000    -0.0005     0.0005   159.4164   -41.1662     2.2944    24.1998     2.0000     1.0000     5.0003     0.000
    104     1.1501     0.0000     1.1501     9.2501    14.7000     51.221      5.000 150721.000     60.000    52.3319   -20.0773   -31.9753   120.0962    -0.1480    -3.0001   -44.4180     0.0000     0.0000     0.0000     1.0000     5.0000   300.0000   -23.0956    42.3355     1.0010    -2.9998     9.0000    10.0000     5.0000    14.0000    16.0000     5.0000    10.0000    16.0000    -0.0005     0.0005   159.4164   -41.1662     2.2946    23.9501     2.0000     1.0000     5.0006     0.000
    105     1.1500     0.0000     1.1500     9.0000    14.7000     50.767      8.000 150721.000     60.000    52.6071   -20.0773   -32.1481   120.0962    -0.1480    -3.0001   -44.1697     0.0000     0.0000     0.0000     1.0000     5.0000   300.0000   -23.4241    42.5727     1.0010    -2.9998     9.0000    10.0000     5.0000    14.0000    16.0000     5.0000    10.0000    16.0000    -0.0005     0.0005   159.4164   -41.1662     2.2945    23.7000     2.0000     1.0000     5.0005     0.000
    106     1.1500     0.0000     1.1500     8.7501    14.7000     49.572      6.000 150721.000     60.000    52.8868   -20.0773   -32.3236   120.0962    -0.1480    -3.0001   -43.9203     0.0000     0.0000     0.0000     1.0000     5.0000   300.0000   -23.7536    42.8113     1.0010    -2.9998     9.0000    10.0000     5.0000    14.0000    16.0000     5.0000    10.0000    16.0000    -0.0005     0.0005   159.4164   -41.1662     2.2945    23.4501     2.0000     1.0000     5.0006     0.000
    107     1.1500     0.0000     1.1500     8.4998    14.7000     47.712      4.000 150721.000     60.000    53.1710   -20.0773   -32.5023   120.0962    -0.1480    -3.0001   -43.6697     0.0000     0.0000     0.0000     1.0000     5.0000   300.0000   -24.0834    43.0466     1.0010    -2.9998     9.0000    10.0000     5.0000    14.0000    16.0000     5.0000    10.0000    16.0000    -0.0005     0.0005   159.4164   -41.1662     2.2944    23.1998     2.0000     1.0000     4.9986     0.000
    108     1.1500     0.0000     1.1500     8.2502    14.7000     46.110      6.000 150721.000     60.000    53.4598   -20.0773   -32.6835   120.0962    -0.1480    -3.0001   -43.4180     0.0000     0.0000     0.0000     1.0000     5.0000   300.0000   -24.4146    43.2859     1.0010    -2.9998     9.0000    10.0000     5.0000    14.0000    16.0000     5.0000    10.0000    16.0000    -0.0005     0.0005   159.4164   -41.1662     2.2945    22.9502     2.0000     1.0000     5.0000     0.000
    109     1.1500     0.0000     1.1500     7.9998    14.7000     44.895      2.000 150721.000     60.000    53.7534   -20.0773   -32.8684   120.0962    -0.1480    -3.0001   -43.1651     0.0000     0.0000     0.0000     1.0000     5.0000   300.0000   -24.7459    43.5227     1.0010    -2.9998     9.0000    10.0000     5.0000    14.0000    16.0000     5.0000    10.0000    16.0000    -0.0005     0.0005   159.4164   -41.1662     2.2945    22.6998     2.0000     1.0000     4.9998     0.000
    110     1.1501     0.0000     1.1500     7.7500    14.7000     44.257      8.000 150721.000     60.000    54.0519   -20.0773   -33.0559   120.0962    -0.1480    -3.0001   -42.9109     0.0000     0.0000     0.0000     1.0000     5.0000   300.0000   -25.0791    43.7617     1.0010    -2.9998     9.0000    10.0000     5.0000    14.0000    16.0000     5.0000    10.0000    16.0000    -0.0005     0.0005   159.4164   -41.1662     2.2946    22.4500     2.0000     1.0000     4.9995     0.000
    111     1.1500     0.0000     1.1500     7.5000    14.7000     44.255     11.000 150721.000     60.000    54.3554   -20.0773   -33.2469   120.0962    -0.1480    -3.0001   -42.6556     0.0000     0.0000     0.0000     1.0000     5.0000   300.0000   -25.4124    43.9970     1.0010    -2.9998     9.0000    10.0000     5.0000    14.0000    16.0000     5.0000    10.0000    16.0000    -0.0005     0.0005   159.4164   -41.1662     2.2945    22.2000     2.0000     1.0000     4.9998     0.000
    112     1.1500     0.0000     1.1500     7.2501    14.7000     44.399      7.000 150721.000     60.000    54.6640   -20.0773   -33.4412   120.0962    -0.1480    -3.0001   -42.3989     0.0000     0.0000     0.0000     1.0000     5.0000   300.0000   -25.7471    44.2322     1.0010    -2.9998     9.0000    10.0000     5.0000    14.0000    16.0000     5.0000    10.0000    16.0000    -0.0005     0.0005   159.4164   -41.1662     2.2944    21.9501     2.0000     1.0000     5.0022     0.000
    113     1.1500     0.0000     1.1500     6.9998    14.7000     44.531      6.000 150721.000     60.000    54.9780   -20.0773   -33.6392   120.0962    -0.1480    -3.0001   -42.1410     0.0000     0.0000     0.0000     1.0000     5.0000   300.0000   -26.0829    44.4686     1.0010    -2.9998     9.0000    10.0000     5.0000    14.0000    16.0000     5.0000    10.0000    16.0000    -0.0005     0.0005   159.4164   -41.1662     2.2944    21.6998     2.0000     1.0000     4.9997     0.000
    114     1.1500     0.0000     1.1500     6.7503    14.7000     44.691      3.000 150721.000     60.000    55.2975   -20.0773   -33.8402   120.0962    -0.1480    -3.0001   -41.8818     0.0000     0.0000     0.0000     1.0000     5.0000   300.0000   -26.4198    44.7040     1.0010    -2.9998     9.0000    10.0000     5.0000    14.0000    16.0000     5.0000    10.0000    16.0000    -0.0005     0.0005   159.4164   -41.1662     2.2944    21.4503     2.0000     1.0000     5.0022     0.000
    115     1.1500     0.0000     1.1500     6.4998    14.7000     45.178      1.000 150721.000     60.000    55.6225   -20.0773   -34.0455   120.0962    -0.1480    -3.0001   -41.6214     0.0000     0.0000     0.0000     1.0000     5.0000   300.0000   -26.7575    44.9411     1.0010    -2.9998     9.0000    10.0000     5.0000    14.0000    16.0000     5.0000    10.0000    16.0000    -0.0005     0.0005   159.4164   -41.1662     2.2944    21.1998     2.0000     1.0000     4.9997     0.000
    116     1.1500     0.0000     1.1500     6.2502    14.7000     45.947      4.000 150721.000     60.000    55.9535   -20.0773   -34.2539   120.0962    -0.1480    -3.0001   -41.3595     0.0000     0.0000     0.0000     1.0000     5.0000   300.0000   -27.0968    45.1781     1.0010    -2.9998     9.0000    10.0000     5.0000    14.0000    16.0000     5.0000    10.0000    16.0000    -0.0005     0.0005   159.4164   -41.1662     2.2945    20.9503     2.0000     1.0000     4.9997     0.000
    117     1.1500     0.0000     1.1500     5.9999    14.7000     46.592      3.000 150721.000     60.000    56.2903   -20.0773   -34.4669   120.0962    -0.1480    -3.0001   -41.0963     0.0000     0.0000     0.0000     1.0000     5.0000   300.0000   -27.4371    45.4125     1.0010    -2.9998     9.0000    10.0000     5.0000    14.0000    16.0000     5.0000    10.0000    16.0000    -0.0005     0.0005   159.4164   -41.1662     2.2945    20.6999     2.0000     1.0000     4.9995     0.000
    118     1.1500     0.0000     1.1500     5.7501    14.7000     47.737      2.000 150721.000     60.000    56.6333   -20.0773   -34.6834   120.0962    -0.1480    -3.0001   -40.8317     0.0000     0.0000     0.0000     1.0000     5.0000   300.0000   -27.7791    45.6474     1.0010    -2.9998     9.0000    10.0000     5.0000    14.0000    16.0000     5.0000    10.0000    16.0000    -0.0005     0.0005   159.4164   -41.1662     2.2944    20.4501     2.0000     1.0000     5.0001     0.000
    119     1.1500     0.0000     1.1500     5.4999    14.7000     48.571      6.000 150721.000     60.000    56.9827   -20.0773   -34.9044   120.0962    -0.1480    -3.0001   -40.5656     0.0000     0.0000     0.0000     1.0000     5.0000   300.0000   -28.1216    45.8824     1.0010    -2.9998     9.0000    10.0000     5.0000    14.0000    16.0000     5.0000    10.0000    16.0000    -0.0005     0.0005   159.4164   -41.1662     2.2944    20.1999     2.0000     1.0000     4.9997     0.000
    120     1.1500     0.0000     1.1500     5.2501    14.7000     49.300      6.000 150721.000     60.000    57.3387   -20.0773   -35.1293   120.0962    -0.1480    -3.0001   -40.2982     0.0000     0.0000     0.0000     1.0000     5.0000   300.0000   -28.4665    46.1182     1.0010    -2.9998     9.0000    10.0000     5.0000    14.0000    16.0000     5.0000    10.0000    16.0000    -0.0005     0.0005   159.4164   -41.1662     2.2945    19.9501     2.0000     1.0000     4.9998     0.000
    121     1.1500     0.0000     1.1500     4.9999    14.7000     50.358      3.000 150721.000     60.000    57.7013   -20.0773   -35.3590   120.0962    -0.1480    -3.0001   -40.0292     0.0000     0.0000     0.0000     1.0000     5.0000   300.0000   -28.8126    46.3537     1.0010    -2.9998     9.0000    10.0000     5.0000    14.0000    16.0000     5.0000    10.0000    16.0000    -0.0005     0.0005   159.4164   -41.1662     2.2945    19.6999     2.0000     1.0000     4.9997     0.000
# Sum of Counts = 1247
# Center of Mass = 22.543520+/-0.925062
# Full Width Half-Maximum = 14.238921+/-0.418440
# 1:48:37 AM  9/10/2024   scan completed.
