# scan = 35
# date = 5/1/2024
# time = 7:46:37 PM
# proposal = 32275
# experiment = Low Temperature Magnetic Structure of CeCl3
# experiment_number = 1017
# command = scan h 0.6666 k 0.6666 l 0.25 2.25 0.005 e 0 preset time 30 
# builtin_command = scan h 0.6666 k 0.6666 l 0.25 2.25 0.005 e 0 preset time 30
# users = Adam Aczel, David Mandrus, Matthew Cothrine, Stephen Nagler
# local_contact = A. Aczel
# scan_title = CeCl3, (2/3 2/3 L) scan, T = 0.04 K
# monochromator = PG002
# analyzer = Pg002
# sense = +-+
# collimation = 40-40-40-80
# samplename = CeCl3
# sampletype = crystal
# samplemosaic = 30.000000
# latticeconstants = 7.432407,7.432407,4.311433,90.000000,90.000000,120.000000
# ubmatrix = -0.032121,-0.030765,0.225510,-0.128749,-0.132815,-0.054135,0.080800,-0.074501,0.003386
# mode = 0
# plane_normal = -0.008727,0.026172,0.999619
# ubconf = UB01May2024_120038PM.ini
# preset_type = normal 
# preset_channel = time
# preset_value = 30.000000
# def_x = l
# def_y = detector
# col_headers = 
#   Pt.          h          k          l          e       time   detector    monitor        mcu         m2         s1         s2        sgl        sgu   slitb_bt   slitb_lf   slitb_rt   slitb_tp   slita_bt   slita_lf   slita_rt   slita_tp        stl        stu         sz         a1         a2          q         ei         ef        vti     sample       temp dr_tsample    dr_temp
      1     0.6666     0.6666     0.2500     0.0002     30.000   1200.000 289546.000     29.690    41.5367    72.6428   -25.9202     0.5007     1.4999    25.0000     5.0000     8.0000    25.0000    25.0000     8.0000     5.0000    25.0000     5.0000    -5.0000     0.0025    20.7715    41.5370     1.1845    14.4503    14.4501     1.6806     0.0000     1.0000     0.0508     0.000
      2     0.6666     0.6665     0.2550     0.0002     30.000   1168.000 289819.000     29.718    41.5367    72.2818   -25.9682     0.5007     1.4999    25.0000     5.0000     8.0000    25.0000    25.0000     8.0000     5.0000    25.0000     5.0000    -5.0000     0.0023    20.7715    41.5370     1.1867    14.4503    14.4501     1.6798     0.0000     1.0000     0.0508     0.000
      3     0.6666     0.6666     0.2600     0.0002     30.000   1237.000 289406.000     29.675    41.5367    71.9228   -26.0213     0.5006     1.4999    25.0000     5.0000     8.0000    25.0000    25.0000     8.0000     5.0000    25.0000     5.0000    -5.0000     0.0022    20.7715    41.5370     1.1890    14.4503    14.4501     1.6793     0.0000     1.0000     0.0519     0.000
      4     0.6666     0.6666     0.2650     0.0002     30.000   1240.000 288413.000     29.574    41.5367    71.5629   -26.0735     0.5007     1.4999    25.0000     5.0000     8.0000    25.0000    25.0000     8.0000     5.0000    25.0000     5.0000    -5.0000     0.0023    20.7715    41.5370     1.1914    14.4503    14.4501     1.6790     0.0000     1.0000     0.0519     0.000
      5     0.6666     0.6666     0.2700     0.0002     30.000   1199.000 288629.000     29.596    41.5367    71.2078   -26.1265     0.5007     1.4999    25.0000     5.0000     8.0000    25.0000    25.0000     8.0000     5.0000    25.0000     5.0000    -5.0000     0.0023    20.7715    41.5370     1.1938    14.4503    14.4501     1.6789     0.0000     1.0000     0.0534     0.000
      6     0.6666     0.6666     0.2750     0.0002     30.000   1163.000 288887.000     29.622    41.5367    70.8499   -26.1812     0.5007     1.4999    25.0000     5.0000     8.0000    25.0000    25.0000     8.0000     5.0000    25.0000     5.0000    -5.0000     0.0022    20.7714    41.5370     1.1962    14.4503    14.4501     1.6787     0.0000     1.0000     0.0534     0.000
      7     0.6666     0.6666     0.2800     0.0002     30.000   1140.000 289124.000     29.646    41.5367    70.4940   -26.2361     0.5007     1.4999    25.0000     5.0000     8.0000    25.0000    25.0000     8.0000     5.0000    25.0000     5.0000    -5.0000     0.0023    20.7715    41.5370     1.1987    14.4503    14.4501     1.6783     0.0000     1.0000     0.0527     0.000
      8     0.6666     0.6666     0.2850     0.0002     30.000   1264.000 290096.000     29.746    41.5367    70.1414   -26.2921     0.5007     1.4999    25.0000     5.0000     8.0000    25.0000    25.0000     8.0000     5.0000    25.0000     5.0000    -5.0000     0.0022    20.7714    41.5370     1.2012    14.4503    14.4501     1.6788     0.0000     1.0000     0.0523     0.000
      9     0.6666     0.6666     0.2900     0.0002     30.000   1235.000 288443.000     29.577    41.5367    69.7863   -26.3460     0.5007     1.4999    25.0000     5.0000     8.0000    25.0000    25.0000     8.0000     5.0000    25.0000     5.0000    -5.0000     0.0022    20.7714    41.5370     1.2036    14.4503    14.4501     1.6785     0.0000     1.0000     0.0523     0.000
     10     0.6666     0.6666     0.2950     0.0002     30.000   1223.000 289539.000     29.689    41.5367    69.4333   -26.4042     0.5007     1.4999    25.0000     5.0000     8.0000    25.0000    25.0000     8.0000     5.0000    25.0000     5.0000    -5.0000     0.0021    20.7714    41.5370     1.2062    14.4503    14.4501     1.6788     0.0000     1.0000     0.0515     0.000
     11     0.6666     0.6666     0.3000     0.0002     30.000   1155.000 289698.000     29.705    41.5367    69.0828   -26.4623     0.5007     1.4999    25.0000     5.0000     8.0000    25.0000    25.0000     8.0000     5.0000    25.0000     5.0000    -5.0000     0.0023    20.7714    41.5370     1.2088    14.4503    14.4501     1.6787     0.0000     1.0000     0.0515     0.000
     12     0.6666     0.6666     0.3050     0.0002     30.000   1244.000 289995.000     29.736    41.5367    68.7304   -26.5213     0.5007     1.4999    25.0000     5.0000     8.0000    25.0000    25.0000     8.0000     5.0000    25.0000     5.0000    -5.0000     0.0022    20.7714    41.5370     1.2115    14.4503    14.4501     1.6787     0.0000     1.0000     0.0509     0.000
     13     0.6666     0.6666     0.3100     0.0002     30.000   1177.000 289789.000     29.715    41.5367    68.3806   -26.5815     0.5007     1.4999    25.0000     5.0000     8.0000    25.0000    25.0000     8.0000     5.0000    25.0000     5.0000    -5.0000     0.0022    20.7714    41.5370     1.2142    14.4503    14.4501     1.6786     0.0000     1.0000     0.0509     0.000
     14     0.6666     0.6666     0.3150     0.0002     30.000   1215.000 288478.000     29.580    41.5367    68.0335   -26.6424     0.5007     1.4999    25.0000     5.0000     8.0000    25.0000    25.0000     8.0000     5.0000    25.0000     5.0000    -5.0000     0.0023    20.7714    41.5370     1.2169    14.4503    14.4501     1.6787     0.0000     1.0000     0.0510     0.000
     15     0.6665     0.6665     0.3200     0.0002     30.000   1213.000 288850.000     29.618    41.5367    67.6830   -26.7026     0.5007     1.4999    25.0000     5.0000     8.0000    25.0000    25.0000     8.0000     5.0000    25.0000     5.0000    -5.0000     0.0022    20.7714    41.5370     1.2196    14.4503    14.4501     1.6787     0.0000     1.0000     0.0510     0.000
     16     0.6666     0.6666     0.3250     0.0002     30.000   1249.000 288698.000     29.603    41.5367    67.3388   -26.7666     0.5007     1.4999    25.0000     5.0000     8.0000    25.0000    25.0000     8.0000     5.0000    25.0000     5.0000    -5.0000     0.0023    20.7714    41.5370     1.2225    14.4503    14.4501     1.6788     0.0000     1.0000     0.0506     0.000
     17     0.6666     0.6666     0.3300     0.0002     30.000   1282.000 289524.000     29.687    41.5367    66.9924   -26.8304     0.5007     1.4999    25.0000     5.0000     8.0000    25.0000    25.0000     8.0000     5.0000    25.0000     5.0000    -5.0000     0.0024    20.7714    41.5370     1.2253    14.4503    14.4501     1.6787     0.0000     1.0000     0.0503     0.000
     18     0.6666     0.6666     0.3350     0.0002     30.000   1192.000 288832.000     29.617    41.5367    66.6457   -26.8948     0.5007     1.4999    25.0000     5.0000     8.0000    25.0000    25.0000     8.0000     5.0000    25.0000     5.0000    -5.0000     0.0023    20.7714    41.5370     1.2282    14.4503    14.4501     1.6789     0.0000     1.0000     0.0503     0.000
     19     0.6666     0.6666     0.3400     0.0002     30.000   1243.000 288904.000     29.624    41.5367    66.3033   -26.9594     0.5007     1.4999    25.0000     5.0000     8.0000    25.0000    25.0000     8.0000     5.0000    25.0000     5.0000    -5.0000     0.0023    20.7714    41.5370     1.2311    14.4503    14.4501     1.6790     0.0000     1.0000     0.0500     0.000
     20     0.6666     0.6666     0.3450     0.0002     30.000   1291.000 289199.000     29.654    41.5367    65.9617   -27.0256     0.5007     1.4999    25.0000     5.0000     8.0000    25.0000    25.0000     8.0000     5.0000    25.0000     5.0000    -5.0000     0.0024    20.7714    41.5370     1.2341    14.4503    14.4501     1.6790     0.0000     1.0000     0.0500     0.000
     21     0.6666     0.6666     0.3500     0.0002     30.000   1215.000 289601.000     29.695    41.5367    65.6184   -27.0926     0.5007     1.4999    25.0000     5.0000     8.0000    25.0000    25.0000     8.0000     5.0000    25.0000     5.0000    -5.0000     0.0023    20.7714    41.5370     1.2371    14.4503    14.4501     1.6789     0.0000     1.0000     0.0500     0.000
     22     0.6666     0.6666     0.3550     0.0002     30.000   1306.000 289110.000     29.645    41.5367    65.2789   -27.1594     0.5007     1.4999    25.0000     5.0000     8.0000    25.0000    25.0000     8.0000     5.0000    25.0000     5.0000    -5.0000     0.0023    20.7714    41.5370     1.2401    14.4503    14.4501     1.6790     0.0000     1.0000     0.0500     0.000
     23     0.6666     0.6666     0.3600     0.0002     30.000   1235.000 288407.000     29.573    41.5367    64.9404   -27.2272     0.5007     1.4999    25.0000     5.0000     8.0000    25.0000    25.0000     8.0000     5.0000    25.0000     5.0000    -5.0000     0.0023    20.7714    41.5370     1.2431    14.4503    14.4501     1.6790     0.0000     1.0000     0.0496     0.000
     24     0.6666     0.6666     0.3650     0.0002     30.000   1268.000 288796.000     29.613    41.5367    64.5998   -27.2975     0.5007     1.4999    25.0000     5.0000     8.0000    25.0000    25.0000     8.0000     5.0000    25.0000     5.0000    -5.0000     0.0024    20.7714    41.5370     1.2463    14.4503    14.4501     1.6789     0.0000     1.0000     0.0497     0.000
     25     0.6666     0.6666     0.3700     0.0002     30.000   1258.000 288550.000     29.588    41.5367    64.2647   -27.3677     0.5007     1.4999    25.0000     5.0000     8.0000    25.0000    25.0000     8.0000     5.0000    25.0000     5.0000    -5.0000     0.0024    20.7714    41.5370     1.2494    14.4503    14.4501     1.6790     0.0000     1.0000     0.0497     0.000
     26     0.6668     0.6668     0.3750     0.0002     30.000   1192.000 288965.000     29.630    41.5367    63.9289   -27.4438     0.5007     1.4999    25.0000     5.0000     8.0000    25.0000    25.0000     8.0000     5.0000    25.0000     5.0000    -5.0000     0.0023    20.7714    41.5370     1.2528    14.4503    14.4501     1.6788     0.0000     1.0000     0.0496     0.000
     27     0.6664     0.6664     0.3800     0.0002     30.000   1235.000 288508.000     29.583    41.5367    63.5918   -27.5035     0.5007     1.4999    25.0000     5.0000     8.0000    25.0000    25.0000     8.0000     5.0000    25.0000     5.0000    -5.0000     0.0024    20.7714    41.5370     1.2555    14.4503    14.4501     1.6791     0.0000     1.0000     0.0496     0.000
     28     0.6666     0.6666     0.3850     0.0002     30.000   1246.000 288964.000     29.630    41.5367    63.2603   -27.5819     0.5007     1.4999    25.0000     5.0000     8.0000    25.0000    25.0000     8.0000     5.0000    25.0000     5.0000    -5.0000     0.0024    20.7714    41.5370     1.2590    14.4503    14.4501     1.6787     0.0000     1.0000     0.0494     0.000
     29     0.6666     0.6666     0.3900     0.0002     30.000   1273.000 288782.000     29.611    41.5367    62.9274   -27.6545     0.5007     1.4999    25.0000     5.0000     8.0000    25.0000    25.0000     8.0000     5.0000    25.0000     5.0000    -5.0000     0.0025    20.7714    41.5370     1.2623    14.4503    14.4501     1.6791     0.0000     1.0000     0.0494     0.000
     30     0.6666     0.6666     0.3950     0.0002     30.000   1258.000 289245.000     29.659    41.5367    62.5946   -27.7291     0.5007     1.4999    25.0000     5.0000     8.0000    25.0000    25.0000     8.0000     5.0000    25.0000     5.0000    -5.0000     0.0025    20.7714    41.5370     1.2656    14.4503    14.4501     1.6791     0.0000     1.0000     0.0495     0.000
     31     0.6666     0.6666     0.4000     0.0002     30.000   1246.000 289302.000     29.665    41.5367    62.2657   -27.8018     0.5007     1.4999    25.0000     5.0000     8.0000    25.0000    25.0000     8.0000     5.0000    25.0000     5.0000    -5.0000     0.0025    20.7714    41.5370     1.2688    14.4503    14.4501     1.6791     0.0000     1.0000     0.0493     0.000
     32     0.6666     0.6666     0.4050     0.0002     30.000   1226.000 289485.000     29.683    41.5367    61.9370   -27.8789     0.5007     1.4999    25.0000     5.0000     8.0000    25.0000    25.0000     8.0000     5.0000    25.0000     5.0000    -5.0000     0.0026    20.7714    41.5370     1.2723    14.4503    14.4501     1.6791     0.0000     1.0000     0.0493     0.000
     33     0.6666     0.6666     0.4100     0.0002     30.000   1248.000 288537.000     29.586    41.5367    61.6072   -27.9538     0.5007     1.4999    25.0000     5.0000     8.0000    25.0000    25.0000     8.0000     5.0000    25.0000     5.0000    -5.0000     0.0027    20.7713    41.5370     1.2756    14.4503    14.4501     1.6791     0.0000     1.0000     0.0496     0.000
     34     0.6666     0.6666     0.4150     0.0002     30.000   1238.000 289264.000     29.661    41.5367    61.2821   -28.0296     0.5007     1.4999    25.0000     5.0000     8.0000    25.0000    25.0000     8.0000     5.0000    25.0000     5.0000    -5.0000     0.0027    20.7714    41.5370     1.2790    14.4503    14.4501     1.6791     0.0000     1.0000     0.0496     0.000
     35     0.6666     0.6666     0.4200     0.0002     30.000   1291.000 288536.000     29.586    41.5367    60.9568   -28.1066     0.5007     1.4999    25.0000     5.0000     8.0000    25.0000    25.0000     8.0000     5.0000    25.0000     5.0000    -5.0000     0.0027    20.7714    41.5370     1.2825    14.4503    14.4501     1.6792     0.0000     1.0000     0.0494     0.000
     36     0.6666     0.6666     0.4250     0.0002     30.000   1203.000 288407.000     29.573    41.5367    60.6304   -28.1848     0.5007     1.4999    25.0000     5.0000     8.0000    25.0000    25.0000     8.0000     5.0000    25.0000     5.0000    -5.0000     0.0028    20.7714    41.5370     1.2860    14.4503    14.4501     1.6792     0.0000     1.0000     0.0494     0.000
     37     0.6666     0.6665     0.4300     0.0002     30.000   1234.000 289766.000     29.712    41.5367    60.3085   -28.2629     0.5007     1.4999    25.0000     5.0000     8.0000    25.0000    25.0000     8.0000     5.0000    25.0000     5.0000    -5.0000     0.0029    20.7713    41.5370     1.2895    14.4503    14.4501     1.6793     0.0000     1.0000     0.0494     0.000
     38     0.6666     0.6666     0.4350     0.0002     30.000   1210.000 288922.000     29.626    41.5367    59.9875   -28.3426     0.5007     1.4999    25.0000     5.0000     8.0000    25.0000    25.0000     8.0000     5.0000    25.0000     5.0000    -5.0000     0.0028    20.7713    41.5370     1.2930    14.4503    14.4501     1.6794     0.0000     1.0000     0.0491     0.000
     39     0.6666     0.6665     0.4400     0.0002     30.000   1245.000 289609.000     29.696    41.5367    59.6644   -28.4230     0.5007     1.4999    25.0000     5.0000     8.0000    25.0000    25.0000     8.0000     5.0000    25.0000     5.0000    -5.0000     0.0029    20.7713    41.5370     1.2966    14.4503    14.4501     1.6795     0.0000     1.0000     0.0491     0.000
     40     0.6666     0.6666     0.4450     0.0002     30.000   1273.000 289243.000     29.659    41.5367    59.3467   -28.5056     0.5007     1.4999    25.0000     5.0000     8.0000    25.0000    25.0000     8.0000     5.0000    25.0000     5.0000    -5.0000     0.0030    20.7713    41.5370     1.3003    14.4503    14.4501     1.6795     0.0000     1.0000     0.0492     0.000
     41     0.6666     0.6666     0.4500     0.0002     30.000   1320.000 288928.000     29.626    41.5367    59.0291   -28.5868     0.5007     1.4999    25.0000     5.0000     8.0000    25.0000    25.0000     8.0000     5.0000    25.0000     5.0000    -5.0000     0.0029    20.7713    41.5370     1.3039    14.4503    14.4501     1.6794     0.0000     1.0000     0.0492     0.000
     42     0.6666     0.6666     0.4550     0.0002     30.000   1277.000 288807.000     29.614    41.5367    58.7099   -28.6691     0.5007     1.4999    25.0000     5.0000     8.0000    25.0000    25.0000     8.0000     5.0000    25.0000     5.0000    -5.0000     0.0030    20.7713    41.5370     1.3076    14.4503    14.4501     1.6795     0.0000     1.0000     0.0492     0.000
     43     0.6666     0.6666     0.4599     0.0002     30.000   1302.000 288158.000     29.547    41.5367    58.3973   -28.7526     0.5007     1.4999    25.0000     5.0000     8.0000    25.0000    25.0000     8.0000     5.0000    25.0000     5.0000    -5.0000     0.0030    20.7713    41.5370     1.3113    14.4503    14.4501     1.6793     0.0000     1.0000     0.0492     0.000
     44     0.6666     0.6666     0.4650     0.0002     30.000   1254.000 288456.000     29.578    41.5367    58.0818   -28.8357     0.5007     1.4999    25.0000     5.0000     8.0000    25.0000    25.0000     8.0000     5.0000    25.0000     5.0000    -5.0000     0.0030    20.7713    41.5370     1.3151    14.4503    14.4501     1.6794     0.0000     1.0000     0.0490     0.000
     45     0.6666     0.6666     0.4700     0.0002     30.000   1252.000 289148.000     29.649    41.5367    57.7683   -28.9211     0.5007     1.4999    25.0000     5.0000     8.0000    25.0000    25.0000     8.0000     5.0000    25.0000     5.0000    -5.0000     0.0030    20.7713    41.5370     1.3189    14.4503    14.4501     1.6794     0.0000     1.0000     0.0492     0.000
     46     0.6667     0.6667     0.4750     0.0002     30.000   1285.000 288595.000     29.592    41.5367    57.4566   -29.0090     0.5007     1.4999    25.0000     5.0000     8.0000    25.0000    25.0000     8.0000     5.0000    25.0000     5.0000    -5.0000     0.0030    20.7713    41.5370     1.3228    14.4503    14.4501     1.6794     0.0000     1.0000     0.0492     0.000
     47     0.6666     0.6666     0.4799     0.0002     30.000   1267.000 288984.000     29.632    41.5367    57.1466   -29.0914     0.5007     1.4999    25.0000     5.0000     8.0000    25.0000    25.0000     8.0000     5.0000    25.0000     5.0000    -5.0000     0.0031    20.7713    41.5370     1.3265    14.4503    14.4501     1.6792     0.0000     1.0000     0.0492     0.000
     48     0.6667     0.6667     0.4849     0.0002     30.000   1336.000 288896.000     29.623    41.5367    56.8407   -29.1798     0.5007     1.4999    25.0000     5.0000     8.0000    25.0000    25.0000     8.0000     5.0000    25.0000     5.0000    -5.0000     0.0031    20.7713    41.5370     1.3304    14.4503    14.4501     1.6795     0.0000     1.0000     0.0492     0.000
     49     0.6666     0.6666     0.4900     0.0002     30.000   1412.000 288850.000     29.618    41.5367    56.5273   -29.2659     0.5007     1.4999    25.0000     5.0000     8.0000    25.0000    25.0000     8.0000     5.0000    25.0000     5.0000    -5.0000     0.0031    20.7713    41.5370     1.3342    14.4503    14.4501     1.6794     0.0000     1.0000     0.0492     0.000
     50     0.6667     0.6667     0.4949     0.0002     30.000   3309.000 289345.000     29.669    41.5367    56.2223   -29.3559     0.5007     1.4999    25.0000     5.0000     8.0000    25.0000    25.0000     8.0000     5.0000    25.0000     5.0000    -5.0000     0.0031    20.7713    41.5370     1.3383    14.4503    14.4501     1.6795     0.0000     1.0000     0.0492     0.000
     51     0.6667     0.6667     0.5000     0.0002     30.000  15953.000 288707.000     29.604    41.5367    55.9128   -29.4444     0.5007     1.4999    25.0000     5.0000     8.0000    25.0000    25.0000     8.0000     5.0000    25.0000     5.0000    -5.0000     0.0031    20.7713    41.5370     1.3422    14.4503    14.4501     1.6795     0.0000     1.0000     0.0494     0.000
     52     0.6667     0.6667     0.5049     0.0002     30.000   6264.000 289241.000     29.658    41.5367    55.6105   -29.5316     0.5007     1.4999    25.0000     5.0000     8.0000    25.0000    25.0000     8.0000     5.0000    25.0000     5.0000    -5.0000     0.0032    20.7713    41.5370     1.3461    14.4503    14.4501     1.6795     0.0000     1.0000     0.0493     0.000
     53     0.6666     0.6666     0.5100     0.0002     30.000   1511.000 288770.000     29.610    41.5367    55.3016   -29.6217     0.5007     1.4999    25.0000     5.0000     8.0000    25.0000    25.0000     8.0000     5.0000    25.0000     5.0000    -5.0000     0.0032    20.7713    41.5370     1.3501    14.4503    14.4501     1.6796     0.0000     1.0000     0.0493     0.000
     54     0.6667     0.6667     0.5151     0.0002     30.000   1384.000 288484.000     29.581    41.5367    54.9945   -29.7154     0.5007     1.4999    25.0000     5.0000     8.0000    25.0000    25.0000     8.0000     5.0000    25.0000     5.0000    -5.0000     0.0032    20.7713    41.5370     1.3543    14.4503    14.4501     1.6795     0.0000     1.0000     0.0495     0.000
     55     0.6665     0.6664     0.5199     0.0002     30.000   1367.000 288529.000     29.585    41.5367    54.6969   -29.7961     0.5007     1.4999    25.0000     5.0000     8.0000    25.0000    25.0000     8.0000     5.0000    25.0000     5.0000    -5.0000     0.0032    20.7713    41.5370     1.3579    14.4503    14.4501     1.6795     0.0000     1.0000     0.0495     0.000
     56     0.6665     0.6665     0.5250     0.0002     30.000   1370.000 288116.000     29.543    41.5367    54.3935   -29.8912     0.5007     1.4999    25.0000     5.0000     8.0000    25.0000    25.0000     8.0000     5.0000    25.0000     5.0000    -5.0000     0.0033    20.7713    41.5370     1.3621    14.4503    14.4501     1.6795     0.0000     1.0000     0.0495     0.000
     57     0.6665     0.6665     0.5301     0.0002     30.000   1305.000 288151.000     29.547    41.5367    54.0925   -29.9843     0.5007     1.4999    25.0000     5.0000     8.0000    25.0000    25.0000     8.0000     5.0000    25.0000     5.0000    -5.0000     0.0033    20.7713    41.5370     1.3663    14.4503    14.4501     1.6794     0.0000     1.0000     0.0495     0.000
     58     0.6666     0.6666     0.5350     0.0002     30.000   1312.000 288738.000     29.607    41.5367    53.8023   -30.0782     0.5007     1.4999    25.0000     5.0000     8.0000    25.0000    25.0000     8.0000     5.0000    25.0000     5.0000    -5.0000     0.0033    20.7713    41.5370     1.3704    14.4503    14.4501     1.6795     0.0000     1.0000     0.0493     0.000
     59     0.6666     0.6666     0.5400     0.0002     30.000   1263.000 289276.000     29.662    41.5367    53.5039   -30.1707     0.5007     1.4999    25.0000     5.0000     8.0000    25.0000    25.0000     8.0000     5.0000    25.0000     5.0000    -5.0000     0.0034    20.7713    41.5370     1.3746    14.4503    14.4501     1.6795     0.0000     1.0000     0.0494     0.000
     60     0.6666     0.6666     0.5450     0.0002     30.000   1230.000 288435.000     29.576    41.5367    53.2066   -30.2652     0.5007     1.4999    25.0000     5.0000     8.0000    25.0000    25.0000     8.0000     5.0000    25.0000     5.0000    -5.0000     0.0034    20.7713    41.5370     1.3788    14.4503    14.4501     1.6795     0.0000     1.0000     0.0494     0.000
     61     0.6666     0.6665     0.5500     0.0002     30.000   1246.000 290002.000     29.736    41.5367    52.9144   -30.3585     0.5007     1.4999    25.0000     5.0000     8.0000    25.0000    25.0000     8.0000     5.0000    25.0000     5.0000    -5.0000     0.0034    20.7713    41.5370     1.3829    14.4503    14.4501     1.6795     0.0000     1.0000     0.0496     0.000
     62     0.6666     0.6666     0.5550     0.0002     30.000   1190.000 290270.000     29.764    41.5367    52.6240   -30.4550     0.5007     1.4999    25.0000     5.0000     8.0000    25.0000    25.0000     8.0000     5.0000    25.0000     5.0000    -5.0000     0.0035    20.7713    41.5370     1.3872    14.4503    14.4501     1.6795     0.0000     1.0000     0.0496     0.000
     63     0.6666     0.6665     0.5600     0.0002     30.000   1299.000 288924.000     29.626    41.5367    52.3264   -30.5506     0.5007     1.4999    25.0000     5.0000     8.0000    25.0000    25.0000     8.0000     5.0000    25.0000     5.0000    -5.0000     0.0036    20.7713    41.5370     1.3915    14.4503    14.4501     1.6795     0.0000     1.0000     0.0496     0.000
     64     0.6666     0.6666     0.5650     0.0002     30.000   1264.000 288509.000     29.583    41.5367    52.0394   -30.6490     0.5007     1.4999    25.0000     5.0000     8.0000    25.0000    25.0000     8.0000     5.0000    25.0000     5.0000    -5.0000     0.0035    20.7712    41.5370     1.3958    14.4503    14.4501     1.6792     0.0000     1.0000     0.0496     0.000
     65     0.6666     0.6666     0.5700     0.0002     30.000   1283.000 289319.000     29.666    41.5367    51.7508   -30.7459     0.5007     1.4999    25.0000     5.0000     8.0000    25.0000    25.0000     8.0000     5.0000    25.0000     5.0000    -5.0000     0.0036    20.7713    41.5370     1.4001    14.4503    14.4501     1.6796     0.0000     1.0000     0.0496     0.000
     66     0.6666     0.6666     0.5750     0.0002     30.000   1224.000 288289.000     29.561    41.5367    51.4627   -30.8426     0.5007     1.4999    25.0000     5.0000     8.0000    25.0000    25.0000     8.0000     5.0000    25.0000     5.0000    -5.0000     0.0036    20.7713    41.5370     1.4044    14.4503    14.4501     1.6792     0.0000     1.0000     0.0496     0.000
     67     0.6666     0.6666     0.5800     0.0002     30.000   1268.000 288993.000     29.633    41.5367    51.1759   -30.9410     0.5007     1.4999    25.0000     5.0000     8.0000    25.0000    25.0000     8.0000     5.0000    25.0000     5.0000    -5.0000     0.0036    20.7713    41.5370     1.4088    14.4503    14.4501     1.6795     0.0000     1.0000     0.0496     0.000
     68     0.6667     0.6667     0.5850     0.0002     30.000   1221.000 289095.000     29.643    41.5367    50.8901   -31.0419     0.5007     1.4999    25.0000     5.0000     8.0000    25.0000    25.0000     8.0000     5.0000    25.0000     5.0000    -5.0000     0.0037    20.7713    41.5370     1.4133    14.4503    14.4501     1.6795     0.0000     1.0000     0.0496     0.000
     69     0.6666     0.6666     0.5900     0.0002     30.000   1251.000 288486.000     29.581    41.5367    50.6063   -31.1379     0.5007     1.4999    25.0000     5.0000     8.0000    25.0000    25.0000     8.0000     5.0000    25.0000     5.0000    -5.0000     0.0037    20.7713    41.5370     1.4175    14.4503    14.4501     1.6795     0.0000     1.0000     0.0496     0.000
     70     0.6666     0.6666     0.5950     0.0002     30.000   1175.000 288759.000     29.609    41.5367    50.3222   -31.2393     0.5007     1.4999    25.0000     5.0000     8.0000    25.0000    25.0000     8.0000     5.0000    25.0000     5.0000    -5.0000     0.0038    20.7712    41.5370     1.4220    14.4503    14.4501     1.6796     0.0000     1.0000     0.0495     0.000
     71     0.6666     0.6666     0.6000     0.0002     30.000   1225.000 288364.000     29.569    41.5367    50.0398   -31.3390     0.5007     1.4999    25.0000     5.0000     8.0000    25.0000    25.0000     8.0000     5.0000    25.0000     5.0000    -5.0000     0.0038    20.7712    41.5370     1.4265    14.4503    14.4501     1.6796     0.0000     1.0000     0.0496     0.000
     72     0.6666     0.6666     0.6050     0.0002     30.000   1175.000 288304.000     29.562    41.5367    49.7599   -31.4392     0.5007     1.4999    25.0000     5.0000     8.0000    25.0000    25.0000     8.0000     5.0000    25.0000     5.0000    -5.0000     0.0038    20.7712    41.5370     1.4309    14.4503    14.4501     1.6796     0.0000     1.0000     0.0496     0.000
     73     0.6666     0.6666     0.6100     0.0002     30.000   1219.000 289439.000     29.679    41.5367    49.4798   -31.5404     0.5007     1.4999    25.0000     5.0000     8.0000    25.0000    25.0000     8.0000     5.0000    25.0000     5.0000    -5.0000     0.0038    20.7712    41.5370     1.4354    14.4503    14.4501     1.6795     0.0000     1.0000     0.0496     0.000
     74     0.6666     0.6666     0.6150     0.0002     30.000   1174.000 289189.000     29.653    41.5367    49.2006   -31.6422     0.5007     1.4999    25.0000     5.0000     8.0000    25.0000    25.0000     8.0000     5.0000    25.0000     5.0000    -5.0000     0.0039    20.7713    41.5370     1.4399    14.4503    14.4501     1.6796     0.0000     1.0000     0.0496     0.000
     75     0.6666     0.6666     0.6200     0.0002     30.000   1228.000 289444.000     29.679    41.5367    48.9239   -31.7461     0.5007     1.4999    25.0000     5.0000     8.0000    25.0000    25.0000     8.0000     5.0000    25.0000     5.0000    -5.0000     0.0039    20.7713    41.5370     1.4445    14.4503    14.4501     1.6796     0.0000     1.0000     0.0497     0.000
     76     0.6667     0.6666     0.6248     0.0002     30.000   1245.000 288525.000     29.585    41.5367    48.6562   -31.8473     0.5007     1.4999    25.0000     5.0000     8.0000    25.0000    25.0000     8.0000     5.0000    25.0000     5.0000    -5.0000     0.0038    20.7713    41.5370     1.4490    14.4503    14.4501     1.6796     0.0000     1.0000     0.0497     0.000
     77     0.6666     0.6666     0.6300     0.0002     30.000   1200.000 288185.000     29.550    41.5367    48.3720   -31.9531     0.5007     1.4999    25.0000     5.0000     8.0000    25.0000    25.0000     8.0000     5.0000    25.0000     5.0000    -5.0000     0.0039    20.7712    41.5370     1.4537    14.4503    14.4501     1.6797     0.0000     1.0000     0.0495     0.000
     78     0.6666     0.6666     0.6349     0.0002     30.000   1211.000 288893.000     29.623    41.5367    48.1013   -32.0566     0.5007     1.4999    25.0000     5.0000     8.0000    25.0000    25.0000     8.0000     5.0000    25.0000     5.0000    -5.0000     0.0039    20.7712    41.5370     1.4583    14.4503    14.4501     1.6796     0.0000     1.0000     0.0491     0.000
     79     0.6667     0.6667     0.6399     0.0002     30.000   1211.000 288296.000     29.562    41.5367    47.8295   -32.1624     0.5007     1.4999    25.0000     5.0000     8.0000    25.0000    25.0000     8.0000     5.0000    25.0000     5.0000    -5.0000     0.0039    20.7713    41.5370     1.4630    14.4503    14.4501     1.6796     0.0000     1.0000     0.0491     0.000
     80     0.6667     0.6666     0.6449     0.0002     30.000   1131.000 288237.000     29.555    41.5367    47.5611   -32.2652     0.5007     1.4999    25.0000     5.0000     8.0000    25.0000    25.0000     8.0000     5.0000    25.0000     5.0000    -5.0000     0.0039    20.7712    41.5370     1.4675    14.4503    14.4501     1.6796     0.0000     1.0000     0.0491     0.000
     81     0.6667     0.6667     0.6499     0.0002     30.000   1130.000 287184.000     29.448    41.5367    47.2919   -32.3710     0.5007     1.4999    25.0000     5.0000     8.0000    25.0000    25.0000     8.0000     5.0000    25.0000     5.0000    -5.0000     0.0039    20.7712    41.5370     1.4722    14.4503    14.4501     1.6795     0.0000     1.0000     0.0491     0.000
     82     0.6667     0.6667     0.6549     0.0002     30.000   1174.000 287834.000     29.514    41.5367    47.0188   -32.4785     0.5007     1.4999    25.0000     5.0000     8.0000    25.0000    25.0000     8.0000     5.0000    25.0000     5.0000    -5.0000     0.0040    20.7712    41.5370     1.4770    14.4503    14.4501     1.6796     0.0000     1.0000     0.0493     0.000
     83     0.6667     0.6666     0.6600     0.0002     30.000   1182.000 288640.000     29.597    41.5367    46.7456   -32.5865     0.5007     1.4999    25.0000     5.0000     8.0000    25.0000    25.0000     8.0000     5.0000    25.0000     5.0000    -5.0000     0.0041    20.7712    41.5370     1.4818    14.4503    14.4501     1.6792     0.0000     1.0000     0.0493     0.000
     84     0.6667     0.6666     0.6650     0.0002     30.000   1192.000 288848.000     29.618    41.5367    46.4800   -32.6928     0.5007     1.4999    25.0000     5.0000     8.0000    25.0000    25.0000     8.0000     5.0000    25.0000     5.0000    -5.0000     0.0040    20.7712    41.5370     1.4865    14.4503    14.4501     1.6796     0.0000     1.0000     0.0492     0.000
     85     0.6667     0.6667     0.6700     0.0002     30.000   1160.000 288984.000     29.632    41.5367    46.2145   -32.8021     0.5007     1.4999    25.0000     5.0000     8.0000    25.0000    25.0000     8.0000     5.0000    25.0000     5.0000    -5.0000     0.0040    20.7712    41.5370     1.4913    14.4503    14.4501     1.6796     0.0000     1.0000     0.0493     0.000
     86     0.6666     0.6666     0.6750     0.0002     30.000   1253.000 290227.000     29.760    41.5367    45.9470   -32.9068     0.5007     1.4999    25.0000     5.0000     8.0000    25.0000    25.0000     8.0000     5.0000    25.0000     5.0000    -5.0000     0.0040    20.7712    41.5370     1.4959    14.4503    14.4501     1.6795     0.0000     1.0000     0.0493     0.000
     87     0.6666     0.6666     0.6799     0.0002     30.000   1180.000 289342.000     29.669    41.5367    45.6856   -33.0159     0.5007     1.4999    25.0000     5.0000     8.0000    25.0000    25.0000     8.0000     5.0000    25.0000     5.0000    -5.0000     0.0040    20.7712    41.5370     1.5007    14.4503    14.4501     1.6795     0.0000     1.0000     0.0490     0.000
     88     0.6666     0.6666     0.6849     0.0002     30.000   1178.000 288092.000     29.541    41.5367    45.4218   -33.1243     0.5007     1.4999    25.0000     5.0000     8.0000    25.0000    25.0000     8.0000     5.0000    25.0000     5.0000    -5.0000     0.0041    20.7712    41.5370     1.5055    14.4503    14.4501     1.6796     0.0000     1.0000     0.0490     0.000
     89     0.6666     0.6666     0.6900     0.0002     30.000   1201.000 288974.000     29.631    41.5367    45.1595   -33.2342     0.5007     1.4999    25.0000     5.0000     8.0000    25.0000    25.0000     8.0000     5.0000    25.0000     5.0000    -5.0000     0.0041    20.7712    41.5370     1.5104    14.4503    14.4501     1.6796     0.0000     1.0000     0.0490     0.000
     90     0.6666     0.6666     0.6949     0.0002     30.000   1154.000 288610.000     29.594    41.5367    44.9005   -33.3433     0.5007     1.4999    25.0000     5.0000     8.0000    25.0000    25.0000     8.0000     5.0000    25.0000     5.0000    -5.0000     0.0041    20.7712    41.5370     1.5152    14.4503    14.4501     1.6796     0.0000     1.0000     0.0490     0.000
     91     0.6666     0.6666     0.7000     0.0002     30.000   1194.000 289905.000     29.727    41.5367    44.6389   -33.4545     0.5007     1.4999    25.0000     5.0000     8.0000    25.0000    25.0000     8.0000     5.0000    25.0000     5.0000    -5.0000     0.0041    20.7712    41.5370     1.5201    14.4503    14.4501     1.6796     0.0000     1.0000     0.0491     0.000
     92     0.6666     0.6666     0.7050     0.0002     30.000   1149.000 289113.000     29.645    41.5367    44.3812   -33.5668     0.5007     1.4999    25.0000     5.0000     8.0000    25.0000    25.0000     8.0000     5.0000    25.0000     5.0000    -5.0000     0.0041    20.7712    41.5370     1.5251    14.4503    14.4501     1.6796     0.0000     1.0000     0.0489     0.000
     93     0.6666     0.6666     0.7100     0.0002     30.000   1157.000 289028.000     29.637    41.5367    44.1227   -33.6780     0.5007     1.4999    25.0000     5.0000     8.0000    25.0000    25.0000     8.0000     5.0000    25.0000     5.0000    -5.0000     0.0041    20.7712    41.5370     1.5300    14.4503    14.4501     1.6796     0.0000     1.0000     0.0489     0.000
     94     0.6666     0.6666     0.7150     0.0002     30.000   1164.000 289012.000     29.635    41.5367    43.8669   -33.7895     0.5007     1.4999    25.0000     5.0000     8.0000    25.0000    25.0000     8.0000     5.0000    25.0000     5.0000    -5.0000     0.0042    20.7712    41.5370     1.5349    14.4503    14.4501     1.6796     0.0000     1.0000     0.0490     0.000
     95     0.6667     0.6666     0.7200     0.0002     30.000   1183.000 288695.000     29.602    41.5367    43.6128   -33.9040     0.5007     1.4999    25.0000     5.0000     8.0000    25.0000    25.0000     8.0000     5.0000    25.0000     5.0000    -5.0000     0.0042    20.7712    41.5370     1.5399    14.4503    14.4501     1.6796     0.0000     1.0000     0.0490     0.000
     96     0.6666     0.6666     0.7250     0.0002     30.000   1199.000 288874.000     29.621    41.5367    43.3569   -34.0163     0.5007     1.4999    25.0000     5.0000     8.0000    25.0000    25.0000     8.0000     5.0000    25.0000     5.0000    -5.0000     0.0042    20.7712    41.5370     1.5449    14.4503    14.4501     1.6797     0.0000     1.0000     0.0490     0.000
     97     0.6666     0.6666     0.7300     0.0002     30.000   1133.000 288984.000     29.632    41.5367    43.1032   -34.1294     0.5007     1.4999    25.0000     5.0000     8.0000    25.0000    25.0000     8.0000     5.0000    25.0000     5.0000    -5.0000     0.0042    20.7712    41.5370     1.5499    14.4503    14.4501     1.6797     0.0000     1.0000     0.0490     0.000
     98     0.6667     0.6666     0.7350     0.0002     30.000   1166.000 288914.000     29.625    41.5367    42.8525   -34.2436     0.5007     1.4999    25.0000     5.0000     8.0000    25.0000    25.0000     8.0000     5.0000    25.0000     5.0000    -5.0000     0.0043    20.7712    41.5370     1.5549    14.4503    14.4501     1.6796     0.0000     1.0000     0.0492     0.000
     99     0.6666     0.6666     0.7400     0.0002     30.000   1149.000 288507.000     29.583    41.5367    42.6013   -34.3569     0.5007     1.4999    25.0000     5.0000     8.0000    25.0000    25.0000     8.0000     5.0000    25.0000     5.0000    -5.0000     0.0043    20.7712    41.5370     1.5599    14.4503    14.4501     1.6795     0.0000     1.0000     0.0491     0.000
    100     0.6666     0.6666     0.7450     0.0002     30.000   1146.000 289003.000     29.634    41.5367    42.3493   -34.4730     0.5007     1.4999    25.0000     5.0000     8.0000    25.0000    25.0000     8.0000     5.0000    25.0000     5.0000    -5.0000     0.0042    20.7712    41.5370     1.5650    14.4503    14.4501     1.6792     0.0000     1.0000     0.0491     0.000
    101     0.6666     0.6666     0.7500     0.0002     30.000   1159.000 288490.000     29.581    41.5367    42.1015   -34.5850     0.5007     1.4999    25.0000     5.0000     8.0000    25.0000    25.0000     8.0000     5.0000    25.0000     5.0000    -5.0000     0.0043    20.7712    41.5370     1.5699    14.4503    14.4501     1.6796     0.0000     1.0000     0.0491     0.000
    102     0.6666     0.6666     0.7550     0.0002     30.000   1083.000 289304.000     29.665    41.5367    41.8532   -34.7001     0.5007     1.4999    25.0000     5.0000     8.0000    25.0000    25.0000     8.0000     5.0000    25.0000     5.0000    -5.0000     0.0043    20.7712    41.5370     1.5750    14.4503    14.4501     1.6791     0.0000     1.0000     0.0491     0.000
    103     0.6666     0.6666     0.7600     0.0002     30.000   1107.000 289851.000     29.721    41.5367    41.6070   -34.8170     0.5007     1.4999    25.0000     5.0000     8.0000    25.0000    25.0000     8.0000     5.0000    25.0000     5.0000    -5.0000     0.0043    20.7712    41.5370     1.5801    14.4503    14.4501     1.6795     0.0000     1.0000     0.0491     0.000
    104     0.6666     0.6665     0.7650     0.0002     30.000   1136.000 288441.000     29.576    41.5367    41.3597   -34.9322     0.5007     1.4999    25.0000     5.0000     8.0000    25.0000    25.0000     8.0000     5.0000    25.0000     5.0000    -5.0000     0.0043    20.7712    41.5370     1.5852    14.4503    14.4501     1.6795     0.0000     1.0000     0.0491     0.000
    105     0.6666     0.6666     0.7700     0.0002     30.000   1205.000 288517.000     29.584    41.5367    41.1150   -35.0495     0.5007     1.4999    25.0000     5.0000     8.0000    25.0000    25.0000     8.0000     5.0000    25.0000     5.0000    -5.0000     0.0045    20.7712    41.5370     1.5904    14.4503    14.4501     1.6796     0.0000     1.0000     0.0490     0.000
    106     0.6666     0.6666     0.7750     0.0002     30.000   1134.000 288823.000     29.616    41.5367    40.8713   -35.1677     0.5007     1.4999    25.0000     5.0000     8.0000    25.0000    25.0000     8.0000     5.0000    25.0000     5.0000    -5.0000     0.0044    20.7712    41.5370     1.5956    14.4503    14.4501     1.6796     0.0000     1.0000     0.0488     0.000
    107     0.6666     0.6666     0.7800     0.0002     30.000   1145.000 288641.000     29.597    41.5367    40.6290   -35.2849     0.5007     1.4999    25.0000     5.0000     8.0000    25.0000    25.0000     8.0000     5.0000    25.0000     5.0000    -5.0000     0.0045    20.7712    41.5370     1.6007    14.4503    14.4501     1.6795     0.0000     1.0000     0.0488     0.000
    108     0.6666     0.6666     0.7850     0.0002     30.000   1155.000 288586.000     29.591    41.5367    40.3854   -35.4046     0.5007     1.4999    25.0000     5.0000     8.0000    25.0000    25.0000     8.0000     5.0000    25.0000     5.0000    -5.0000     0.0045    20.7712    41.5370     1.6060    14.4503    14.4501     1.6795     0.0000     1.0000     0.0486     0.000
    109     0.6666     0.6666     0.7900     0.0002     30.000   1153.000 288771.000     29.610    41.5367    40.1446   -35.5230     0.5007     1.4999    25.0000     5.0000     8.0000    25.0000    25.0000     8.0000     5.0000    25.0000     5.0000    -5.0000     0.0045    20.7712    41.5370     1.6112    14.4503    14.4501     1.6795     0.0000     1.0000     0.0486     0.000
    110     0.6667     0.6667     0.7950     0.0002     30.000   1117.000 289726.000     29.708    41.5367    39.9047   -35.6436     0.5007     1.4999    25.0000     5.0000     8.0000    25.0000    25.0000     8.0000     5.0000    25.0000     5.0000    -5.0000     0.0045    20.7712    41.5370     1.6164    14.4503    14.4501     1.6795     0.0000     1.0000     0.0487     0.000
    111     0.6667     0.6666     0.8000     0.0002     30.000   1180.000 289245.000     29.659    41.5367    39.6667   -35.7619     0.5007     1.4999    25.0000     5.0000     8.0000    25.0000    25.0000     8.0000     5.0000    25.0000     5.0000    -5.0000     0.0045    20.7712    41.5370     1.6216    14.4503    14.4501     1.6795     0.0000     1.0000     0.0487     0.000
    112     0.6667     0.6667     0.8050     0.0002     30.000   1177.000 289063.000     29.640    41.5367    39.4273   -35.8826     0.5007     1.4999    25.0000     5.0000     8.0000    25.0000    25.0000     8.0000     5.0000    25.0000     5.0000    -5.0000     0.0045    20.7712    41.5370     1.6269    14.4503    14.4501     1.6795     0.0000     1.0000     0.0488     0.000
    113     0.6667     0.6667     0.8101     0.0002     30.000   1187.000 288573.000     29.590    41.5367    39.1897   -36.0038     0.5007     1.4999    25.0000     5.0000     8.0000    25.0000    25.0000     8.0000     5.0000    25.0000     5.0000    -5.0000     0.0046    20.7712    41.5370     1.6322    14.4503    14.4501     1.6795     0.0000     1.0000     0.0488     0.000
    114     0.6667     0.6666     0.8150     0.0002     30.000   1139.000 290735.000     29.812    41.5367    38.9541   -36.1222     0.5007     1.4999    25.0000     5.0000     8.0000    25.0000    25.0000     8.0000     5.0000    25.0000     5.0000    -5.0000     0.0046    20.7712    41.5370     1.6374    14.4503    14.4501     1.6795     0.0000     1.0000     0.0488     0.000
    115     0.6666     0.6666     0.8200     0.0002     30.000   1147.000 288504.000     29.583    41.5367    38.7195   -36.2410     0.5007     1.4999    25.0000     5.0000     8.0000    25.0000    25.0000     8.0000     5.0000    25.0000     5.0000    -5.0000     0.0046    20.7712    41.5370     1.6426    14.4503    14.4501     1.6794     0.0000     1.0000     0.0492     0.000
    116     0.6666     0.6666     0.8250     0.0002     30.000   1138.000 288470.000     29.579    41.5367    38.4843   -36.3614     0.5007     1.4999    25.0000     5.0000     8.0000    25.0000    25.0000     8.0000     5.0000    25.0000     5.0000    -5.0000     0.0046    20.7712    41.5370     1.6479    14.4503    14.4501     1.6795     0.0000     1.0000     0.0492     0.000
    117     0.6666     0.6665     0.8300     0.0002     30.000   1129.000 289405.000     29.675    41.5367    38.2498   -36.4821     0.5007     1.4999    25.0000     5.0000     8.0000    25.0000    25.0000     8.0000     5.0000    25.0000     5.0000    -5.0000     0.0047    20.7712    41.5370     1.6532    14.4503    14.4501     1.6793     0.0000     1.0000     0.0489     0.000
    118     0.6666     0.6666     0.8350     0.0002     30.000   1117.000 287374.000     29.467    41.5367    38.0183   -36.6058     0.5007     1.4999    25.0000     5.0000     8.0000    25.0000    25.0000     8.0000     5.0000    25.0000     5.0000    -5.0000     0.0047    20.7711    41.5370     1.6586    14.4503    14.4501     1.6795     0.0000     1.0000     0.0489     0.000
    119     0.6666     0.6666     0.8400     0.0002     30.000   1098.000 289394.000     29.674    41.5367    37.7866   -36.7272     0.5007     1.4999    25.0000     5.0000     8.0000    25.0000    25.0000     8.0000     5.0000    25.0000     5.0000    -5.0000     0.0047    20.7712    41.5370     1.6639    14.4503    14.4501     1.6792     0.0000     1.0000     0.0490     0.000
    120     0.6666     0.6665     0.8449     0.0002     30.000   1102.000 288793.000     29.613    41.5367    37.5565   -36.8486     0.5007     1.4999    25.0000     5.0000     8.0000    25.0000    25.0000     8.0000     5.0000    25.0000     5.0000    -5.0000     0.0047    20.7712    41.5370     1.6692    14.4503    14.4501     1.6795     0.0000     1.0000     0.0489     0.000
    121     0.6666     0.6666     0.8500     0.0002     30.000   1149.000 289046.000     29.638    41.5367    37.3251   -36.9742     0.5007     1.4999    25.0000     5.0000     8.0000    25.0000    25.0000     8.0000     5.0000    25.0000     5.0000    -5.0000     0.0047    20.7711    41.5370     1.6747    14.4503    14.4501     1.6795     0.0000     1.0000     0.0489     0.000
    122     0.6666     0.6666     0.8550     0.0002     30.000   1131.000 288766.000     29.610    41.5367    37.0968   -37.0965     0.5007     1.4999    25.0000     5.0000     8.0000    25.0000    25.0000     8.0000     5.0000    25.0000     5.0000    -5.0000     0.0047    20.7711    41.5370     1.6801    14.4503    14.4501     1.6796     0.0000     1.0000     0.0489     0.000
    123     0.6666     0.6666     0.8600     0.0002     30.000   1138.000 289638.000     29.699    41.5367    36.8688   -37.2215     0.5007     1.4999    25.0000     5.0000     8.0000    25.0000    25.0000     8.0000     5.0000    25.0000     5.0000    -5.0000     0.0048    20.7712    41.5370     1.6855    14.4503    14.4501     1.6794     0.0000     1.0000     0.0489     0.000
    124     0.6667     0.6667     0.8650     0.0002     30.000   1134.000 289074.000     29.641    41.5367    36.6424   -37.3476     0.5007     1.4999    25.0000     5.0000     8.0000    25.0000    25.0000     8.0000     5.0000    25.0000     5.0000    -5.0000     0.0047    20.7711    41.5370     1.6910    14.4503    14.4501     1.6795     0.0000     1.0000     0.0485     0.000
    125     0.6666     0.6666     0.8700     0.0002     30.000   1144.000 289508.000     29.686    41.5367    36.4150   -37.4709     0.5007     1.4999    25.0000     5.0000     8.0000    25.0000    25.0000     8.0000     5.0000    25.0000     5.0000    -5.0000     0.0048    20.7711    41.5370     1.6964    14.4503    14.4501     1.6794     0.0000     1.0000     0.0483     0.000
    126     0.6667     0.6666     0.8750     0.0002     30.000   1136.000 287482.000     29.478    41.5367    36.1888   -37.5979     0.5007     1.4999    25.0000     5.0000     8.0000    25.0000    25.0000     8.0000     5.0000    25.0000     5.0000    -5.0000     0.0047    20.7711    41.5370     1.7020    14.4503    14.4501     1.6795     0.0000     1.0000     0.0483     0.000
    127     0.6667     0.6666     0.8800     0.0002     30.000   1110.000 288662.000     29.599    41.5367    35.9653   -37.7225     0.5007     1.4999    25.0000     5.0000     8.0000    25.0000    25.0000     8.0000     5.0000    25.0000     5.0000    -5.0000     0.0048    20.7711    41.5370     1.7074    14.4503    14.4501     1.6794     0.0000     1.0000     0.0487     0.000
    128     0.6667     0.6666     0.8850     0.0002     30.000   1206.000 289439.000     29.679    41.5367    35.7421   -37.8472     0.5007     1.4999    25.0000     5.0000     8.0000    25.0000    25.0000     8.0000     5.0000    25.0000     5.0000    -5.0000     0.0048    20.7711    41.5370     1.7128    14.4503    14.4501     1.6794     0.0000     1.0000     0.0487     0.000
    129     0.6666     0.6666     0.8900     0.0002     30.000   1152.000 289004.000     29.634    41.5367    35.5189   -37.9714     0.5007     1.4999    25.0000     5.0000     8.0000    25.0000    25.0000     8.0000     5.0000    25.0000     5.0000    -5.0000     0.0048    20.7712    41.5370     1.7182    14.4503    14.4501     1.6794     0.0000     1.0000     0.0483     0.000
    130     0.6666     0.6666     0.8950     0.0002     30.000   1160.000 288468.000     29.579    41.5367    35.2957   -38.0980     0.5007     1.4999    25.0000     5.0000     8.0000    25.0000    25.0000     8.0000     5.0000    25.0000     5.0000    -5.0000     0.0049    20.7711    41.5370     1.7238    14.4503    14.4501     1.6794     0.0000     1.0000     0.0483     0.000
    131     0.6666     0.6666     0.9000     0.0002     30.000   1043.000 289220.000     29.656    41.5367    35.0753   -38.2250     0.5007     1.4999    25.0000     5.0000     8.0000    25.0000    25.0000     8.0000     5.0000    25.0000     5.0000    -5.0000     0.0049    20.7711    41.5370     1.7293    14.4503    14.4501     1.6794     0.0000     1.0000     0.0487     0.000
    132     0.6666     0.6666     0.9050     0.0002     30.000   1095.000 288598.000     29.593    41.5367    34.8549   -38.3516     0.5007     1.4999    25.0000     5.0000     8.0000    25.0000    25.0000     8.0000     5.0000    25.0000     5.0000    -5.0000     0.0049    20.7711    41.5370     1.7348    14.4503    14.4501     1.6794     0.0000     1.0000     0.0489     0.000
    133     0.6667     0.6666     0.9100     0.0002     30.000   1171.000 288307.000     29.563    41.5367    34.6361   -38.4813     0.5007     1.4999    25.0000     5.0000     8.0000    25.0000    25.0000     8.0000     5.0000    25.0000     5.0000    -5.0000     0.0049    20.7711    41.5370     1.7405    14.4503    14.4501     1.6794     0.0000     1.0000     0.0489     0.000
    134     0.6666     0.6666     0.9150     0.0002     30.000   1094.000 288976.000     29.631    41.5367    34.4161   -38.6065     0.5007     1.4999    25.0000     5.0000     8.0000    25.0000    25.0000     8.0000     5.0000    25.0000     5.0000    -5.0000     0.0049    20.7711    41.5370     1.7459    14.4503    14.4501     1.6794     0.0000     1.0000     0.0486     0.000
    135     0.6666     0.6666     0.9200     0.0002     30.000   1147.000 288371.000     29.569    41.5367    34.1980   -38.7353     0.5007     1.4999    25.0000     5.0000     8.0000    25.0000    25.0000     8.0000     5.0000    25.0000     5.0000    -5.0000     0.0049    20.7711    41.5370     1.7515    14.4503    14.4501     1.6794     0.0000     1.0000     0.0486     0.000
    136     0.6666     0.6666     0.9250     0.0002     30.000   1098.000 288255.000     29.557    41.5367    33.9814   -38.8636     0.5007     1.4999    25.0000     5.0000     8.0000    25.0000    25.0000     8.0000     5.0000    25.0000     5.0000    -5.0000     0.0050    20.7711    41.5370     1.7571    14.4503    14.4501     1.6790     0.0000     1.0000     0.0484     0.000
    137     0.6666     0.6666     0.9300     0.0002     30.000   1093.000 288503.000     29.583    41.5367    33.7657   -38.9928     0.5007     1.4999    25.0000     5.0000     8.0000    25.0000    25.0000     8.0000     5.0000    25.0000     5.0000    -5.0000     0.0049    20.7711    41.5370     1.7627    14.4503    14.4501     1.6794     0.0000     1.0000     0.0484     0.000
    138     0.6667     0.6667     0.9350     0.0002     30.000   1097.000 289561.000     29.691    41.5367    33.5501   -39.1249     0.5007     1.4999    25.0000     5.0000     8.0000    25.0000    25.0000     8.0000     5.0000    25.0000     5.0000    -5.0000     0.0050    20.7711    41.5370     1.7684    14.4503    14.4501     1.6794     0.0000     1.0000     0.0487     0.000
    139     0.6667     0.6667     0.9400     0.0002     30.000   1096.000 289342.000     29.669    41.5367    33.3345   -39.2545     0.5007     1.4999    25.0000     5.0000     8.0000    25.0000    25.0000     8.0000     5.0000    25.0000     5.0000    -5.0000     0.0050    20.7711    41.5370     1.7741    14.4503    14.4501     1.6793     0.0000     1.0000     0.0485     0.000
    140     0.6666     0.6666     0.9450     0.0002     30.000   1157.000 289426.000     29.677    41.5367    33.1198   -39.3827     0.5007     1.4999    25.0000     5.0000     8.0000    25.0000    25.0000     8.0000     5.0000    25.0000     5.0000    -5.0000     0.0050    20.7712    41.5370     1.7796    14.4503    14.4501     1.6793     0.0000     1.0000     0.0485     0.000
    141     0.6666     0.6665     0.9500     0.0002     30.000   1165.000 290020.000     29.738    41.5367    32.9073   -39.5094     0.5007     1.4999    25.0000     5.0000     8.0000    25.0000    25.0000     8.0000     5.0000    25.0000     5.0000    -5.0000     0.0050    20.7712    41.5370     1.7851    14.4503    14.4501     1.6795     0.0000     1.0000     0.0488     0.000
    142     0.6666     0.6666     0.9550     0.0002     30.000   1098.000 288603.000     29.593    41.5367    32.6958   -39.6405     0.5007     1.4999    25.0000     5.0000     8.0000    25.0000    25.0000     8.0000     5.0000    25.0000     5.0000    -5.0000     0.0050    20.7711    41.5370     1.7908    14.4503    14.4501     1.6794     0.0000     1.0000     0.0488     0.000
    143     0.6666     0.6665     0.9599     0.0002     30.000   1066.000 289476.000     29.683    41.5367    32.4839   -39.7699     0.5007     1.4999    25.0000     5.0000     8.0000    25.0000    25.0000     8.0000     5.0000    25.0000     5.0000    -5.0000     0.0050    20.7711    41.5370     1.7964    14.4503    14.4501     1.6793     0.0000     1.0000     0.0487     0.000
    144     0.6667     0.6667     0.9650     0.0002     30.000   1150.000 289080.000     29.642    41.5367    32.2725   -39.9065     0.5007     1.4999    25.0000     5.0000     8.0000    25.0000    25.0000     8.0000     5.0000    25.0000     5.0000    -5.0000     0.0050    20.7711    41.5370     1.8023    14.4503    14.4501     1.6793     0.0000     1.0000     0.0487     0.000
    145     0.6665     0.6664     0.9699     0.0002     30.000   1119.000 288868.000     29.620    41.5367    32.0624   -40.0282     0.5007     1.4999    25.0000     5.0000     8.0000    25.0000    25.0000     8.0000     5.0000    25.0000     5.0000    -5.0000     0.0051    20.7711    41.5370     1.8076    14.4503    14.4501     1.6793     0.0000     1.0000     0.0484     0.000
    146     0.6667     0.6667     0.9750     0.0002     30.000   1112.000 289912.000     29.727    41.5367    31.8536   -40.1700     0.5007     1.4999    25.0000     5.0000     8.0000    25.0000    25.0000     8.0000     5.0000    25.0000     5.0000    -5.0000     0.0050    20.7712    41.5370     1.8137    14.4503    14.4501     1.6793     0.0000     1.0000     0.0484     0.000
    147     0.6666     0.6665     0.9799     0.0002     30.000   1125.000 289483.000     29.683    41.5367    31.6453   -40.2956     0.5007     1.4999    25.0000     5.0000     8.0000    25.0000    25.0000     8.0000     5.0000    25.0000     5.0000    -5.0000     0.0051    20.7711    41.5370     1.8192    14.4503    14.4501     1.6792     0.0000     1.0000     0.0484     0.000
    148     0.6666     0.6666     0.9850     0.0002     30.000   1163.000 289207.000     29.655    41.5367    31.4370   -40.4308     0.5007     1.4999    25.0000     5.0000     8.0000    25.0000    25.0000     8.0000     5.0000    25.0000     5.0000    -5.0000     0.0051    20.7711    41.5370     1.8250    14.4503    14.4501     1.6792     0.0000     1.0000     0.0484     0.000
    149     0.6666     0.6666     0.9900     0.0002     30.000   1141.000 288683.000     29.601    41.5367    31.2291   -40.5628     0.5007     1.4999    25.0000     5.0000     8.0000    25.0000    25.0000     8.0000     5.0000    25.0000     5.0000    -5.0000     0.0051    20.7711    41.5370     1.8307    14.4503    14.4501     1.6792     0.0000     1.0000     0.0484     0.000
    150     0.6667     0.6667     0.9950     0.0002     30.000   1091.000 289371.000     29.672    41.5367    31.0238   -40.6994     0.5007     1.4999    25.0000     5.0000     8.0000    25.0000    25.0000     8.0000     5.0000    25.0000     5.0000    -5.0000     0.0052    20.7711    41.5370     1.8366    14.4503    14.4501     1.6792     0.0000     1.0000     0.0485     0.000
    151     0.6667     0.6666     1.0000     0.0002     30.000   1144.000 289544.000     29.690    41.5367    30.8180   -40.8316     0.5007     1.4999    25.0000     5.0000     8.0000    25.0000    25.0000     8.0000     5.0000    25.0000     5.0000    -5.0000     0.0052    20.7711    41.5370     1.8424    14.4503    14.4501     1.6792     0.0000     1.0000     0.0485     0.000
    152     0.6667     0.6666     1.0050     0.0002     30.000   1128.000 288767.000     29.610    41.5367    30.6138   -40.9650     0.5007     1.4999    25.0000     5.0000     8.0000    25.0000    25.0000     8.0000     5.0000    25.0000     5.0000    -5.0000     0.0052    20.7711    41.5370     1.8481    14.4503    14.4501     1.6793     0.0000     1.0000     0.0489     0.000
    153     0.6666     0.6666     1.0100     0.0002     30.000   1119.000 289813.000     29.717    41.5367    30.4082   -41.0973     0.5007     1.4999    25.0000     5.0000     8.0000    25.0000    25.0000     8.0000     5.0000    25.0000     5.0000    -5.0000     0.0052    20.7711    41.5370     1.8538    14.4503    14.4501     1.6787     0.0000     1.0000     0.0489     0.000
    154     0.6666     0.6666     1.0150     0.0002     30.000   1081.000 289509.000     29.686    41.5367    30.2045   -41.2310     0.5007     1.4999    25.0000     5.0000     8.0000    25.0000    25.0000     8.0000     5.0000    25.0000     5.0000    -5.0000     0.0052    20.7711    41.5370     1.8596    14.4503    14.4501     1.6792     0.0000     1.0000     0.0489     0.000
    155     0.6666     0.6666     1.0200     0.0002     30.000   1149.000 288244.000     29.556    41.5367    30.0023   -41.3652     0.5007     1.4999    25.0000     5.0000     8.0000    25.0000    25.0000     8.0000     5.0000    25.0000     5.0000    -5.0000     0.0052    20.7711    41.5370     1.8654    14.4503    14.4501     1.6790     0.0000     1.0000     0.0486     0.000
    156     0.6666     0.6665     1.0249     0.0002     30.000   1144.000 289271.000     29.662    41.5367    29.8003   -41.4979     0.5007     1.4999    25.0000     5.0000     8.0000    25.0000    25.0000     8.0000     5.0000    25.0000     5.0000    -5.0000     0.0052    20.7711    41.5370     1.8711    14.4503    14.4501     1.6791     0.0000     1.0000     0.0486     0.000
    157     0.6666     0.6666     1.0300     0.0002     30.000   1099.000 289128.000     29.647    41.5367    29.5991   -41.6351     0.5007     1.4999    25.0000     5.0000     8.0000    25.0000    25.0000     8.0000     5.0000    25.0000     5.0000    -5.0000     0.0052    20.7711    41.5370     1.8770    14.4503    14.4501     1.6792     0.0000     1.0000     0.0487     0.000
    158     0.6666     0.6665     1.0350     0.0002     30.000   1135.000 288862.000     29.620    41.5367    29.3967   -41.7698     0.5007     1.4999    25.0000     5.0000     8.0000    25.0000    25.0000     8.0000     5.0000    25.0000     5.0000    -5.0000     0.0053    20.7711    41.5370     1.8828    14.4503    14.4501     1.6791     0.0000     1.0000     0.0487     0.000
    159     0.6666     0.6666     1.0400     0.0002     30.000   1058.000 289730.000     29.709    41.5367    29.1966   -41.9077     0.5007     1.4999    25.0000     5.0000     8.0000    25.0000    25.0000     8.0000     5.0000    25.0000     5.0000    -5.0000     0.0053    20.7711    41.5370     1.8888    14.4503    14.4501     1.6791     0.0000     1.0000     0.0486     0.000
    160     0.6666     0.6666     1.0450     0.0002     30.000   1028.000 288549.000     29.587    41.5367    28.9977   -42.0443     0.5007     1.4999    25.0000     5.0000     8.0000    25.0000    25.0000     8.0000     5.0000    25.0000     5.0000    -5.0000     0.0054    20.7711    41.5370     1.8946    14.4503    14.4501     1.6792     0.0000     1.0000     0.0484     0.000
    161     0.6666     0.6666     1.0500     0.0002     30.000   1113.000 288958.000     29.629    41.5367    28.7991   -42.1799     0.5007     1.4999    25.0000     5.0000     8.0000    25.0000    25.0000     8.0000     5.0000    25.0000     5.0000    -5.0000     0.0054    20.7711    41.5370     1.9005    14.4503    14.4501     1.6791     0.0000     1.0000     0.0484     0.000
    162     0.6667     0.6667     1.0550     0.0002     30.000   1110.000 288797.000     29.613    41.5367    28.6014   -42.3206     0.5007     1.4999    25.0000     5.0000     8.0000    25.0000    25.0000     8.0000     5.0000    25.0000     5.0000    -5.0000     0.0054    20.7711    41.5370     1.9065    14.4503    14.4501     1.6791     0.0000     1.0000     0.0484     0.000
    163     0.6667     0.6667     1.0601     0.0002     30.000   1085.000 288843.000     29.618    41.5367    28.4025   -42.4568     0.5007     1.4999    25.0000     5.0000     8.0000    25.0000    25.0000     8.0000     5.0000    25.0000     5.0000    -5.0000     0.0053    20.7711    41.5369     1.9124    14.4503    14.4501     1.6791     0.0000     1.0000     0.0484     0.000
    164     0.6667     0.6666     1.0650     0.0002     30.000   1084.000 289430.000     29.678    41.5367    28.2060   -42.5927     0.5007     1.4999    25.0000     5.0000     8.0000    25.0000    25.0000     8.0000     5.0000    25.0000     5.0000    -5.0000     0.0054    20.7711    41.5370     1.9182    14.4503    14.4501     1.6790     0.0000     1.0000     0.0485     0.000
    165     0.6667     0.6666     1.0700     0.0002     30.000   1113.000 289657.000     29.701    41.5367    28.0100   -42.7294     0.5007     1.4999    25.0000     5.0000     8.0000    25.0000    25.0000     8.0000     5.0000    25.0000     5.0000    -5.0000     0.0054    20.7712    41.5370     1.9241    14.4503    14.4501     1.6791     0.0000     1.0000     0.0485     0.000
    166     0.6666     0.6666     1.0750     0.0002     30.000   1120.000 288798.000     29.613    41.5367    27.8151   -42.8643     0.5007     1.4999    25.0000     5.0000     8.0000    25.0000    25.0000     8.0000     5.0000    25.0000     5.0000    -5.0000     0.0054    20.7711    41.5370     1.9299    14.4503    14.4501     1.6790     0.0000     1.0000     0.0485     0.000
    167     0.6666     0.6666     1.0800     0.0002     30.000   1047.000 289203.000     29.655    41.5367    27.6199   -43.0026     0.5007     1.4999    25.0000     5.0000     8.0000    25.0000    25.0000     8.0000     5.0000    25.0000     5.0000    -5.0000     0.0054    20.7711    41.5370     1.9358    14.4503    14.4501     1.6789     0.0000     1.0000     0.0483     0.000
    168     0.6666     0.6665     1.0849     0.0002     30.000   1125.000 290185.000     29.755    41.5367    27.4252   -43.1390     0.5007     1.4999    25.0000     5.0000     8.0000    25.0000    25.0000     8.0000     5.0000    25.0000     5.0000    -5.0000     0.0054    20.7711    41.5370     1.9416    14.4503    14.4501     1.6790     0.0000     1.0000     0.0483     0.000
    169     0.6666     0.6665     1.0900     0.0002     30.000   1119.000 289045.000     29.638    41.5367    27.2306   -43.2781     0.5007     1.4999    25.0000     5.0000     8.0000    25.0000    25.0000     8.0000     5.0000    25.0000     5.0000    -5.0000     0.0054    20.7711    41.5370     1.9476    14.4503    14.4501     1.6790     0.0000     1.0000     0.0483     0.000
    170     0.6666     0.6666     1.0950     0.0002     30.000   1103.000 289442.000     29.679    41.5367    27.0386   -43.4190     0.5007     1.4999    25.0000     5.0000     8.0000    25.0000    25.0000     8.0000     5.0000    25.0000     5.0000    -5.0000     0.0054    20.7711    41.5370     1.9536    14.4503    14.4501     1.6786     0.0000     1.0000     0.0483     0.000
    171     0.6666     0.6666     1.1000     0.0002     30.000   1153.000 288906.000     29.624    41.5367    26.8462   -43.5582     0.5007     1.4999    25.0000     5.0000     8.0000    25.0000    25.0000     8.0000     5.0000    25.0000     5.0000    -5.0000     0.0055    20.7711    41.5370     1.9596    14.4503    14.4501     1.6790     0.0000     1.0000     0.0485     0.000
    172     0.6666     0.6666     1.1050     0.0002     30.000   1073.000 289247.000     29.659    41.5367    26.6547   -43.6963     0.5007     1.4999    25.0000     5.0000     8.0000    25.0000    25.0000     8.0000     5.0000    25.0000     5.0000    -5.0000     0.0055    20.7711    41.5370     1.9655    14.4503    14.4501     1.6789     0.0000     1.0000     0.0483     0.000
    173     0.6666     0.6666     1.1100     0.0002     30.000   1097.000 289012.000     29.635    41.5367    26.4626   -43.8379     0.5007     1.4999    25.0000     5.0000     8.0000    25.0000    25.0000     8.0000     5.0000    25.0000     5.0000    -5.0000     0.0055    20.7711    41.5370     1.9716    14.4503    14.4501     1.6790     0.0000     1.0000     0.0483     0.000
    174     0.6667     0.6666     1.1150     0.0002     30.000   1129.000 288139.000     29.545    41.5367    26.2714   -43.9798     0.5007     1.4999    25.0000     5.0000     8.0000    25.0000    25.0000     8.0000     5.0000    25.0000     5.0000    -5.0000     0.0055    20.7711    41.5370     1.9776    14.4503    14.4501     1.6790     0.0000     1.0000     0.0485     0.000
    175     0.6667     0.6666     1.1200     0.0002     30.000   1147.000 288293.000     29.561    41.5367    26.0822   -44.1201     0.5007     1.4999    25.0000     5.0000     8.0000    25.0000    25.0000     8.0000     5.0000    25.0000     5.0000    -5.0000     0.0055    20.7711    41.5370     1.9836    14.4503    14.4501     1.6789     0.0000     1.0000     0.0485     0.000
    176     0.6667     0.6666     1.1250     0.0002     30.000   1140.000 289156.000     29.650    41.5367    25.8925   -44.2603     0.5007     1.4999    25.0000     5.0000     8.0000    25.0000    25.0000     8.0000     5.0000    25.0000     5.0000    -5.0000     0.0055    20.7711    41.5370     1.9896    14.4503    14.4501     1.6789     0.0000     1.0000     0.0485     0.000
    177     0.6667     0.6666     1.1300     0.0002     30.000   1064.000 288914.000     29.625    41.5367    25.7046   -44.3997     0.5007     1.4999    25.0000     5.0000     8.0000    25.0000    25.0000     8.0000     5.0000    25.0000     5.0000    -5.0000     0.0055    20.7711    41.5370     1.9956    14.4503    14.4501     1.6790     0.0000     1.0000     0.0485     0.000
    178     0.6666     0.6666     1.1350     0.0002     30.000   1087.000 289206.000     29.655    41.5367    25.5159   -44.5397     0.5007     1.4999    25.0000     5.0000     8.0000    25.0000    25.0000     8.0000     5.0000    25.0000     5.0000    -5.0000     0.0055    20.7711    41.5370     2.0015    14.4503    14.4501     1.6789     0.0000     1.0000     0.0482     0.000
    179     0.6666     0.6666     1.1400     0.0002     30.000   1055.000 288939.000     29.627    41.5367    25.3268   -44.6811     0.5007     1.4999    25.0000     5.0000     8.0000    25.0000    25.0000     8.0000     5.0000    25.0000     5.0000    -5.0000     0.0055    20.7711    41.5370     2.0076    14.4503    14.4501     1.6789     0.0000     1.0000     0.0482     0.000
    180     0.6666     0.6665     1.1450     0.0002     30.000   1045.000 289696.000     29.705    41.5367    25.1400   -44.8213     0.5007     1.4999    25.0000     5.0000     8.0000    25.0000    25.0000     8.0000     5.0000    25.0000     5.0000    -5.0000     0.0055    20.7711    41.5370     2.0135    14.4503    14.4501     1.6790     0.0000     1.0000     0.0482     0.000
    181     0.6666     0.6666     1.1500     0.0002     30.000   1108.000 288658.000     29.599    41.5367    24.9537   -44.9647     0.5007     1.4999    25.0000     5.0000     8.0000    25.0000    25.0000     8.0000     5.0000    25.0000     5.0000    -5.0000     0.0055    20.7711    41.5370     2.0196    14.4503    14.4501     1.6790     0.0000     1.0000     0.0480     0.000
    182     0.6666     0.6666     1.1550     0.0002     30.000   1078.000 288747.000     29.608    41.5367    24.7682   -45.1071     0.5007     1.4999    25.0000     5.0000     8.0000    25.0000    25.0000     8.0000     5.0000    25.0000     5.0000    -5.0000     0.0055    20.7711    41.5370     2.0257    14.4503    14.4501     1.6790     0.0000     1.0000     0.0480     0.000
    183     0.6666     0.6666     1.1600     0.0002     30.000   1085.000 289194.000     29.654    41.5367    24.5830   -45.2484     0.5007     1.4999    25.0000     5.0000     8.0000    25.0000    25.0000     8.0000     5.0000    25.0000     5.0000    -5.0000     0.0055    20.7711    41.5370     2.0317    14.4503    14.4501     1.6789     0.0000     1.0000     0.0493     0.000
    184     0.6666     0.6666     1.1650     0.0002     30.000   1074.000 289819.000     29.718    41.5367    24.3968   -45.3909     0.5007     1.4999    25.0000     5.0000     8.0000    25.0000    25.0000     8.0000     5.0000    25.0000     5.0000    -5.0000     0.0055    20.7711    41.5370     2.0378    14.4503    14.4501     1.6790     0.0000     1.0000     0.0493     0.000
    185     0.6667     0.6666     1.1700     0.0002     30.000   1036.000 289119.000     29.646    41.5367    24.2119   -45.5378     0.5007     1.4999    25.0000     5.0000     8.0000    25.0000    25.0000     8.0000     5.0000    25.0000     5.0000    -5.0000     0.0056    20.7711    41.5370     2.0440    14.4503    14.4501     1.6790     0.0000     1.0000     0.0493     0.000
    186     0.6666     0.6666     1.1750     0.0002     30.000   1045.000 289465.000     29.681    41.5367    24.0289   -45.6784     0.5007     1.4999    25.0000     5.0000     8.0000    25.0000    25.0000     8.0000     5.0000    25.0000     5.0000    -5.0000     0.0056    20.7711    41.5370     2.0500    14.4503    14.4501     1.6789     0.0000     1.0000     0.0492     0.000
    187     0.6667     0.6667     1.1800     0.0002     30.000   1046.000 289161.000     29.650    41.5367    23.8463   -45.8248     0.5007     1.4999    25.0000     5.0000     8.0000    25.0000    25.0000     8.0000     5.0000    25.0000     5.0000    -5.0000     0.0056    20.7711    41.5370     2.0562    14.4503    14.4501     1.6786     0.0000     1.0000     0.0492     0.000
    188     0.6666     0.6666     1.1850     0.0002     30.000   1013.000 289231.000     29.657    41.5367    23.6633   -45.9638     0.5007     1.4999    25.0000     5.0000     8.0000    25.0000    25.0000     8.0000     5.0000    25.0000     5.0000    -5.0000     0.0056    20.7711    41.5370     2.0621    14.4503    14.4501     1.6789     0.0000     1.0000     0.0490     0.000
    189     0.6666     0.6666     1.1900     0.0002     30.000   1001.000 289731.000     29.709    41.5367    23.4802   -46.1077     0.5007     1.4999    25.0000     5.0000     8.0000    25.0000    25.0000     8.0000     5.0000    25.0000     5.0000    -5.0000     0.0056    20.7711    41.5370     2.0682    14.4503    14.4501     1.6785     0.0000     1.0000     0.0490     0.000
    190     0.6666     0.6665     1.1950     0.0002     30.000   1089.000 289442.000     29.679    41.5367    23.2982   -46.2510     0.5007     1.4999    25.0000     5.0000     8.0000    25.0000    25.0000     8.0000     5.0000    25.0000     5.0000    -5.0000     0.0056    20.7711    41.5370     2.0743    14.4503    14.4501     1.6789     0.0000     1.0000     0.0490     0.000
    191     0.6666     0.6665     1.1999     0.0002     30.000   1047.000 289262.000     29.661    41.5367    23.1174   -46.3946     0.5007     1.4999    25.0000     5.0000     8.0000    25.0000    25.0000     8.0000     5.0000    25.0000     5.0000    -5.0000     0.0056    20.7711    41.5370     2.0804    14.4503    14.4501     1.6788     0.0000     1.0000     0.0490     0.000
    192     0.6666     0.6665     1.2050     0.0002     30.000   1039.000 289745.000     29.710    41.5367    22.9366   -46.5402     0.5007     1.4999    25.0000     5.0000     8.0000    25.0000    25.0000     8.0000     5.0000    25.0000     5.0000    -5.0000     0.0056    20.7711    41.5370     2.0865    14.4503    14.4501     1.6789     0.0000     1.0000     0.0489     0.000
    193     0.6666     0.6666     1.2100     0.0002     30.000   1077.000 289691.000     29.705    41.5367    22.7569   -46.6857     0.5007     1.4999    25.0000     5.0000     8.0000    25.0000    25.0000     8.0000     5.0000    25.0000     5.0000    -5.0000     0.0057    20.7711    41.5370     2.0927    14.4503    14.4501     1.6790     0.0000     1.0000     0.0487     0.000
    194     0.6666     0.6666     1.2150     0.0002     30.000   1009.000 288695.000     29.602    41.5367    22.5774   -46.8321     0.5007     1.4999    25.0000     5.0000     8.0000    25.0000    25.0000     8.0000     5.0000    25.0000     5.0000    -5.0000     0.0057    20.7711    41.5370     2.0989    14.4503    14.4501     1.6789     0.0000     1.0000     0.0487     0.000
    195     0.6666     0.6666     1.2200     0.0002     30.000   1048.000 289303.000     29.665    41.5367    22.3969   -46.9767     0.5007     1.4999    25.0000     5.0000     8.0000    25.0000    25.0000     8.0000     5.0000    25.0000     5.0000    -5.0000     0.0057    20.7711    41.5370     2.1050    14.4503    14.4501     1.6789     0.0000     1.0000     0.0485     0.000
    196     0.6666     0.6666     1.2250     0.0002     30.000   1045.000 288531.000     29.586    41.5367    22.2179   -47.1241     0.5007     1.4999    25.0000     5.0000     8.0000    25.0000    25.0000     8.0000     5.0000    25.0000     5.0000    -5.0000     0.0057    20.7711    41.5370     2.1112    14.4503    14.4501     1.6788     0.0000     1.0000     0.0485     0.000
    197     0.6666     0.6666     1.2300     0.0002     30.000   1059.000 288998.000     29.634    41.5367    22.0405   -47.2696     0.5007     1.4999    25.0000     5.0000     8.0000    25.0000    25.0000     8.0000     5.0000    25.0000     5.0000    -5.0000     0.0057    20.7711    41.5370     2.1174    14.4503    14.4501     1.6788     0.0000     1.0000     0.0487     0.000
    198     0.6667     0.6667     1.2351     0.0002     30.000   1078.000 288797.000     29.613    41.5367    21.8629   -47.4198     0.5007     1.4999    25.0000     5.0000     8.0000    25.0000    25.0000     8.0000     5.0000    25.0000     5.0000    -5.0000     0.0057    20.7711    41.5370     2.1237    14.4503    14.4501     1.6788     0.0000     1.0000     0.0487     0.000
    199     0.6666     0.6666     1.2400     0.0002     30.000   1020.000 288803.000     29.614    41.5367    21.6861   -47.5613     0.5007     1.4999    25.0000     5.0000     8.0000    25.0000    25.0000     8.0000     5.0000    25.0000     5.0000    -5.0000     0.0057    20.7711    41.5370     2.1297    14.4503    14.4501     1.6788     0.0000     1.0000     0.0484     0.000
    200     0.6666     0.6666     1.2450     0.0002     30.000   1030.000 289504.000     29.685    41.5367    21.5087   -47.7081     0.5007     1.4999    25.0000     5.0000     8.0000    25.0000    25.0000     8.0000     5.0000    25.0000     5.0000    -5.0000     0.0057    20.7711    41.5370     2.1359    14.4503    14.4501     1.6788     0.0000     1.0000     0.0481     0.000
    201     0.6665     0.6665     1.2499     0.0002     30.000   1026.000 288925.000     29.626    41.5367    21.3317   -47.8529     0.5007     1.4999    25.0000     5.0000     8.0000    25.0000    25.0000     8.0000     5.0000    25.0000     5.0000    -5.0000     0.0057    20.7711    41.5370     2.1420    14.4503    14.4501     1.6788     0.0000     1.0000     0.0481     0.000
    202     0.6666     0.6665     1.2549     0.0002     30.000    983.000 289706.000     29.706    41.5367    21.1565   -48.0005     0.5007     1.4999    25.0000     5.0000     8.0000    25.0000    25.0000     8.0000     5.0000    25.0000     5.0000    -5.0000     0.0057    20.7711    41.5370     2.1482    14.4503    14.4501     1.6788     0.0000     1.0000     0.0482     0.000
    203     0.6666     0.6665     1.2600     0.0002     30.000   1016.000 288679.000     29.601    41.5367    20.9807   -48.1488     0.5007     1.4999    25.0000     5.0000     8.0000    25.0000    25.0000     8.0000     5.0000    25.0000     5.0000    -5.0000     0.0058    20.7711    41.5370     2.1544    14.4503    14.4501     1.6788     0.0000     1.0000     0.0482     0.000
    204     0.6666     0.6666     1.2650     0.0002     30.000   1011.000 289073.000     29.641    41.5367    20.8067   -48.2968     0.5007     1.4999    25.0000     5.0000     8.0000    25.0000    25.0000     8.0000     5.0000    25.0000     5.0000    -5.0000     0.0057    20.7710    41.5370     2.1607    14.4503    14.4501     1.6787     0.0000     1.0000     0.0484     0.000
    205     0.6666     0.6666     1.2700     0.0002     30.000   1051.000 289072.000     29.641    41.5367    20.6321   -48.4449     0.5007     1.4999    25.0000     5.0000     8.0000    25.0000    25.0000     8.0000     5.0000    25.0000     5.0000    -5.0000     0.0058    20.7711    41.5370     2.1669    14.4503    14.4501     1.6788     0.0000     1.0000     0.0484     0.000
    206     0.6666     0.6666     1.2750     0.0002     30.000   1056.000 288845.000     29.618    41.5367    20.4576   -48.5936     0.5007     1.4999    25.0000     5.0000     8.0000    25.0000    25.0000     8.0000     5.0000    25.0000     5.0000    -5.0000     0.0058    20.7711    41.5370     2.1732    14.4503    14.4501     1.6784     0.0000     1.0000     0.0482     0.000
    207     0.6667     0.6666     1.2800     0.0002     30.000   1000.000 288656.000     29.598    41.5367    20.2834   -48.7458     0.5007     1.4999    25.0000     5.0000     8.0000    25.0000    25.0000     8.0000     5.0000    25.0000     5.0000    -5.0000     0.0058    20.7711    41.5370     2.1795    14.4503    14.4501     1.6787     0.0000     1.0000     0.0482     0.000
    208     0.6667     0.6666     1.2850     0.0002     30.000   1020.000 288809.000     29.614    41.5367    20.1108   -48.8941     0.5007     1.4999    25.0000     5.0000     8.0000    25.0000    25.0000     8.0000     5.0000    25.0000     5.0000    -5.0000     0.0058    20.7711    41.5370     2.1858    14.4503    14.4501     1.6787     0.0000     1.0000     0.0482     0.000
    209     0.6667     0.6667     1.2900     0.0002     30.000   1021.000 289561.000     29.691    41.5367    19.9384   -49.0438     0.5007     1.4999    25.0000     5.0000     8.0000    25.0000    25.0000     8.0000     5.0000    25.0000     5.0000    -5.0000     0.0058    20.7711    41.5370     2.1920    14.4503    14.4501     1.6787     0.0000     1.0000     0.0483     0.000
    210     0.6667     0.6667     1.2950     0.0002     30.000    947.000 288701.000     29.603    41.5367    19.7667   -49.1921     0.5007     1.4999    25.0000     5.0000     8.0000    25.0000    25.0000     8.0000     5.0000    25.0000     5.0000    -5.0000     0.0058    20.7711    41.5370     2.1983    14.4503    14.4501     1.6787     0.0000     1.0000     0.0483     0.000
    211     0.6667     0.6666     1.3000     0.0002     30.000   1079.000 289295.000     29.664    41.5367    19.5944   -49.3413     0.5007     1.4999    25.0000     5.0000     8.0000    25.0000    25.0000     8.0000     5.0000    25.0000     5.0000    -5.0000     0.0058    20.7711    41.5370     2.2045    14.4503    14.4501     1.6787     0.0000     1.0000     0.0482     0.000
    212     0.6666     0.6665     1.3049     0.0002     30.000   1132.000 288902.000     29.624    41.5367    19.4228   -49.4862     0.5007     1.4999    25.0000     5.0000     8.0000    25.0000    25.0000     8.0000     5.0000    25.0000     5.0000    -5.0000     0.0058    20.7711    41.5370     2.2106    14.4503    14.4501     1.6787     0.0000     1.0000     0.0482     0.000
    213     0.6666     0.6665     1.3100     0.0002     30.000   1045.000 289591.000     29.694    41.5367    19.2515   -49.6365     0.5007     1.4999    25.0000     5.0000     8.0000    25.0000    25.0000     8.0000     5.0000    25.0000     5.0000    -5.0000     0.0058    20.7711    41.5370     2.2169    14.4503    14.4501     1.6786     0.0000     1.0000     0.0481     0.000
    214     0.6666     0.6666     1.3150     0.0002     30.000   1094.000 289190.000     29.653    41.5367    19.0816   -49.7870     0.5007     1.4999    25.0000     5.0000     8.0000    25.0000    25.0000     8.0000     5.0000    25.0000     5.0000    -5.0000     0.0058    20.7711    41.5370     2.2232    14.4503    14.4501     1.6787     0.0000     1.0000     0.0482     0.000
    215     0.6666     0.6666     1.3200     0.0002     30.000   1053.000 289003.000     29.634    41.5367    18.9110   -49.9385     0.5007     1.4999    25.0000     5.0000     8.0000    25.0000    25.0000     8.0000     5.0000    25.0000     5.0000    -5.0000     0.0058    20.7711    41.5370     2.2295    14.4503    14.4501     1.6786     0.0000     1.0000     0.0482     0.000
    216     0.6666     0.6666     1.3250     0.0002     30.000   1012.000 289361.000     29.671    41.5367    18.7426   -50.0882     0.5007     1.4999    25.0000     5.0000     8.0000    25.0000    25.0000     8.0000     5.0000    25.0000     5.0000    -5.0000     0.0058    20.7711    41.5370     2.2358    14.4503    14.4501     1.6786     0.0000     1.0000     0.0483     0.000
    217     0.6666     0.6666     1.3300     0.0002     30.000   1054.000 289650.000     29.700    41.5367    18.5727   -50.2408     0.5007     1.4999    25.0000     5.0000     8.0000    25.0000    25.0000     8.0000     5.0000    25.0000     5.0000    -5.0000     0.0058    20.7711    41.5370     2.2421    14.4503    14.4501     1.6786     0.0000     1.0000     0.0483     0.000
    218     0.6666     0.6666     1.3350     0.0002     30.000    966.000 288938.000     29.627    41.5367    18.4032   -50.3915     0.5007     1.4999    25.0000     5.0000     8.0000    25.0000    25.0000     8.0000     5.0000    25.0000     5.0000    -5.0000     0.0058    20.7711    41.5370     2.2484    14.4503    14.4501     1.6786     0.0000     1.0000     0.0481     0.000
    219     0.6667     0.6666     1.3400     0.0002     30.000    942.000 288734.000     29.606    41.5367    18.2344   -50.5453     0.5007     1.4999    25.0000     5.0000     8.0000    25.0000    25.0000     8.0000     5.0000    25.0000     5.0000    -5.0000     0.0058    20.7711    41.5370     2.2548    14.4503    14.4501     1.6786     0.0000     1.0000     0.0480     0.000
    220     0.6667     0.6667     1.3450     0.0002     30.000   1062.000 289831.000     29.719    41.5367    18.0673   -50.6975     0.5007     1.4999    25.0000     5.0000     8.0000    25.0000    25.0000     8.0000     5.0000    25.0000     5.0000    -5.0000     0.0059    20.7711    41.5370     2.2612    14.4503    14.4501     1.6786     0.0000     1.0000     0.0480     0.000
    221     0.6667     0.6666     1.3500     0.0002     30.000   1008.000 288546.000     29.587    41.5367    17.8990   -50.8482     0.5007     1.4999    25.0000     5.0000     8.0000    25.0000    25.0000     8.0000     5.0000    25.0000     5.0000    -5.0000     0.0059    20.7710    41.5370     2.2674    14.4503    14.4501     1.6785     0.0000     1.0000     0.0480     0.000
    222     0.6667     0.6666     1.3550     0.0002     30.000   1013.000 289504.000     29.685    41.5367    17.7327   -50.9984     0.5007     1.4999    25.0000     5.0000     8.0000    25.0000    25.0000     8.0000     5.0000    25.0000     5.0000    -5.0000     0.0059    20.7711    41.5370     2.2737    14.4503    14.4501     1.6785     0.0000     1.0000     0.0480     0.000
    223     0.6666     0.6666     1.3600     0.0002     30.000   1052.000 289474.000     29.682    41.5367    17.5656   -51.1496     0.5007     1.4999    25.0000     5.0000     8.0000    25.0000    25.0000     8.0000     5.0000    25.0000     5.0000    -5.0000     0.0058    20.7711    41.5370     2.2800    14.4503    14.4501     1.6781     0.0000     1.0000     0.0480     0.000
    224     0.6666     0.6666     1.3650     0.0002     30.000   1032.000 289918.000     29.728    41.5367    17.3985   -51.3016     0.5007     1.4999    25.0000     5.0000     8.0000    25.0000    25.0000     8.0000     5.0000    25.0000     5.0000    -5.0000     0.0059    20.7711    41.5370     2.2863    14.4503    14.4501     1.6785     0.0000     1.0000     0.0480     0.000
    225     0.6666     0.6666     1.3700     0.0002     30.000   1024.000 289856.000     29.722    41.5367    17.2319   -51.4549     0.5007     1.4999    25.0000     5.0000     8.0000    25.0000    25.0000     8.0000     5.0000    25.0000     5.0000    -5.0000     0.0059    20.7711    41.5370     2.2927    14.4503    14.4501     1.6785     0.0000     1.0000     0.0479     0.000
    226     0.6666     0.6666     1.3750     0.0002     30.000   1026.000 289226.000     29.657    41.5367    17.0670   -51.6077     0.5007     1.4999    25.0000     5.0000     8.0000    25.0000    25.0000     8.0000     5.0000    25.0000     5.0000    -5.0000     0.0058    20.7711    41.5370     2.2990    14.4503    14.4501     1.6785     0.0000     1.0000     0.0481     0.000
    227     0.6666     0.6666     1.3800     0.0002     30.000    992.000 289317.000     29.666    41.5367    16.9011   -51.7614     0.5007     1.4999    25.0000     5.0000     8.0000    25.0000    25.0000     8.0000     5.0000    25.0000     5.0000    -5.0000     0.0059    20.7711    41.5370     2.3054    14.4503    14.4501     1.6785     0.0000     1.0000     0.0481     0.000
    228     0.6666     0.6666     1.3850     0.0002     30.000   1011.000 290486.000     29.786    41.5367    16.7371   -51.9143     0.5007     1.4999    25.0000     5.0000     8.0000    25.0000    25.0000     8.0000     5.0000    25.0000     5.0000    -5.0000     0.0059    20.7711    41.5370     2.3117    14.4503    14.4501     1.6785     0.0000     1.0000     0.0477     0.000
    229     0.6666     0.6666     1.3900     0.0002     30.000   1070.000 289773.000     29.713    41.5367    16.5719   -52.0693     0.5007     1.4999    25.0000     5.0000     8.0000    25.0000    25.0000     8.0000     5.0000    25.0000     5.0000    -5.0000     0.0059    20.7711    41.5370     2.3181    14.4503    14.4501     1.6784     0.0000     1.0000     0.0477     0.000
    230     0.6667     0.6666     1.3950     0.0002     30.000   1032.000 289941.000     29.730    41.5367    16.4074   -52.2237     0.5007     1.4999    25.0000     5.0000     8.0000    25.0000    25.0000     8.0000     5.0000    25.0000     5.0000    -5.0000     0.0059    20.7711    41.5370     2.3245    14.4503    14.4501     1.6784     0.0000     1.0000     0.0480     0.000
    231     0.6667     0.6666     1.4000     0.0002     30.000   1074.000 289454.000     29.680    41.5367    16.2431   -52.3784     0.5007     1.4999    25.0000     5.0000     8.0000    25.0000    25.0000     8.0000     5.0000    25.0000     5.0000    -5.0000     0.0059    20.7711    41.5370     2.3309    14.4503    14.4501     1.6784     0.0000     1.0000     0.0480     0.000
    232     0.6666     0.6666     1.4050     0.0002     30.000   1014.000 290204.000     29.757    41.5367    16.0799   -52.5316     0.5007     1.4999    25.0000     5.0000     8.0000    25.0000    25.0000     8.0000     5.0000    25.0000     5.0000    -5.0000     0.0059    20.7711    41.5370     2.3373    14.4503    14.4501     1.6784     0.0000     1.0000     0.0479     0.000
    233     0.6666     0.6666     1.4100     0.0002     30.000   1063.000 288586.000     29.591    41.5367    15.9171   -52.6840     0.5007     1.4999    25.0000     5.0000     8.0000    25.0000    25.0000     8.0000     5.0000    25.0000     5.0000    -5.0000     0.0059    20.7710    41.5370     2.3436    14.4503    14.4501     1.6784     0.0000     1.0000     0.0481     0.000
    234     0.6666     0.6665     1.4149     0.0002     30.000    998.000 289479.000     29.683    41.5367    15.7542   -52.8370     0.5007     1.4999    25.0000     5.0000     8.0000    25.0000    25.0000     8.0000     5.0000    25.0000     5.0000    -5.0000     0.0058    20.7711    41.5370     2.3499    14.4503    14.4501     1.6784     0.0000     1.0000     0.0481     0.000
    235     0.6666     0.6665     1.4199     0.0002     30.000   1061.000 289820.000     29.718    41.5367    15.5921   -52.9930     0.5007     1.4999    25.0000     5.0000     8.0000    25.0000    25.0000     8.0000     5.0000    25.0000     5.0000    -5.0000     0.0059    20.7711    41.5370     2.3563    14.4503    14.4501     1.6784     0.0000     1.0000     0.0482     0.000
    236     0.6666     0.6666     1.4250     0.0002     30.000   1069.000 290337.000     29.771    41.5367    15.4290   -53.1498     0.5007     1.4999    25.0000     5.0000     8.0000    25.0000    25.0000     8.0000     5.0000    25.0000     5.0000    -5.0000     0.0059    20.7711    41.5370     2.3628    14.4503    14.4501     1.6784     0.0000     1.0000     0.0482     0.000
    237     0.6666     0.6666     1.4300     0.0002     30.000   1143.000 289914.000     29.727    41.5367    15.2678   -53.3051     0.5007     1.4999    25.0000     5.0000     8.0000    25.0000    25.0000     8.0000     5.0000    25.0000     5.0000    -5.0000     0.0059    20.7711    41.5369     2.3692    14.4503    14.4501     1.6784     0.0000     1.0000     0.0481     0.000
    238     0.6666     0.6666     1.4350     0.0002     30.000   1163.000 289949.000     29.731    41.5367    15.1058   -53.4609     0.5007     1.4999    25.0000     5.0000     8.0000    25.0000    25.0000     8.0000     5.0000    25.0000     5.0000    -5.0000     0.0059    20.7711    41.5370     2.3756    14.4503    14.4501     1.6781     0.0000     1.0000     0.0481     0.000
    239     0.6666     0.6666     1.4400     0.0002     30.000   1207.000 289311.000     29.666    41.5367    14.9450   -53.6183     0.5007     1.4999    25.0000     5.0000     8.0000    25.0000    25.0000     8.0000     5.0000    25.0000     5.0000    -5.0000     0.0059    20.7711    41.5370     2.3821    14.4503    14.4501     1.6784     0.0000     1.0000     0.0479     0.000
    240     0.6667     0.6666     1.4450     0.0002     30.000   1137.000 289746.000     29.710    41.5367    14.7845   -53.7760     0.5007     1.4999    25.0000     5.0000     8.0000    25.0000    25.0000     8.0000     5.0000    25.0000     5.0000    -5.0000     0.0059    20.7711    41.5370     2.3886    14.4503    14.4501     1.6780     0.0000     1.0000     0.0480     0.000
    241     0.6667     0.6666     1.4500     0.0002     30.000   1158.000 290221.000     29.759    41.5367    14.6246   -53.9313     0.5007     1.4999    25.0000     5.0000     8.0000    25.0000    25.0000     8.0000     5.0000    25.0000     5.0000    -5.0000     0.0059    20.7711    41.5370     2.3949    14.4503    14.4501     1.6784     0.0000     1.0000     0.0480     0.000
    242     0.6667     0.6666     1.4550     0.0002     30.000   1167.000 290207.000     29.757    41.5367    14.4634   -54.0889     0.5007     1.4999    25.0000     5.0000     8.0000    25.0000    25.0000     8.0000     5.0000    25.0000     5.0000    -5.0000     0.0059    20.7711    41.5370     2.4014    14.4503    14.4501     1.6784     0.0000     1.0000     0.0480     0.000
    243     0.6666     0.6666     1.4600     0.0002     30.000   1217.000 289099.000     29.644    41.5367    14.3038   -54.2440     0.5007     1.4999    25.0000     5.0000     8.0000    25.0000    25.0000     8.0000     5.0000    25.0000     5.0000    -5.0000     0.0059    20.7711    41.5370     2.4078    14.4503    14.4501     1.6784     0.0000     1.0000     0.0480     0.000
    244     0.6666     0.6665     1.4650     0.0002     30.000   1173.000 289298.000     29.664    41.5367    14.1438   -54.3985     0.5007     1.4999    25.0000     5.0000     8.0000    25.0000    25.0000     8.0000     5.0000    25.0000     5.0000    -5.0000     0.0059    20.7711    41.5370     2.4141    14.4503    14.4501     1.6784     0.0000     1.0000     0.0479     0.000
    245     0.6666     0.6665     1.4699     0.0002     30.000   1198.000 290681.000     29.806    41.5367    13.9852   -54.5545     0.5007     1.4999    25.0000     5.0000     8.0000    25.0000    25.0000     8.0000     5.0000    25.0000     5.0000    -5.0000     0.0059    20.7711    41.5370     2.4205    14.4503    14.4501     1.6784     0.0000     1.0000     0.0479     0.000
    246     0.6666     0.6666     1.4750     0.0002     30.000   1196.000 289640.000     29.699    41.5367    13.8269   -54.7149     0.5007     1.4999    25.0000     5.0000     8.0000    25.0000    25.0000     8.0000     5.0000    25.0000     5.0000    -5.0000     0.0059    20.7711    41.5370     2.4271    14.4503    14.4501     1.6784     0.0000     1.0000     0.0479     0.000
    247     0.6666     0.6665     1.4799     0.0002     30.000   1196.000 289407.000     29.675    41.5367    13.6684   -54.8711     0.5007     1.4999    25.0000     5.0000     8.0000    25.0000    25.0000     8.0000     5.0000    25.0000     5.0000    -5.0000     0.0059    20.7711    41.5369     2.4335    14.4503    14.4501     1.6784     0.0000     1.0000     0.0479     0.000
    248     0.6666     0.6666     1.4850     0.0002     30.000   1308.000 289111.000     29.645    41.5367    13.5095   -55.0311     0.5007     1.4999    25.0000     5.0000     8.0000    25.0000    25.0000     8.0000     5.0000    25.0000     5.0000    -5.0000     0.0059    20.7711    41.5369     2.4400    14.4503    14.4501     1.6784     0.0000     1.0000     0.0479     0.000
    249     0.6667     0.6666     1.4900     0.0002     30.000   1709.000 290036.000     29.740    41.5367    13.3511   -55.1913     0.5007     1.4999    25.0000     5.0000     8.0000    25.0000    25.0000     8.0000     5.0000    25.0000     5.0000    -5.0000     0.0058    20.7711    41.5369     2.4466    14.4503    14.4501     1.6784     0.0000     1.0000     0.0480     0.000
    250     0.6667     0.6666     1.4950     0.0002     30.000   2351.000 289117.000     29.646    41.5367    13.1938   -55.3499     0.5007     1.4999    25.0000     5.0000     8.0000    25.0000    25.0000     8.0000     5.0000    25.0000     5.0000    -5.0000     0.0059    20.7711    41.5369     2.4530    14.4503    14.4501     1.6784     0.0000     1.0000     0.0480     0.000
    251     0.6667     0.6667     1.5000     0.0002     30.000   2921.000 288825.000     29.616    41.5367    13.0373   -55.5094     0.5007     1.4999    25.0000     5.0000     8.0000    25.0000    25.0000     8.0000     5.0000    25.0000     5.0000    -5.0000     0.0059    20.7711    41.5370     2.4595    14.4503    14.4501     1.6784     0.0000     1.0000     0.0480     0.000
    252     0.6667     0.6666     1.5051     0.0002     30.000   3078.000 289752.000     29.711    41.5367    12.8791   -55.6692     0.5007     1.4999    25.0000     5.0000     8.0000    25.0000    25.0000     8.0000     5.0000    25.0000     5.0000    -5.0000     0.0059    20.7711    41.5369     2.4661    14.4503    14.4501     1.6784     0.0000     1.0000     0.0477     0.000
    253     0.6667     0.6667     1.5100     0.0002     30.000   2566.000 288398.000     29.572    41.5367    12.7236   -55.8285     0.5007     1.4999    25.0000     5.0000     8.0000    25.0000    25.0000     8.0000     5.0000    25.0000     5.0000    -5.0000     0.0059    20.7711    41.5369     2.4725    14.4503    14.4501     1.6783     0.0000     1.0000     0.0477     0.000
    254     0.6666     0.6665     1.5149     0.0002     30.000   1874.000 289718.000     29.707    41.5367    12.5669   -55.9817     0.5007     1.4999    25.0000     5.0000     8.0000    25.0000    25.0000     8.0000     5.0000    25.0000     5.0000    -5.0000     0.0059    20.7711    41.5370     2.4788    14.4503    14.4501     1.6784     0.0000     1.0000     0.0476     0.000
    255     0.6665     0.6665     1.5199     0.0002     30.000   1352.000 290203.000     29.757    41.5367    12.4096   -56.1404     0.5007     1.4999    25.0000     5.0000     8.0000    25.0000    25.0000     8.0000     5.0000    25.0000     5.0000    -5.0000     0.0059    20.7711    41.5369     2.4852    14.4503    14.4501     1.6780     0.0000     1.0000     0.0476     0.000
    256     0.6666     0.6665     1.5250     0.0002     30.000   1215.000 290089.000     29.745    41.5367    12.2542   -56.3014     0.5007     1.4999    25.0000     5.0000     8.0000    25.0000    25.0000     8.0000     5.0000    25.0000     5.0000    -5.0000     0.0059    20.7711    41.5369     2.4918    14.4503    14.4501     1.6784     0.0000     1.0000     0.0480     0.000
    257     0.6666     0.6666     1.5300     0.0002     30.000   1282.000 289529.000     29.688    41.5367    12.0989   -56.4633     0.5007     1.4999    25.0000     5.0000     8.0000    25.0000    25.0000     8.0000     5.0000    25.0000     5.0000    -5.0000     0.0059    20.7710    41.5370     2.4984    14.4503    14.4501     1.6781     0.0000     1.0000     0.0480     0.000
    258     0.6666     0.6665     1.5349     0.0002     30.000   1249.000 290576.000     29.795    41.5367    11.9436   -56.6217     0.5007     1.4999    25.0000     5.0000     8.0000    25.0000    25.0000     8.0000     5.0000    25.0000     5.0000    -5.0000     0.0059    20.7711    41.5370     2.5048    14.4503    14.4501     1.6783     0.0000     1.0000     0.0479     0.000
    259     0.6666     0.6666     1.5400     0.0002     30.000   1234.000 289634.000     29.699    41.5367    11.7888   -56.7830     0.5007     1.4999    25.0000     5.0000     8.0000    25.0000    25.0000     8.0000     5.0000    25.0000     5.0000    -5.0000     0.0059    20.7711    41.5370     2.5113    14.4503    14.4501     1.6784     0.0000     1.0000     0.0477     0.000
    260     0.6667     0.6666     1.5450     0.0002     30.000   1208.000 289681.000     29.704    41.5367    11.6341   -56.9461     0.5007     1.4999    25.0000     5.0000     8.0000    25.0000    25.0000     8.0000     5.0000    25.0000     5.0000    -5.0000     0.0059    20.7711    41.5370     2.5179    14.4503    14.4501     1.6784     0.0000     1.0000     0.0477     0.000
    261     0.6667     0.6666     1.5500     0.0002     30.000   1194.000 289831.000     29.719    41.5367    11.4793   -57.1077     0.5007     1.4999    25.0000     5.0000     8.0000    25.0000    25.0000     8.0000     5.0000    25.0000     5.0000    -5.0000     0.0059    20.7711    41.5370     2.5245    14.4503    14.4501     1.6784     0.0000     1.0000     0.0477     0.000
    262     0.6667     0.6666     1.5550     0.0002     30.000   1169.000 289207.000     29.655    41.5367    11.3246   -57.2701     0.5007     1.4999    25.0000     5.0000     8.0000    25.0000    25.0000     8.0000     5.0000    25.0000     5.0000    -5.0000     0.0059    20.7711    41.5370     2.5311    14.4503    14.4501     1.6783     0.0000     1.0000     0.0477     0.000
    263     0.6666     0.6666     1.5600     0.0002     30.000   1201.000 289406.000     29.675    41.5367    11.1705   -57.4292     0.5007     1.4999    25.0000     5.0000     8.0000    25.0000    25.0000     8.0000     5.0000    25.0000     5.0000    -5.0000     0.0059    20.7711    41.5370     2.5375    14.4503    14.4501     1.6782     0.0000     1.0000     0.0480     0.000
    264     0.6667     0.6666     1.5650     0.0002     30.000   1135.000 289842.000     29.720    41.5367    11.0179   -57.5914     0.5007     1.4999    25.0000     5.0000     8.0000    25.0000    25.0000     8.0000     5.0000    25.0000     5.0000    -5.0000     0.0059    20.7711    41.5370     2.5440    14.4503    14.4501     1.6783     0.0000     1.0000     0.0480     0.000
    265     0.6666     0.6666     1.5700     0.0002     30.000   1191.000 289174.000     29.652    41.5367    10.8638   -57.7511     0.5007     1.4999    25.0000     5.0000     8.0000    25.0000    25.0000     8.0000     5.0000    25.0000     5.0000    -5.0000     0.0059    20.7711    41.5370     2.5505    14.4503    14.4501     1.6783     0.0000     1.0000     0.0476     0.000
    266     0.6666     0.6666     1.5750     0.0002     30.000   1239.000 289915.000     29.728    41.5367    10.7108   -57.9130     0.5007     1.4999    25.0000     5.0000     8.0000    25.0000    25.0000     8.0000     5.0000    25.0000     5.0000    -5.0000     0.0059    20.7711    41.5370     2.5570    14.4503    14.4501     1.6783     0.0000     1.0000     0.0475     0.000
    267     0.6666     0.6666     1.5800     0.0002     30.000   1164.000 290433.000     29.781    41.5367    10.5585   -58.0756     0.5007     1.4999    25.0000     5.0000     8.0000    25.0000    25.0000     8.0000     5.0000    25.0000     5.0000    -5.0000     0.0059    20.7711    41.5370     2.5636    14.4503    14.4501     1.6783     0.0000     1.0000     0.0475     0.000
    268     0.6666     0.6666     1.5850     0.0002     30.000   1229.000 288984.000     29.632    41.5367    10.4044   -58.2387     0.5007     1.4999    25.0000     5.0000     8.0000    25.0000    25.0000     8.0000     5.0000    25.0000     5.0000    -5.0000     0.0059    20.7711    41.5369     2.5702    14.4503    14.4501     1.6783     0.0000     1.0000     0.0476     0.000
    269     0.6666     0.6666     1.5900     0.0002     30.000   1158.000 289068.000     29.641    41.5367    10.2524   -58.4010     0.5007     1.4999    25.0000     5.0000     8.0000    25.0000    25.0000     8.0000     5.0000    25.0000     5.0000    -5.0000     0.0059    20.7711    41.5370     2.5767    14.4503    14.4501     1.6782     0.0000     1.0000     0.0476     0.000
    270     0.6666     0.6666     1.5950     0.0002     30.000   1102.000 289988.000     29.735    41.5367    10.1002   -58.5648     0.5007     1.4999    25.0000     5.0000     8.0000    25.0000    25.0000     8.0000     5.0000    25.0000     5.0000    -5.0000     0.0059    20.7711    41.5370     2.5833    14.4503    14.4501     1.6783     0.0000     1.0000     0.0474     0.000
    271     0.6667     0.6666     1.6000     0.0002     30.000   1173.000 289485.000     29.683    41.5367     9.9489   -58.7284     0.5007     1.4999    25.0000     5.0000     8.0000    25.0000    25.0000     8.0000     5.0000    25.0000     5.0000    -5.0000     0.0059    20.7711    41.5370     2.5898    14.4503    14.4501     1.6783     0.0000     1.0000     0.0474     0.000
    272     0.6667     0.6666     1.6050     0.0002     30.000   1109.000 289707.000     29.706    41.5367     9.7969   -58.8932     0.5007     1.4999    25.0000     5.0000     8.0000    25.0000    25.0000     8.0000     5.0000    25.0000     5.0000    -5.0000     0.0059    20.7711    41.5369     2.5965    14.4503    14.4501     1.6780     0.0000     1.0000     0.0473     0.000
    273     0.6667     0.6666     1.6100     0.0002     30.000   1116.000 289660.000     29.701    41.5367     9.6458   -59.0557     0.5007     1.4999    25.0000     5.0000     8.0000    25.0000    25.0000     8.0000     5.0000    25.0000     5.0000    -5.0000     0.0059    20.7711    41.5370     2.6030    14.4503    14.4501     1.6784     0.0000     1.0000     0.0473     0.000
    274     0.6666     0.6665     1.6150     0.0002     30.000   1093.000 289924.000     29.728    41.5367     9.4941   -59.2172     0.5007     1.4999    25.0000     5.0000     8.0000    25.0000    25.0000     8.0000     5.0000    25.0000     5.0000    -5.0000     0.0059    20.7711    41.5369     2.6095    14.4503    14.4501     1.6782     0.0000     1.0000     0.0473     0.000
    275     0.6665     0.6665     1.6199     0.0002     30.000    998.000 289202.000     29.654    41.5367     9.3430   -59.3783     0.5007     1.4999    25.0000     5.0000     8.0000    25.0000    25.0000     8.0000     5.0000    25.0000     5.0000    -5.0000     0.0059    20.7711    41.5369     2.6159    14.4503    14.4501     1.6783     0.0000     1.0000     0.0472     0.000
    276     0.6666     0.6665     1.6249     0.0002     30.000   1065.000 288960.000     29.630    41.5367     9.1918   -59.5443     0.5007     1.4999    25.0000     5.0000     8.0000    25.0000    25.0000     8.0000     5.0000    25.0000     5.0000    -5.0000     0.0059    20.7711    41.5370     2.6225    14.4503    14.4501     1.6783     0.0000     1.0000     0.0472     0.000
    277     0.6666     0.6665     1.6299     0.0002     30.000   1096.000 289710.000     29.707    41.5367     9.0421   -59.7098     0.5007     1.4999    25.0000     5.0000     8.0000    25.0000    25.0000     8.0000     5.0000    25.0000     5.0000    -5.0000     0.0059    20.7711    41.5369     2.6292    14.4503    14.4501     1.6783     0.0000     1.0000     0.0474     0.000
    278     0.6666     0.6665     1.6350     0.0002     30.000   1060.000 289680.000     29.703    41.5367     8.8915   -59.8748     0.5007     1.4999    25.0000     5.0000     8.0000    25.0000    25.0000     8.0000     5.0000    25.0000     5.0000    -5.0000     0.0059    20.7711    41.5370     2.6358    14.4503    14.4501     1.6783     0.0000     1.0000     0.0473     0.000
    279     0.6666     0.6666     1.6399     0.0002     30.000   1026.000 290065.000     29.743    41.5367     8.7420   -60.0399     0.5007     1.4999    25.0000     5.0000     8.0000    25.0000    25.0000     8.0000     5.0000    25.0000     5.0000    -5.0000     0.0059    20.7711    41.5370     2.6424    14.4503    14.4501     1.6783     0.0000     1.0000     0.0473     0.000
    280     0.6667     0.6666     1.6450     0.0002     30.000   1073.000 289276.000     29.662    41.5367     8.5919   -60.2078     0.5007     1.4999    25.0000     5.0000     8.0000    25.0000    25.0000     8.0000     5.0000    25.0000     5.0000    -5.0000     0.0059    20.7711    41.5370     2.6491    14.4503    14.4501     1.6783     0.0000     1.0000     0.0471     0.000
    281     0.6666     0.6666     1.6500     0.0002     30.000   1042.000 289060.000     29.640    41.5367     8.4419   -60.3730     0.5007     1.4999    25.0000     5.0000     8.0000    25.0000    25.0000     8.0000     5.0000    25.0000     5.0000    -5.0000     0.0059    20.7711    41.5370     2.6556    14.4503    14.4501     1.6782     0.0000     1.0000     0.0471     0.000
    282     0.6667     0.6666     1.6550     0.0002     30.000   1052.000 290351.000     29.772    41.5367     8.2923   -60.5408     0.5007     1.4999    25.0000     5.0000     8.0000    25.0000    25.0000     8.0000     5.0000    25.0000     5.0000    -5.0000     0.0059    20.7711    41.5370     2.6623    14.4503    14.4501     1.6783     0.0000     1.0000     0.0474     0.000
    283     0.6666     0.6666     1.6600     0.0002     30.000   1120.000 290383.000     29.776    41.5367     8.1433   -60.7044     0.5007     1.4999    25.0000     5.0000     8.0000    25.0000    25.0000     8.0000     5.0000    25.0000     5.0000    -5.0000     0.0059    20.7711    41.5370     2.6688    14.4503    14.4501     1.6782     0.0000     1.0000     0.0474     0.000
    284     0.6666     0.6666     1.6650     0.0002     30.000   1122.000 290176.000     29.754    41.5367     7.9943   -60.8700     0.5007     1.4999    25.0000     5.0000     8.0000    25.0000    25.0000     8.0000     5.0000    25.0000     5.0000    -5.0000     0.0058    20.7711    41.5370     2.6754    14.4503    14.4501     1.6782     0.0000     1.0000     0.0472     0.000
    285     0.6666     0.6665     1.6700     0.0002     30.000   1046.000 290611.000     29.799    41.5367     7.8459   -61.0352     0.5007     1.4999    25.0000     5.0000     8.0000    25.0000    25.0000     8.0000     5.0000    25.0000     5.0000    -5.0000     0.0058    20.7711    41.5369     2.6820    14.4503    14.4501     1.6782     0.0000     1.0000     0.0476     0.000
    286     0.6666     0.6665     1.6749     0.0002     30.000   1020.000 289063.000     29.640    41.5367     7.6977   -61.2006     0.5007     1.4999    25.0000     5.0000     8.0000    25.0000    25.0000     8.0000     5.0000    25.0000     5.0000    -5.0000     0.0059    20.7711    41.5369     2.6885    14.4503    14.4501     1.6783     0.0000     1.0000     0.0476     0.000
    287     0.6666     0.6666     1.6800     0.0002     30.000   1099.000 290076.000     29.744    41.5367     7.5491   -61.3686     0.5007     1.4999    25.0000     5.0000     8.0000    25.0000    25.0000     8.0000     5.0000    25.0000     5.0000    -5.0000     0.0058    20.7711    41.5370     2.6952    14.4503    14.4501     1.6780     0.0000     1.0000     0.0472     0.000
    288     0.6666     0.6666     1.6850     0.0002     30.000   1051.000 290384.000     29.776    41.5367     7.3999   -61.5374     0.5007     1.4999    25.0000     5.0000     8.0000    25.0000    25.0000     8.0000     5.0000    25.0000     5.0000    -5.0000     0.0058    20.7711    41.5369     2.7019    14.4503    14.4501     1.6783     0.0000     1.0000     0.0472     0.000
    289     0.6666     0.6666     1.6900     0.0002     30.000   1053.000 290501.000     29.788    41.5367     7.2519   -61.7050     0.5007     1.4999    25.0000     5.0000     8.0000    25.0000    25.0000     8.0000     5.0000    25.0000     5.0000    -5.0000     0.0058    20.7711    41.5369     2.7085    14.4503    14.4501     1.6781     0.0000     1.0000     0.0473     0.000
    290     0.6667     0.6666     1.6950     0.0002     30.000   1067.000 290083.000     29.745    41.5367     7.1050   -61.8750     0.5007     1.4999    25.0000     5.0000     8.0000    25.0000    25.0000     8.0000     5.0000    25.0000     5.0000    -5.0000     0.0058    20.7711    41.5370     2.7152    14.4503    14.4501     1.6782     0.0000     1.0000     0.0473     0.000
    291     0.6667     0.6667     1.7001     0.0002     30.000   1077.000 289654.000     29.701    41.5367     6.9573   -62.0448     0.5007     1.4999    25.0000     5.0000     8.0000    25.0000    25.0000     8.0000     5.0000    25.0000     5.0000    -5.0000     0.0058    20.7711    41.5369     2.7220    14.4503    14.4501     1.6782     0.0000     1.0000     0.0474     0.000
    292     0.6667     0.6666     1.7050     0.0002     30.000    982.000 289665.000     29.702    41.5367     6.8100   -62.2112     0.5007     1.4999    25.0000     5.0000     8.0000    25.0000    25.0000     8.0000     5.0000    25.0000     5.0000    -5.0000     0.0058    20.7711    41.5370     2.7285    14.4503    14.4501     1.6782     0.0000     1.0000     0.0471     0.000
    293     0.6667     0.6666     1.7100     0.0002     30.000    999.000 290906.000     29.829    41.5367     6.6631   -62.3786     0.5007     1.4999    25.0000     5.0000     8.0000    25.0000    25.0000     8.0000     5.0000    25.0000     5.0000    -5.0000     0.0058    20.7711    41.5370     2.7351    14.4503    14.4501     1.6782     0.0000     1.0000     0.0471     0.000
    294     0.6666     0.6666     1.7150     0.0002     30.000   1021.000 290471.000     29.785    41.5367     6.5157   -62.5439     0.5007     1.4999    25.0000     5.0000     8.0000    25.0000    25.0000     8.0000     5.0000    25.0000     5.0000    -5.0000     0.0058    20.7711    41.5370     2.7416    14.4503    14.4501     1.6782     0.0000     1.0000     0.0469     0.000
    295     0.6666     0.6666     1.7200     0.0002     30.000   1032.000 289987.000     29.735    41.5367     6.3687   -62.7129     0.5007     1.4999    25.0000     5.0000     8.0000    25.0000    25.0000     8.0000     5.0000    25.0000     5.0000    -5.0000     0.0058    20.7710    41.5370     2.7483    14.4503    14.4501     1.6782     0.0000     1.0000     0.0469     0.000
    296     0.6666     0.6665     1.7250     0.0002     30.000   1040.000 288939.000     29.627    41.5367     6.2214   -62.8803     0.5007     1.4999    25.0000     5.0000     8.0000    25.0000    25.0000     8.0000     5.0000    25.0000     5.0000    -5.0000     0.0058    20.7711    41.5370     2.7549    14.4503    14.4501     1.6782     0.0000     1.0000     0.0472     0.000
    297     0.6666     0.6665     1.7300     0.0002     30.000   1028.000 289560.000     29.691    41.5367     6.0758   -63.0498     0.5007     1.4999    25.0000     5.0000     8.0000    25.0000    25.0000     8.0000     5.0000    25.0000     5.0000    -5.0000     0.0058    20.7711    41.5370     2.7615    14.4503    14.4501     1.6782     0.0000     1.0000     0.0472     0.000
    298     0.6666     0.6665     1.7349     0.0002     30.000    951.000 289205.000     29.655    41.5367     5.9297   -63.2189     0.5007     1.4999    25.0000     5.0000     8.0000    25.0000    25.0000     8.0000     5.0000    25.0000     5.0000    -5.0000     0.0058    20.7711    41.5369     2.7682    14.4503    14.4501     1.6782     0.0000     1.0000     0.0471     0.000
    299     0.6666     0.6665     1.7399     0.0002     30.000   1062.000 289586.000     29.694    41.5367     5.7837   -63.3889     0.5007     1.4999    25.0000     5.0000     8.0000    25.0000    25.0000     8.0000     5.0000    25.0000     5.0000    -5.0000     0.0058    20.7711    41.5370     2.7749    14.4503    14.4501     1.6782     0.0000     1.0000     0.0472     0.000
    300     0.6667     0.6666     1.7450     0.0002     30.000    997.000 289559.000     29.691    41.5367     5.6378   -63.5610     0.5007     1.4999    25.0000     5.0000     8.0000    25.0000    25.0000     8.0000     5.0000    25.0000     5.0000    -5.0000     0.0057    20.7711    41.5369     2.7816    14.4503    14.4501     1.6781     0.0000     1.0000     0.0472     0.000
    301     0.6667     0.6666     1.7500     0.0002     30.000   1055.000 290188.000     29.756    41.5367     5.4916   -63.7338     0.5007     1.4999    25.0000     5.0000     8.0000    25.0000    25.0000     8.0000     5.0000    25.0000     5.0000    -5.0000     0.0058    20.7711    41.5369     2.7884    14.4503    14.4501     1.6781     0.0000     1.0000     0.0471     0.000
    302     0.6667     0.6666     1.7550     0.0002     30.000   1014.000 290136.000     29.750    41.5367     5.3459   -63.9036     0.5007     1.4999    25.0000     5.0000     8.0000    25.0000    25.0000     8.0000     5.0000    25.0000     5.0000    -5.0000     0.0058    20.7711    41.5369     2.7950    14.4503    14.4501     1.6781     0.0000     1.0000     0.0471     0.000
    303     0.6667     0.6666     1.7600     0.0002     30.000    968.000 289262.000     29.661    41.5367     5.2004   -64.0737     0.5007     1.4999    25.0000     5.0000     8.0000    25.0000    25.0000     8.0000     5.0000    25.0000     5.0000    -5.0000     0.0057    20.7711    41.5369     2.8017    14.4503    14.4501     1.6781     0.0000     1.0000     0.0471     0.000
    304     0.6666     0.6665     1.7650     0.0002     30.000   1017.000 289406.000     29.675    41.5367     5.0555   -64.2411     0.5007     1.4999    25.0000     5.0000     8.0000    25.0000    25.0000     8.0000     5.0000    25.0000     5.0000    -5.0000     0.0057    20.7711    41.5369     2.8082    14.4503    14.4501     1.6777     0.0000     1.0000     0.0471     0.000
    305     0.6666     0.6665     1.7700     0.0002     30.000   1033.000 290570.000     29.795    41.5367     4.9102   -64.4126     0.5007     1.4999    25.0000     5.0000     8.0000    25.0000    25.0000     8.0000     5.0000    25.0000     5.0000    -5.0000     0.0057    20.7711    41.5369     2.8149    14.4503    14.4501     1.6781     0.0000     1.0000     0.0474     0.000
    306     0.6666     0.6666     1.7750     0.0002     30.000    936.000 288986.000     29.632    41.5367     4.7662   -64.5843     0.5007     1.4999    25.0000     5.0000     8.0000    25.0000    25.0000     8.0000     5.0000    25.0000     5.0000    -5.0000     0.0057    20.7711    41.5369     2.8216    14.4503    14.4501     1.6780     0.0000     1.0000     0.0472     0.000
    307     0.6667     0.6666     1.7800     0.0002     30.000   1040.000 289747.000     29.710    41.5367     4.6214   -64.7578     0.5008     1.4999    25.0000     5.0000     8.0000    25.0000    25.0000     8.0000     5.0000    25.0000     5.0000    -5.0000     0.0057    20.7710    41.5369     2.8283    14.4503    14.4501     1.6782     0.0000     1.0000     0.0472     0.000
    308     0.6666     0.6665     1.7850     0.0002     30.000   1008.000 289124.000     29.646    41.5367     4.4758   -64.9272     0.5007     1.4999    25.0000     5.0000     8.0000    25.0000    25.0000     8.0000     5.0000    25.0000     5.0000    -5.0000     0.0056    20.7711    41.5369     2.8349    14.4503    14.4501     1.6781     0.0000     1.0000     0.0473     0.000
    309     0.6666     0.6666     1.7900     0.0002     30.000   1077.000 289788.000     29.715    41.5367     4.3313   -65.1003     0.5008     1.4999    25.0000     5.0000     8.0000    25.0000    25.0000     8.0000     5.0000    25.0000     5.0000    -5.0000     0.0056    20.7711    41.5369     2.8417    14.4503    14.4501     1.6780     0.0000     1.0000     0.0473     0.000
    310     0.6667     0.6666     1.7950     0.0002     30.000   1021.000 290360.000     29.773    41.5367     4.1872   -65.2740     0.5007     1.4999    25.0000     5.0000     8.0000    25.0000    25.0000     8.0000     5.0000    25.0000     5.0000    -5.0000     0.0056    20.7710    41.5369     2.8484    14.4503    14.4501     1.6780     0.0000     1.0000     0.0472     0.000
    311     0.6667     0.6666     1.8000     0.0002     30.000    990.000 290598.000     29.798    41.5367     4.0434   -65.4481     0.5008     1.4999    25.0000     5.0000     8.0000    25.0000    25.0000     8.0000     5.0000    25.0000     5.0000    -5.0000     0.0056    20.7711    41.5369     2.8552    14.4503    14.4501     1.6781     0.0000     1.0000     0.0470     0.000
    312     0.6667     0.6666     1.8050     0.0002     30.000   1024.000 289299.000     29.664    41.5367     3.8994   -65.6198     0.5007     1.4999    25.0000     5.0000     8.0000    25.0000    25.0000     8.0000     5.0000    25.0000     5.0000    -5.0000     0.0056    20.7711    41.5369     2.8618    14.4503    14.4501     1.6781     0.0000     1.0000     0.0470     0.000
    313     0.6666     0.6665     1.8099     0.0002     30.000   1081.000 289514.000     29.686    41.5367     3.7558   -65.7881     0.5008     1.4999    25.0000     5.0000     8.0000    25.0000    25.0000     8.0000     5.0000    25.0000     5.0000    -5.0000     0.0056    20.7710    41.5370     2.8683    14.4503    14.4501     1.6781     0.0000     1.0000     0.0470     0.000
    314     0.6666     0.6665     1.8149     0.0002     30.000   1042.000 289550.000     29.690    41.5367     3.6120   -65.9607     0.5008     1.4999    25.0000     5.0000     8.0000    25.0000    25.0000     8.0000     5.0000    25.0000     5.0000    -5.0000     0.0056    20.7711    41.5370     2.8750    14.4503    14.4501     1.6781     0.0000     1.0000     0.0470     0.000
    315     0.6666     0.6665     1.8199     0.0002     30.000   1052.000 289803.000     29.716    41.5367     3.4685   -66.1354     0.5008     1.4999    25.0000     5.0000     8.0000    25.0000    25.0000     8.0000     5.0000    25.0000     5.0000    -5.0000     0.0056    20.7711    41.5369     2.8818    14.4503    14.4501     1.6781     0.0000     1.0000     0.0469     0.000
    316     0.6666     0.6665     1.8250     0.0002     30.000   1050.000 289490.000     29.684    41.5367     3.3247   -66.3107     0.5008     1.4999    25.0000     5.0000     8.0000    25.0000    25.0000     8.0000     5.0000    25.0000     5.0000    -5.0000     0.0055    20.7710    41.5369     2.8885    14.4503    14.4501     1.6780     0.0000     1.0000     0.0469     0.000
    317     0.6666     0.6665     1.8300     0.0002     30.000   1061.000 288826.000     29.616    41.5367     3.1809   -66.4851     0.5008     1.4999    25.0000     5.0000     8.0000    25.0000    25.0000     8.0000     5.0000    25.0000     5.0000    -5.0000     0.0055    20.7711    41.5369     2.8952    14.4503    14.4501     1.6780     0.0000     1.0000     0.0469     0.000
    318     0.6666     0.6666     1.8350     0.0002     30.000   1040.000 290034.000     29.740    41.5367     3.0392   -66.6587     0.5008     1.4999    25.0000     5.0000     8.0000    25.0000    25.0000     8.0000     5.0000    25.0000     5.0000    -5.0000     0.0055    20.7710    41.5369     2.9019    14.4503    14.4501     1.6781     0.0000     1.0000     0.0469     0.000
    319     0.6666     0.6666     1.8400     0.0002     30.000   1089.000 289450.000     29.680    41.5367     2.8950   -66.8351     0.5008     1.4999    25.0000     5.0000     8.0000    25.0000    25.0000     8.0000     5.0000    25.0000     5.0000    -5.0000     0.0055    20.7710    41.5369     2.9087    14.4503    14.4501     1.6777     0.0000     1.0000     0.0469     0.000
    320     0.6667     0.6666     1.8450     0.0002     30.000   1087.000 289636.000     29.699    41.5367     2.7531   -67.0111     0.5008     1.4999    25.0000     5.0000     8.0000    25.0000    25.0000     8.0000     5.0000    25.0000     5.0000    -5.0000     0.0055    20.7711    41.5369     2.9155    14.4503    14.4501     1.6781     0.0000     1.0000     0.0471     0.000
    321     0.6667     0.6666     1.8500     0.0002     30.000   1168.000 290006.000     29.737    41.5367     2.6106   -67.1856     0.5008     1.4999    25.0000     5.0000     8.0000    25.0000    25.0000     8.0000     5.0000    25.0000     5.0000    -5.0000     0.0055    20.7710    41.5369     2.9222    14.4503    14.4501     1.6778     0.0000     1.0000     0.0471     0.000
    322     0.6666     0.6665     1.8550     0.0002     30.000   1139.000 290042.000     29.741    41.5367     2.4670   -67.3585     0.5008     1.4999    25.0000     5.0000     8.0000    25.0000    25.0000     8.0000     5.0000    25.0000     5.0000    -5.0000     0.0055    20.7710    41.5370     2.9288    14.4503    14.4501     1.6780     0.0000     1.0000     0.0468     0.000
    323     0.6666     0.6665     1.8600     0.0002     30.000   1181.000 289490.000     29.684    41.5367     2.3249   -67.5330     0.5008     1.4999    25.0000     5.0000     8.0000    25.0000    25.0000     8.0000     5.0000    25.0000     5.0000    -5.0000     0.0055    20.7710    41.5369     2.9355    14.4503    14.4501     1.6780     0.0000     1.0000     0.0468     0.000
    324     0.6665     0.6665     1.8649     0.0002     30.000   1229.000 288474.000     29.580    41.5367     2.1819   -67.7074     0.5008     1.4999    25.0000     5.0000     8.0000    25.0000    25.0000     8.0000     5.0000    25.0000     5.0000    -5.0000     0.0054    20.7711    41.5369     2.9422    14.4503    14.4501     1.6780     0.0000     1.0000     0.0469     0.000
    325     0.6666     0.6665     1.8699     0.0002     30.000   1200.000 289355.000     29.670    41.5367     2.0407   -67.8841     0.5008     1.4999    25.0000     5.0000     8.0000    25.0000    25.0000     8.0000     5.0000    25.0000     5.0000    -5.0000     0.0054    20.7710    41.5369     2.9490    14.4503    14.4501     1.6780     0.0000     1.0000     0.0469     0.000
    326     0.6666     0.6666     1.8750     0.0002     30.000   1307.000 289658.000     29.701    41.5367     1.8980   -68.0627     0.5008     1.4999    25.0000     5.0000     8.0000    25.0000    25.0000     8.0000     5.0000    25.0000     5.0000    -5.0000     0.0054    20.7711    41.5370     2.9558    14.4503    14.4501     1.6780     0.0000     1.0000     0.0469     0.000
    327     0.6667     0.6666     1.8800     0.0002     30.000   1353.000 289026.000     29.636    41.5367     1.7565   -68.2399     0.5008     1.4999    25.0000     5.0000     8.0000    25.0000    25.0000     8.0000     5.0000    25.0000     5.0000    -5.0000     0.0053    20.7711    41.5369     2.9625    14.4503    14.4501     1.6780     0.0000     1.0000     0.0469     0.000
    328     0.6667     0.6666     1.8850     0.0002     30.000   1724.000 290174.000     29.754    41.5367     1.6149   -68.4179     0.5008     1.4999    25.0000     5.0000     8.0000    25.0000    25.0000     8.0000     5.0000    25.0000     5.0000    -5.0000     0.0052    20.7710    41.5370     2.9693    14.4503    14.4501     1.6780     0.0000     1.0000     0.0469     0.000
    329     0.6667     0.6666     1.8901     0.0002     30.000   3371.000 289570.000     29.692    41.5367     1.4724   -68.5968     0.5008     1.4999    25.0000     5.0000     8.0000    25.0000    25.0000     8.0000     5.0000    25.0000     5.0000    -5.0000     0.0052    20.7710    41.5369     2.9762    14.4503    14.4501     1.6781     0.0000     1.0000     0.0469     0.000
    330     0.6667     0.6667     1.8950     0.0002     30.000   8326.000 288413.000     29.574    41.5367     1.3312   -68.7740     0.5008     1.4999    25.0000     5.0000     8.0000    25.0000    25.0000     8.0000     5.0000    25.0000     5.0000    -5.0000     0.0052    20.7710    41.5369     2.9829    14.4503    14.4501     1.6780     0.0000     1.0000     0.0467     0.000
    331     0.6667     0.6666     1.9000     0.0002     30.000  17472.000 289558.000     29.691    41.5367     1.1893   -68.9485     0.5008     1.5000    25.0000     5.0000     8.0000    25.0000    25.0000     8.0000     5.0000    25.0000     5.0000    -5.0000     0.0052    20.7711    41.5369     2.9895    14.4503    14.4501     1.6780     0.0000     1.0000     0.0467     0.000
    332     0.6666     0.6666     1.9050     0.0002     30.000  29997.000 289337.000     29.668    41.5367     1.0480   -69.1250     0.5008     1.5000    25.0000     5.0000     8.0000    25.0000    25.0000     8.0000     5.0000    25.0000     5.0000    -5.0000     0.0051    20.7710    41.5369     2.9962    14.4503    14.4501     1.6780     0.0000     1.0000     0.0470     0.000
    333     0.6666     0.6665     1.9100     0.0002     30.000  41924.000 289293.000     29.664    41.5367     0.9064   -69.3021     0.5008     1.5000    25.0000     5.0000     8.0000    25.0000    25.0000     8.0000     5.0000    25.0000     5.0000    -5.0000     0.0051    20.7710    41.5369     3.0030    14.4503    14.4501     1.6780     0.0000     1.0000     0.0470     0.000
    334     0.6666     0.6666     1.9150     0.0002     30.000  52141.000 289223.000     29.657    41.5367     0.7663   -69.4803     0.5008     1.5000    25.0000     5.0000     8.0000    25.0000    25.0000     8.0000     5.0000    25.0000     5.0000    -5.0000     0.0051    20.7710    41.5369     3.0097    14.4503    14.4501     1.6779     0.0000     1.0000     0.0467     0.000
    335     0.6666     0.6665     1.9199     0.0002     30.000  56873.000 290238.000     29.761    41.5367     0.6252   -69.6581     0.5008     1.5000    25.0000     5.0000     8.0000    25.0000    25.0000     8.0000     5.0000    25.0000     5.0000    -5.0000     0.0051    20.7710    41.5369     3.0164    14.4503    14.4501     1.6779     0.0000     1.0000     0.0467     0.000
    336     0.6666     0.6665     1.9250     0.0002     30.000  54823.000 288875.000     29.621    41.5367     0.4834   -69.8376     0.5008     1.5000    25.0000     5.0000     8.0000    25.0000    25.0000     8.0000     5.0000    25.0000     5.0000    -5.0000     0.0050    20.7710    41.5370     3.0232    14.4503    14.4501     1.6776     0.0000     1.0000     0.0469     0.000
    337     0.6666     0.6666     1.9300     0.0002     30.000  47470.000 288892.000     29.623    41.5367     0.3422   -70.0186     0.5008     1.5000    25.0000     5.0000     8.0000    25.0000    25.0000     8.0000     5.0000    25.0000     5.0000    -5.0000     0.0050    20.7710    41.5369     3.0301    14.4503    14.4501     1.6780     0.0000     1.0000     0.0467     0.000
    338     0.6667     0.6666     1.9350     0.0002     30.000  37164.000 289628.000     29.698    41.5367     0.2015   -70.2010     0.5008     1.5000    25.0000     5.0000     8.0000    25.0000    25.0000     8.0000     5.0000    25.0000     5.0000    -5.0000     0.0050    20.7710    41.5370     3.0369    14.4503    14.4501     1.6780     0.0000     1.0000     0.0467     0.000
    339     0.6667     0.6667     1.9400     0.0002     30.000  26755.000 288730.000     29.606    41.5367     0.0613   -70.3805     0.5008     1.5000    25.0000     5.0000     8.0000    25.0000    25.0000     8.0000     5.0000    25.0000     5.0000    -5.0000     0.0050    20.7711    41.5370     3.0437    14.4503    14.4501     1.6780     0.0000     1.0000     0.0469     0.000
    340     0.6667     0.6666     1.9450     0.0002     30.000  17033.000 289831.000     29.719    41.5367    -0.0793   -70.5583     0.5008     1.5000    25.0000     5.0000     8.0000    25.0000    25.0000     8.0000     5.0000    25.0000     5.0000    -5.0000     0.0050    20.7710    41.5369     3.0504    14.4503    14.4501     1.6780     0.0000     1.0000     0.0469     0.000
    341     0.6667     0.6666     1.9500     0.0002     30.000   9544.000 289125.000     29.647    41.5367    -0.2194   -70.7367     0.5008     1.5000    25.0000     5.0000     8.0000    25.0000    25.0000     8.0000     5.0000    25.0000     5.0000    -5.0000     0.0049    20.7710    41.5370     3.0571    14.4503    14.4501     1.6779     0.0000     1.0000     0.0468     0.000
    342     0.6667     0.6666     1.9550     0.0002     30.000   4699.000 289629.000     29.698    41.5367    -0.3599   -70.9172     0.5008     1.5000    25.0000     5.0000     8.0000    25.0000    25.0000     8.0000     5.0000    25.0000     5.0000    -5.0000     0.0049    20.7710    41.5369     3.0639    14.4503    14.4501     1.6780     0.0000     1.0000     0.0468     0.000
    343     0.6666     0.6666     1.9600     0.0002     30.000   2537.000 288903.000     29.624    41.5367    -0.5007   -71.0977     0.5008     1.5000    25.0000     5.0000     8.0000    25.0000    25.0000     8.0000     5.0000    25.0000     5.0000    -5.0000     0.0049    20.7710    41.5370     3.0707    14.4503    14.4501     1.6780     0.0000     1.0000     0.0464     0.000
    344     0.6667     0.6666     1.9650     0.0002     30.000   1582.000 288934.000     29.627    41.5367    -0.6413   -71.2821     0.5008     1.5000    25.0000     5.0000     8.0000    25.0000    25.0000     8.0000     5.0000    25.0000     5.0000    -5.0000     0.0048    20.7710    41.5370     3.0776    14.4503    14.4501     1.6780     0.0000     1.0000     0.0466     0.000
    345     0.6666     0.6665     1.9700     0.0002     30.000   1296.000 289537.000     29.689    41.5367    -0.7816   -71.4589     0.5008     1.5000    25.0000     5.0000     8.0000    25.0000    25.0000     8.0000     5.0000    25.0000     5.0000    -5.0000     0.0048    20.7710    41.5369     3.0842    14.4503    14.4501     1.6780     0.0000     1.0000     0.0466     0.000
    346     0.6667     0.6666     1.9750     0.0002     30.000   1212.000 289495.000     29.684    41.5367    -0.9208   -71.6419     0.5008     1.5000    25.0000     5.0000     8.0000    25.0000    25.0000     8.0000     5.0000    25.0000     5.0000    -5.0000     0.0048    20.7710    41.5369     3.0910    14.4503    14.4501     1.6780     0.0000     1.0000     0.0465     0.000
    347     0.6667     0.6666     1.9800     0.0002     30.000   1193.000 289815.000     29.717    41.5367    -1.0613   -71.8255     0.5008     1.5000    25.0000     5.0000     8.0000    25.0000    25.0000     8.0000     5.0000    25.0000     5.0000    -5.0000     0.0048    20.7711    41.5369     3.0979    14.4503    14.4501     1.6780     0.0000     1.0000     0.0465     0.000
    348     0.6667     0.6666     1.9850     0.0002     30.000   1191.000 289467.000     29.682    41.5367    -1.2007   -72.0081     0.5008     1.5000    25.0000     5.0000     8.0000    25.0000    25.0000     8.0000     5.0000    25.0000     5.0000    -5.0000     0.0047    20.7710    41.5370     3.1047    14.4503    14.4501     1.6780     0.0000     1.0000     0.0466     0.000
    349     0.6667     0.6666     1.9900     0.0002     30.000   1208.000 289242.000     29.659    41.5367    -1.3404   -72.1892     0.5008     1.5000    25.0000     5.0000     8.0000    25.0000    25.0000     8.0000     5.0000    25.0000     5.0000    -5.0000     0.0047    20.7710    41.5370     3.1115    14.4503    14.4501     1.6780     0.0000     1.0000     0.0465     0.000
    350     0.6666     0.6665     1.9949     0.0002     30.000   1241.000 288826.000     29.616    41.5367    -1.4806   -72.3671     0.5008     1.5000    25.0000     5.0000     8.0000    25.0000    25.0000     8.0000     5.0000    25.0000     5.0000    -5.0000     0.0046    20.7710    41.5370     3.1181    14.4503    14.4501     1.6780     0.0000     1.0000     0.0465     0.000
    351     0.6666     0.6665     2.0000     0.0002     30.000   1185.000 288878.000     29.621    41.5367    -1.6204   -72.5509     0.5008     1.5000    25.0000     5.0000     8.0000    25.0000    25.0000     8.0000     5.0000    25.0000     5.0000    -5.0000     0.0046    20.7710    41.5370     3.1249    14.4503    14.4501     1.6776     0.0000     1.0000     0.0466     0.000
    352     0.6666     0.6665     2.0049     0.0002     30.000   1141.000 290397.000     29.777    41.5367    -1.7599   -72.7333     0.5008     1.5000    25.0000     5.0000     8.0000    25.0000    25.0000     8.0000     5.0000    25.0000     5.0000    -5.0000     0.0046    20.7710    41.5369     3.1317    14.4503    14.4501     1.6780     0.0000     1.0000     0.0466     0.000
    353     0.6666     0.6665     2.0100     0.0002     30.000   1146.000 290063.000     29.743    41.5367    -1.8994   -72.9175     0.5008     1.5000    25.0000     5.0000     8.0000    25.0000    25.0000     8.0000     5.0000    25.0000     5.0000    -5.0000     0.0046    20.7710    41.5369     3.1385    14.4503    14.4501     1.6779     0.0000     1.0000     0.0463     0.000
    354     0.6666     0.6665     2.0150     0.0002     30.000   1101.000 289713.000     29.707    41.5367    -2.0390   -73.1016     0.5008     1.5000    25.0000     5.0000     8.0000    25.0000    25.0000     8.0000     5.0000    25.0000     5.0000    -5.0000     0.0045    20.7710    41.5369     3.1453    14.4503    14.4501     1.6779     0.0000     1.0000     0.0463     0.000
    355     0.6666     0.6665     2.0200     0.0002     30.000   1151.000 290401.000     29.777    41.5367    -2.1782   -73.2856     0.5008     1.5000    25.0000     5.0000     8.0000    25.0000    25.0000     8.0000     5.0000    25.0000     5.0000    -5.0000     0.0045    20.7710    41.5369     3.1521    14.4503    14.4501     1.6779     0.0000     1.0000     0.0464     0.000
    356     0.6667     0.6666     2.0250     0.0002     30.000   1080.000 289537.000     29.689    41.5367    -2.3172   -73.4720     0.5008     1.5000    25.0000     5.0000     8.0000    25.0000    25.0000     8.0000     5.0000    25.0000     5.0000    -5.0000     0.0044    20.7710    41.5369     3.1590    14.4503    14.4501     1.6779     0.0000     1.0000     0.0465     0.000
    357     0.6667     0.6666     2.0300     0.0002     30.000   1142.000 290209.000     29.758    41.5367    -2.4565   -73.6573     0.5008     1.5000    25.0000     5.0000     8.0000    25.0000    25.0000     8.0000     5.0000    25.0000     5.0000    -5.0000     0.0044    20.7710    41.5369     3.1659    14.4503    14.4501     1.6779     0.0000     1.0000     0.0465     0.000
    358     0.6666     0.6666     2.0350     0.0002     30.000   1143.000 289266.000     29.661    41.5367    -2.5966   -73.8401     0.5008     1.5000    25.0000     5.0000     8.0000    25.0000    25.0000     8.0000     5.0000    25.0000     5.0000    -5.0000     0.0043    20.7710    41.5369     3.1726    14.4503    14.4501     1.6779     0.0000     1.0000     0.0465     0.000
    359     0.6666     0.6665     2.0400     0.0002     30.000   1195.000 289026.000     29.636    41.5367    -2.7352   -74.0228     0.5008     1.5000    25.0000     5.0000     8.0000    25.0000    25.0000     8.0000     5.0000    25.0000     5.0000    -5.0000     0.0043    20.7710    41.5369     3.1793    14.4503    14.4501     1.6780     0.0000     1.0000     0.0465     0.000
    360     0.6666     0.6665     2.0449     0.0002     30.000   1119.000 289265.000     29.661    41.5367    -2.8743   -74.2065     0.5008     1.5000    25.0000     5.0000     8.0000    25.0000    25.0000     8.0000     5.0000    25.0000     5.0000    -5.0000     0.0042    20.7710    41.5369     3.1861    14.4503    14.4501     1.6780     0.0000     1.0000     0.0462     0.000
    361     0.6666     0.6665     2.0500     0.0002     30.000   1092.000 288546.000     29.587    41.5367    -3.0134   -74.3941     0.5008     1.5000    25.0000     5.0000     8.0000    25.0000    25.0000     8.0000     5.0000    25.0000     5.0000    -5.0000     0.0042    20.7710    41.5369     3.1930    14.4503    14.4501     1.6780     0.0000     1.0000     0.0462     0.000
    362     0.6666     0.6665     2.0550     0.0002     30.000   1112.000 289472.000     29.682    41.5367    -3.1523   -74.5808     0.5008     1.5000    25.0000     5.0000     8.0000    25.0000    25.0000     8.0000     5.0000    25.0000     5.0000    -5.0000     0.0042    20.7710    41.5369     3.1998    14.4503    14.4501     1.6780     0.0000     1.0000     0.0463     0.000
    363     0.6667     0.6666     2.0600     0.0002     30.000   1128.000 289858.000     29.722    41.5367    -3.2906   -74.7678     0.5008     1.5000    25.0000     5.0000     8.0000    25.0000    25.0000     8.0000     5.0000    25.0000     5.0000    -5.0000     0.0041    20.7710    41.5369     3.2067    14.4503    14.4501     1.6779     0.0000     1.0000     0.0465     0.000
    364     0.6667     0.6666     2.0650     0.0002     30.000   1097.000 288888.000     29.622    41.5367    -3.4297   -74.9557     0.5008     1.5000    25.0000     5.0000     8.0000    25.0000    25.0000     8.0000     5.0000    25.0000     5.0000    -5.0000     0.0041    20.7710    41.5369     3.2136    14.4503    14.4501     1.6780     0.0000     1.0000     0.0465     0.000
    365     0.6667     0.6667     2.0701     0.0002     30.000   1088.000 289596.000     29.695    41.5367    -3.5689   -75.1449     0.5008     1.5000    25.0000     5.0000     8.0000    25.0000    25.0000     8.0000     5.0000    25.0000     5.0000    -5.0000     0.0041    20.7710    41.5369     3.2205    14.4503    14.4501     1.6781     0.0000     1.0000     0.0471     0.000
    366     0.6667     0.6666     2.0750     0.0002     30.000   1168.000 289997.000     29.736    41.5367    -3.7078   -75.3311     0.5008     1.5000    25.0000     5.0000     8.0000    25.0000    25.0000     8.0000     5.0000    25.0000     5.0000    -5.0000     0.0041    20.7710    41.5369     3.2273    14.4503    14.4501     1.6776     0.0000     1.0000     0.0471     0.000
    367     0.6667     0.6666     2.0800     0.0002     30.000   1115.000 289732.000     29.709    41.5367    -3.8471   -75.5178     0.5008     1.5000    25.0000     5.0000     8.0000    25.0000    25.0000     8.0000     5.0000    25.0000     5.0000    -5.0000     0.0040    20.7710    41.5369     3.2341    14.4503    14.4501     1.6780     0.0000     1.0000     0.0469     0.000
    368     0.6666     0.6665     2.0850     0.0002     30.000   1181.000 289281.000     29.663    41.5367    -3.9851   -75.7015     0.5008     1.5000    25.0000     5.0000     8.0000    25.0000    25.0000     8.0000     5.0000    25.0000     5.0000    -5.0000     0.0040    20.7710    41.5369     3.2408    14.4503    14.4501     1.6779     0.0000     1.0000     0.0470     0.000
    369     0.6666     0.6665     2.0899     0.0002     30.000   1106.000 287223.000     29.452    41.5367    -4.1233   -75.8883     0.5008     1.5000    25.0000     5.0000     8.0000    25.0000    25.0000     8.0000     5.0000    25.0000     5.0000    -5.0000     0.0039    20.7710    41.5369     3.2476    14.4503    14.4501     1.6780     0.0000     1.0000     0.0470     0.000
    370     0.6666     0.6665     2.0950     0.0002     30.000   1109.000 289029.000     29.637    41.5367    -4.2622   -76.0767     0.5008     1.5000    25.0000     5.0000     8.0000    25.0000    25.0000     8.0000     5.0000    25.0000     5.0000    -5.0000     0.0039    20.7710    41.5369     3.2544    14.4503    14.4501     1.6779     0.0000     1.0000     0.0469     0.000
    371     0.6666     0.6666     2.1000     0.0002     30.000   1066.000 290494.000     29.787    41.5367    -4.4005   -76.2660     0.5008     1.5000    25.0000     5.0000     8.0000    25.0000    25.0000     8.0000     5.0000    25.0000     5.0000    -5.0000     0.0038    20.7710    41.5369     3.2613    14.4503    14.4501     1.6780     0.0000     1.0000     0.0469     0.000
    372     0.6666     0.6665     2.1049     0.0002     30.000   1092.000 290233.000     29.760    41.5367    -4.5393   -76.4530     0.5008     1.5000    25.0000     5.0000     8.0000    25.0000    25.0000     8.0000     5.0000    25.0000     5.0000    -5.0000     0.0038    20.7710    41.5369     3.2681    14.4503    14.4501     1.6781     0.0000     1.0000     0.0467     0.000
    373     0.6667     0.6666     2.1100     0.0002     30.000   1135.000 290440.000     29.781    41.5367    -4.6779   -76.6458     0.5008     1.5000    25.0000     5.0000     8.0000    25.0000    25.0000     8.0000     5.0000    25.0000     5.0000    -5.0000     0.0038    20.7710    41.5369     3.2750    14.4503    14.4501     1.6780     0.0000     1.0000     0.0467     0.000
    374     0.6666     0.6665     2.1150     0.0001     30.000   1122.000 290106.000     29.747    41.5367    -4.8169   -76.8334     0.5008     1.5000    25.0000     5.0000     8.0000    25.0000    25.0000     8.0000     5.0000    25.0000     5.0000    -5.0000     0.0037    20.7710    41.5369     3.2818    14.4503    14.4501     1.6780     0.0000     1.0000     0.0467     0.000
    375     0.6666     0.6665     2.1199     0.0002     30.000   1122.000 289298.000     29.664    41.5367    -4.9547   -77.0211     0.5008     1.5000    25.0000     5.0000     8.0000    25.0000    25.0000     8.0000     5.0000    25.0000     5.0000    -5.0000     0.0037    20.7710    41.5369     3.2886    14.4503    14.4501     1.6780     0.0000     1.0000     0.0467     0.000
    376     0.6667     0.6666     2.1250     0.0002     30.000   1083.000 289066.000     29.640    41.5367    -5.0931   -77.2142     0.5008     1.5000    25.0000     5.0000     8.0000    25.0000    25.0000     8.0000     5.0000    25.0000     5.0000    -5.0000     0.0036    20.7709    41.5369     3.2955    14.4503    14.4501     1.6780     0.0000     1.0000     0.0467     0.000
    377     0.6666     0.6665     2.1299     0.0002     30.000   1130.000 288902.000     29.624    41.5367    -5.2312   -77.4017     0.5008     1.5000    25.0000     5.0000     8.0000    25.0000    25.0000     8.0000     5.0000    25.0000     5.0000    -5.0000     0.0035    20.7709    41.5369     3.3023    14.4503    14.4501     1.6780     0.0000     1.0000     0.0465     0.000
    378     0.6667     0.6666     2.1350     0.0002     30.000   1052.000 290227.000     29.760    41.5367    -5.3693   -77.5949     0.5008     1.5000    25.0000     5.0000     8.0000    25.0000    25.0000     8.0000     5.0000    25.0000     5.0000    -5.0000     0.0035    20.7709    41.5369     3.3092    14.4503    14.4501     1.6781     0.0000     1.0000     0.0465     0.000
    379     0.6667     0.6666     2.1400     0.0002     30.000   1090.000 289055.000     29.639    41.5367    -5.5082   -77.7883     0.5008     1.5000    25.0000     5.0000     8.0000    25.0000    25.0000     8.0000     5.0000    25.0000     5.0000    -5.0000     0.0034    20.7710    41.5369     3.3162    14.4503    14.4501     1.6781     0.0000     1.0000     0.0465     0.000
    380     0.6666     0.6665     2.1450     0.0002     30.000   1147.000 289039.000     29.638    41.5367    -5.6471   -77.9759     0.5008     1.5000    25.0000     5.0000     8.0000    25.0000    25.0000     8.0000     5.0000    25.0000     5.0000    -5.0000     0.0034    20.7709    41.5370     3.3229    14.4503    14.4501     1.6781     0.0000     1.0000     0.0464     0.000
    381     0.6666     0.6665     2.1500     0.0002     30.000   1082.000 288904.000     29.624    41.5367    -5.7851   -78.1665     0.5008     1.5000    25.0000     5.0000     8.0000    25.0000    25.0000     8.0000     5.0000    25.0000     5.0000    -5.0000     0.0033    20.7710    41.5369     3.3297    14.4503    14.4501     1.6777     0.0000     1.0000     0.0464     0.000
    382     0.6667     0.6666     2.1550     0.0002     30.000   1111.000 289613.000     29.697    41.5367    -5.9230   -78.3618     0.5008     1.5000    25.0000     5.0000     8.0000    25.0000    25.0000     8.0000     5.0000    25.0000     5.0000    -5.0000     0.0033    20.7710    41.5369     3.3367    14.4503    14.4501     1.6781     0.0000     1.0000     0.0463     0.000
    383     0.6667     0.6666     2.1600     0.0002     30.000   1136.000 290160.000     29.753    41.5367    -6.0614   -78.5537     0.5008     1.5000    25.0000     5.0000     8.0000    25.0000    25.0000     8.0000     5.0000    25.0000     5.0000    -5.0000     0.0033    20.7709    41.5369     3.3436    14.4503    14.4501     1.6780     0.0000     1.0000     0.0463     0.000
    384     0.6667     0.6666     2.1650     0.0001     30.000   1120.000 288339.000     29.566    41.5367    -6.1990   -78.7463     0.5008     1.5000    25.0000     5.0000     8.0000    25.0000    25.0000     8.0000     5.0000    25.0000     5.0000    -5.0000     0.0032    20.7710    41.5369     3.3504    14.4503    14.4502     1.6781     0.0000     1.0000     0.0462     0.000
    385     0.6666     0.6666     2.1700     0.0002     30.000   1103.000 289412.000     29.676    41.5367    -6.3370   -78.9360     0.5008     1.5001    25.0000     5.0000     8.0000    25.0000    25.0000     8.0000     5.0000    25.0000     5.0000    -5.0000     0.0032    20.7709    41.5369     3.3572    14.4503    14.4501     1.6781     0.0000     1.0000     0.0462     0.000
    386     0.6666     0.6665     2.1749     0.0002     30.000   1128.000 289784.000     29.714    41.5367    -6.4760   -79.1269     0.5008     1.5001    25.0000     5.0000     8.0000    25.0000    25.0000     8.0000     5.0000    25.0000     5.0000    -5.0000     0.0032    20.7709    41.5369     3.3640    14.4503    14.4501     1.6781     0.0000     1.0000     0.0462     0.000
    387     0.6666     0.6665     2.1799     0.0002     30.000   1069.000 289518.000     29.687    41.5367    -6.6145   -79.3208     0.5008     1.5001    25.0000     5.0000     8.0000    25.0000    25.0000     8.0000     5.0000    25.0000     5.0000    -5.0000     0.0032    20.7709    41.5370     3.3709    14.4503    14.4501     1.6781     0.0000     1.0000     0.0464     0.000
    388     0.6666     0.6665     2.1850     0.0002     30.000   1150.000 289084.000     29.642    41.5367    -6.7522   -79.5166     0.5008     1.5001    25.0000     5.0000     8.0000    25.0000    25.0000     8.0000     5.0000    25.0000     5.0000    -5.0000     0.0031    20.7710    41.5369     3.3778    14.4503    14.4501     1.6782     0.0000     1.0000     0.0464     0.000
    389     0.6666     0.6665     2.1900     0.0002     30.000   1114.000 288868.000     29.620    41.5367    -6.8909   -79.7096     0.5008     1.5001    25.0000     5.0000     8.0000    25.0000    25.0000     8.0000     5.0000    25.0000     5.0000    -5.0000     0.0030    20.7709    41.5370     3.3846    14.4503    14.4501     1.6780     0.0000     1.0000     0.0460     0.000
    390     0.6667     0.6666     2.1950     0.0002     30.000   1181.000 289938.000     29.730    41.5367    -7.0283   -79.9068     0.5008     1.5001    25.0000     5.0000     8.0000    25.0000    25.0000     8.0000     5.0000    25.0000     5.0000    -5.0000     0.0030    20.7709    41.5369     3.3916    14.4503    14.4501     1.6781     0.0000     1.0000     0.0460     0.000
    391     0.6667     0.6666     2.2000     0.0001     30.000   1188.000 288816.000     29.615    41.5367    -7.1668   -80.1035     0.5008     1.5001    25.0000     5.0000     8.0000    25.0000    25.0000     8.0000     5.0000    25.0000     5.0000    -5.0000     0.0029    20.7710    41.5369     3.3986    14.4503    14.4502     1.6781     0.0000     1.0000     0.0461     0.000
    392     0.6667     0.6666     2.2050     0.0002     30.000   1230.000 289683.000     29.704    41.5367    -7.3048   -80.2979     0.5008     1.5001    25.0000     5.0000     8.0000    25.0000    25.0000     8.0000     5.0000    25.0000     5.0000    -5.0000     0.0029    20.7709    41.5369     3.4054    14.4503    14.4501     1.6781     0.0000     1.0000     0.0461     0.000
    393     0.6666     0.6665     2.2100     0.0002     30.000   1232.000 289020.000     29.636    41.5367    -7.4426   -80.4891     0.5008     1.5001    25.0000     5.0000     8.0000    25.0000    25.0000     8.0000     5.0000    25.0000     5.0000    -5.0000     0.0029    20.7709    41.5369     3.4121    14.4503    14.4501     1.6781     0.0000     1.0000     0.0462     0.000
    394     0.6665     0.6664     2.2149     0.0002     30.000   1202.000 289687.000     29.704    41.5367    -7.5814   -80.6791     0.5008     1.5001    25.0000     5.0000     8.0000    25.0000    25.0000     8.0000     5.0000    25.0000     5.0000    -5.0000     0.0028    20.7709    41.5370     3.4188    14.4503    14.4501     1.6780     0.0000     1.0000     0.0460     0.000
    395     0.6666     0.6665     2.2200     0.0002     30.000   1433.000 288789.000     29.612    41.5367    -7.7196   -80.8822     0.5008     1.5001    25.0000     5.0000     8.0000    25.0000    25.0000     8.0000     5.0000    25.0000     5.0000    -5.0000     0.0028    20.7709    41.5369     3.4259    14.4503    14.4501     1.6781     0.0000     1.0000     0.0460     0.000
    396     0.6666     0.6665     2.2249     0.0002     30.000   1970.000 288885.000     29.622    41.5367    -7.8575   -81.0764     0.5008     1.5001    25.0000     5.0000     8.0000    25.0000    25.0000     8.0000     5.0000    25.0000     5.0000    -5.0000     0.0027    20.7709    41.5370     3.4328    14.4503    14.4501     1.6777     0.0000     1.0000     0.0460     0.000
    397     0.6666     0.6665     2.2300     0.0002     30.000   3487.000 289641.000     29.699    41.5367    -7.9961   -81.2744     0.5008     1.5001    25.0000     5.0000     8.0000    25.0000    25.0000     8.0000     5.0000    25.0000     5.0000    -5.0000     0.0027    20.7709    41.5370     3.4397    14.4503    14.4501     1.6782     0.0000     1.0000     0.0460     0.000
    398     0.6667     0.6666     2.2350     0.0002     30.000   7222.000 289145.000     29.649    41.5367    -8.1339   -81.4737     0.5008     1.5001    25.0000     5.0000     8.0000    25.0000    25.0000     8.0000     5.0000    25.0000     5.0000    -5.0000     0.0026    20.7709    41.5370     3.4466    14.4503    14.4501     1.6781     0.0000     1.0000     0.0461     0.000
    399     0.6667     0.6666     2.2400     0.0002     30.000  13650.000 288947.000     29.628    41.5367    -8.2717   -81.6729     0.5008     1.5001    25.0000     5.0000     8.0000    25.0000    25.0000     8.0000     5.0000    25.0000     5.0000    -5.0000     0.0025    20.7709    41.5369     3.4536    14.4503    14.4501     1.6782     0.0000     1.0000     0.0459     0.000
    400     0.6668     0.6667     2.2451     0.0002     30.000  20220.000 289139.000     29.648    41.5367    -8.4102   -81.8727     0.5008     1.5001    25.0000     5.0000     8.0000    25.0000    25.0000     8.0000     5.0000    25.0000     5.0000    -5.0000     0.0024    20.7709    41.5369     3.4606    14.4503    14.4501     1.6781     0.0000     1.0000     0.0459     0.000
    401     0.6667     0.6666     2.2500     0.0002     30.000  26554.000 289482.000     29.683    41.5367    -8.5486   -82.0669     0.5008     1.5001    25.0000     5.0000     8.0000    25.0000    25.0000     8.0000     5.0000    25.0000     5.0000    -5.0000     0.0024    20.7710    41.5369     3.4673    14.4503    14.4501     1.6782     0.0000     1.0000     0.0460     0.000
# Sum of Counts = 946918
# Center of Mass = 1.575383+/-0.002365
# Full Width Half-Maximum = 1.152510+/-0.001207
# 11:20:11 PM  5/1/2024   scan completed.
