# scan = 35
# date = 9/20/2023
# time = 12:55:45 AM
# proposal = 30730
# experiment = Low Temperature Magnetic Structure of CeCl3
# experiment_number = 998
# command = scan h 1 k 1 l 0.25 2.25 0.005 e 0 preset time 30 
# builtin_command = scan h 1 k 1 l 0.25 2.25 0.005 e 0 preset time 30
# users = Adam Aczel, David Mandrus, Matthew Cothrine, Stephen Nagler
# local_contact = A. Aczel
# scan_title = CeBr3, (1 1 L) scan, T = 0.04 K
# monochromator = PG002
# analyzer = Pg002
# sense = +-+
# collimation = 40-40-40-80
# samplename = CeBr3
# sampletype = crystal
# samplemosaic = 30.000000
# latticeconstants = 7.911813,7.911813,4.442653,90.000000,90.000000,120.000000
# ubmatrix = 0.075384,0.080477,-0.177039,-0.099473,-0.099471,-0.138870,-0.075649,0.070209,0.006183
# mode = 0
# plane_normal = 0.034896,0.000010,0.999390
# ubconf = UB19Sep2023_24416PM.ini
# preset_type = normal 
# preset_channel = time
# preset_value = 30.000000
# def_x = l
# def_y = detector
# col_headers = 
#   Pt.          h          k          l          e       time   detector    monitor        mcu         m2         s1         s2        sgl        sgu   slitb_bt   slitb_lf   slitb_rt   slitb_tp   slita_bt   slita_lf   slita_rt   slita_tp        stl        stu         sz         a1         a2          q         ei         ef        vti     sample       temp dr_tsample    dr_temp
      1     1.0000     1.0000     0.2500     0.0001     30.000    852.000 225834.000     32.730    41.5367    46.5118   -35.8893    -1.9995     0.0009    26.0000     4.0000     9.0000    22.0000    26.0000    10.0000     5.0000    20.0000     3.0006     1.0000    -0.4987    20.7740    41.5368     1.6272    14.4503    14.4502     1.7028     0.0000     1.0000     0.0381     0.000
      2     1.0000     1.0000     0.2550     0.0001     30.000    896.000 225560.000     32.690    41.5367    46.7375   -35.9246    -1.9995     0.0009    26.0000     4.0000     9.0000    22.0000    26.0000    10.0000     5.0000    20.0000     3.0007     1.0000    -0.4986    20.7740    41.5368     1.6288    14.4503    14.4502     1.7031     0.0000     1.0000     0.0387     0.000
      3     1.0000     1.0000     0.2600     0.0001     30.000    890.000 225938.000     32.745    41.5367    46.9615   -35.9594    -1.9995     0.0009    26.0000     4.0000     9.0000    22.0000    26.0000    10.0000     5.0000    20.0000     3.0006     1.0000    -0.4989    20.7740    41.5368     1.6303    14.4503    14.4502     1.7033     0.0000     1.0000     0.0387     0.000
      4     1.0000     1.0000     0.2650     0.0001     30.000    862.000 224339.000     32.513    41.5367    47.1851   -35.9972    -1.9995     0.0009    26.0000     4.0000     9.0000    22.0000    26.0000    10.0000     5.0000    20.0000     3.0006     1.0000    -0.4986    20.7740    41.5368     1.6320    14.4503    14.4502     1.7035     0.0000     1.0000     0.0388     0.000
      5     1.0000     1.0000     0.2700     0.0001     30.000    900.000 225513.000     32.683    41.5367    47.4082   -36.0349    -1.9995     0.0009    26.0000     4.0000     9.0000    22.0000    26.0000    10.0000     5.0000    20.0000     3.0006     1.0000    -0.4985    20.7740    41.5368     1.6336    14.4503    14.4502     1.7036     0.0000     1.0000     0.0388     0.000
      6     1.0000     1.0000     0.2750     0.0001     30.000    858.000 225244.000     32.644    41.5367    47.6297   -36.0732    -1.9995     0.0009    26.0000     4.0000     9.0000    22.0000    26.0000    10.0000     5.0000    20.0000     3.0007     1.0000    -0.4988    20.7740    41.5368     1.6353    14.4503    14.4502     1.7036     0.0000     1.0000     0.0386     0.000
      7     1.0000     1.0000     0.2800     0.0001     30.000    849.000 224508.000     32.537    41.5367    47.8506   -36.1116    -1.9995     0.0009    26.0000     4.0000     9.0000    22.0000    26.0000    10.0000     5.0000    20.0000     3.0006     1.0000    -0.4990    20.7740    41.5368     1.6370    14.4503    14.4502     1.7038     0.0000     1.0000     0.0386     0.000
      8     1.0000     1.0000     0.2850     0.0001     30.000    843.000 225529.000     32.685    41.5367    48.0705   -36.1494    -1.9995     0.0009    26.0000     4.0000     9.0000    22.0000    26.0000    10.0000     5.0000    20.0000     3.0007     1.0000    -0.4987    20.7740    41.5368     1.6386    14.4503    14.4502     1.7039     0.0000     1.0000     0.0387     0.000
      9     1.0000     1.0001     0.2900     0.0001     30.000    863.000 225805.000     32.725    41.5367    48.2899   -36.1923    -1.9995     0.0009    26.0000     4.0000     9.0000    22.0000    26.0000    10.0000     5.0000    20.0000     3.0007     1.0000    -0.4990    20.7740    41.5368     1.6405    14.4503    14.4502     1.7039     0.0000     1.0000     0.0388     0.000
     10     0.9999     1.0000     0.2950     0.0001     30.000    866.000 224261.000     32.502    41.5367    48.5089   -36.2283    -1.9995     0.0009    26.0000     4.0000     9.0000    22.0000    26.0000    10.0000     5.0000    20.0000     3.0007     1.0000    -0.4989    20.7740    41.5368     1.6421    14.4503    14.4502     1.7040     0.0000     1.0000     0.0388     0.000
     11     0.9999     1.0000     0.3000     0.0001     30.000    844.000 225494.000     32.680    41.5367    48.7269   -36.2704    -1.9995     0.0009    26.0000     4.0000     9.0000    22.0000    26.0000    10.0000     5.0000    20.0000     3.0007     1.0000    -0.4986    20.7740    41.5368     1.6439    14.4503    14.4502     1.7041     0.0000     1.0000     0.0388     0.000
     12     1.0000     1.0000     0.3050     0.0001     30.000    830.000 225402.000     32.667    41.5367    48.9435   -36.3134    -1.9995     0.0009    26.0000     4.0000     9.0000    22.0000    26.0000    10.0000     5.0000    20.0000     3.0007     1.0000    -0.4985    20.7740    41.5368     1.6458    14.4503    14.4502     1.7041     0.0000     1.0000     0.0388     0.000
     13     1.0000     1.0000     0.3100     0.0001     30.000    856.000 225539.000     32.687    41.5367    49.1589   -36.3571    -1.9995     0.0009    26.0000     4.0000     9.0000    22.0000    26.0000    10.0000     5.0000    20.0000     3.0006     1.0000    -0.4989    20.7740    41.5368     1.6477    14.4503    14.4502     1.7042     0.0000     1.0000     0.0388     0.000
     14     1.0000     1.0000     0.3150     0.0001     30.000    843.000 225460.000     32.675    41.5367    49.3746   -36.4001    -1.9995     0.0009    26.0000     4.0000     9.0000    22.0000    26.0000    10.0000     5.0000    20.0000     3.0007     1.0000    -0.4989    20.7739    41.5368     1.6496    14.4503    14.4502     1.7042     0.0000     1.0000     0.0388     0.000
     15     1.0000     1.0000     0.3200     0.0001     30.000    784.000 225888.000     32.737    41.5367    49.5887   -36.4425    -1.9995     0.0009    26.0000     4.0000     9.0000    22.0000    26.0000    10.0000     5.0000    20.0000     3.0007     1.0000    -0.4986    20.7740    41.5368     1.6515    14.4503    14.4502     1.7042     0.0000     1.0000     0.0391     0.000
     16     1.0000     1.0000     0.3250     0.0001     30.000    808.000 225101.000     32.623    41.5367    49.8022   -36.4875    -1.9995     0.0009    26.0000     4.0000     9.0000    22.0000    26.0000    10.0000     5.0000    20.0000     3.0007     1.0000    -0.4986    20.7739    41.5368     1.6534    14.4503    14.4502     1.7043     0.0000     1.0000     0.0391     0.000
     17     1.0000     1.0000     0.3300     0.0001     30.000    867.000 225917.000     32.742    41.5367    50.0152   -36.5327    -1.9995     0.0009    26.0000     4.0000     9.0000    22.0000    26.0000    10.0000     5.0000    20.0000     3.0007     1.0000    -0.4987    20.7739    41.5368     1.6554    14.4503    14.4502     1.7043     0.0000     1.0000     0.0391     0.000
     18     1.0000     1.0000     0.3350     0.0001     30.000    905.000 224250.000     32.500    41.5367    50.2264   -36.5785    -1.9995     0.0009    26.0000     4.0000     9.0000    22.0000    26.0000    10.0000     5.0000    20.0000     3.0007     1.0000    -0.4988    20.7739    41.5368     1.6574    14.4503    14.4502     1.7043     0.0000     1.0000     0.0388     0.000
     19     1.0000     1.0000     0.3400     0.0001     30.000    894.000 225629.000     32.700    41.5367    50.4375   -36.6266    -1.9995     0.0009    26.0000     4.0000     9.0000    22.0000    26.0000    10.0000     5.0000    20.0000     3.0007     1.0000    -0.4990    20.7739    41.5368     1.6595    14.4503    14.4502     1.7044     0.0000     1.0000     0.0388     0.000
     20     1.0000     1.0000     0.3450     0.0001     30.000    871.000 225418.000     32.669    41.5367    50.6472   -36.6721    -1.9995     0.0009    26.0000     4.0000     9.0000    22.0000    26.0000    10.0000     5.0000    20.0000     3.0007     1.0000    -0.4987    20.7739    41.5368     1.6615    14.4503    14.4502     1.7043     0.0000     1.0000     0.0387     0.000
     21     1.0000     1.0000     0.3500     0.0001     30.000    824.000 226378.000     32.808    41.5367    50.8561   -36.7216    -1.9995     0.0009    26.0000     4.0000     9.0000    22.0000    26.0000    10.0000     5.0000    20.0000     3.0007     1.0000    -0.4990    20.7739    41.5368     1.6637    14.4503    14.4502     1.7044     0.0000     1.0000     0.0387     0.000
     22     0.9999     1.0000     0.3550     0.0001     30.000    880.000 224993.000     32.608    41.5367    51.0637   -36.7676    -1.9995     0.0009    26.0000     4.0000     9.0000    22.0000    26.0000    10.0000     5.0000    20.0000     3.0007     1.0000    -0.4987    20.7739    41.5368     1.6657    14.4503    14.4502     1.7045     0.0000     1.0000     0.0390     0.000
     23     1.0000     1.0000     0.3600     0.0001     30.000    855.000 225538.000     32.687    41.5367    51.2708   -36.8182    -1.9995     0.0009    26.0000     4.0000     9.0000    22.0000    26.0000    10.0000     5.0000    20.0000     3.0007     1.0000    -0.4989    20.7739    41.5368     1.6679    14.4503    14.4502     1.7045     0.0000     1.0000     0.0390     0.000
     24     1.0000     1.0000     0.3650     0.0001     30.000    861.000 224678.000     32.562    41.5367    51.4772   -36.8666    -1.9995     0.0009    26.0000     4.0000     9.0000    22.0000    26.0000    10.0000     5.0000    20.0000     3.0007     1.0000    -0.4990    20.7739    41.5368     1.6700    14.4503    14.4502     1.7044     0.0000     1.0000     0.0390     0.000
     25     1.0000     1.0000     0.3700     0.0001     30.000    880.000 225652.000     32.703    41.5367    51.6826   -36.9187    -1.9995     0.0009    26.0000     4.0000     9.0000    22.0000    26.0000    10.0000     5.0000    20.0000     3.0007     1.0000    -0.4987    20.7739    41.5368     1.6723    14.4503    14.4502     1.7044     0.0000     1.0000     0.0390     0.000
     26     1.0000     1.0000     0.3750     0.0001     30.000    869.000 226587.000     32.839    41.5367    51.8868   -36.9694    -1.9995     0.0009    26.0000     4.0000     9.0000    22.0000    26.0000    10.0000     5.0000    20.0000     3.0008     1.0000    -0.4987    20.7739    41.5368     1.6745    14.4503    14.4502     1.7044     0.0000     1.0000     0.0391     0.000
     27     1.0000     1.0000     0.3800     0.0001     30.000    870.000 225043.000     32.615    41.5367    52.0900   -37.0196    -1.9995     0.0009    26.0000     4.0000     9.0000    22.0000    26.0000    10.0000     5.0000    20.0000     3.0007     1.0000    -0.4989    20.7739    41.5368     1.6767    14.4503    14.4502     1.7044     0.0000     1.0000     0.0391     0.000
     28     1.0000     1.0000     0.3850     0.0001     30.000    937.000 224704.000     32.566    41.5367    52.2925   -37.0726    -1.9995     0.0009    26.0000     4.0000     9.0000    22.0000    26.0000    10.0000     5.0000    20.0000     3.0007     1.0000    -0.4991    20.7739    41.5368     1.6790    14.4503    14.4502     1.7044     0.0000     1.0000     0.0387     0.000
     29     1.0000     1.0000     0.3900     0.0001     30.000    841.000 226047.000     32.760    41.5367    52.4942   -37.1243    -1.9995     0.0009    26.0000     4.0000     9.0000    22.0000    26.0000    10.0000     5.0000    20.0000     3.0008     1.0000    -0.4990    20.7739    41.5368     1.6813    14.4503    14.4502     1.7045     0.0000     1.0000     0.0391     0.000
     30     1.0000     1.0000     0.3950     0.0001     30.000    867.000 225730.000     32.714    41.5367    52.6950   -37.1799    -1.9995     0.0009    26.0000     4.0000     9.0000    22.0000    26.0000    10.0000     5.0000    20.0000     3.0007     1.0000    -0.4986    20.7739    41.5368     1.6837    14.4503    14.4502     1.7045     0.0000     1.0000     0.0391     0.000
     31     1.0000     1.0000     0.4000     0.0001     30.000    941.000 225916.000     32.741    41.5367    52.8944   -37.2343    -1.9995     0.0009    26.0000     4.0000     9.0000    22.0000    26.0000    10.0000     5.0000    20.0000     3.0007     1.0000    -0.4991    20.7739    41.5368     1.6861    14.4503    14.4502     1.7046     0.0000     1.0000     0.0386     0.000
     32     1.0000     1.0000     0.4050     0.0001     30.000    884.000 225246.000     32.644    41.5367    53.0930   -37.2885    -1.9995     0.0009    26.0000     4.0000     9.0000    22.0000    26.0000    10.0000     5.0000    20.0000     3.0007     1.0000    -0.4991    20.7739    41.5368     1.6885    14.4503    14.4502     1.7046     0.0000     1.0000     0.0386     0.000
     33     1.0000     1.0000     0.4100     0.0001     30.000    898.000 224867.000     32.589    41.5367    53.2912   -37.3431    -1.9995     0.0009    26.0000     4.0000     9.0000    22.0000    26.0000    10.0000     5.0000    20.0000     3.0007     1.0000    -0.4990    20.7739    41.5368     1.6908    14.4503    14.4502     1.7046     0.0000     1.0000     0.0385     0.000
     34     1.0000     1.0000     0.4150     0.0001     30.000    880.000 225989.000     32.752    41.5367    53.4878   -37.3994    -1.9995     0.0009    26.0000     4.0000     9.0000    22.0000    26.0000    10.0000     5.0000    20.0000     3.0007     1.0000    -0.4992    20.7739    41.5368     1.6933    14.4503    14.4502     1.7046     0.0000     1.0000     0.0385     0.000
     35     1.0000     1.0000     0.4200     0.0001     30.000    945.000 225827.000     32.729    41.5367    53.6838   -37.4564    -1.9995     0.0009    26.0000     4.0000     9.0000    22.0000    26.0000    10.0000     5.0000    20.0000     3.0008     1.0000    -0.4990    20.7739    41.5368     1.6958    14.4503    14.4502     1.7046     0.0000     1.0000     0.0386     0.000
     36     1.0000     1.0000     0.4250     0.0001     30.000    927.000 225019.000     32.611    41.5367    53.8782   -37.5128    -1.9995     0.0009    26.0000     4.0000     9.0000    22.0000    26.0000    10.0000     5.0000    20.0000     3.0007     1.0000    -0.4989    20.7739    41.5368     1.6983    14.4503    14.4502     1.7046     0.0000     1.0000     0.0386     0.000
     37     1.0000     1.0000     0.4300     0.0001     30.000    979.000 225326.000     32.656    41.5367    54.0725   -37.5710    -1.9995     0.0009    26.0000     4.0000     9.0000    22.0000    26.0000    10.0000     5.0000    20.0000     3.0008     1.0000    -0.4988    20.7739    41.5368     1.7008    14.4503    14.4502     1.7046     0.0000     1.0000     0.0386     0.000
     38     1.0000     1.0000     0.4350     0.0001     30.000    979.000 225803.000     32.725    41.5367    54.2659   -37.6294    -1.9995     0.0009    26.0000     4.0000     9.0000    22.0000    26.0000    10.0000     5.0000    20.0000     3.0007     1.0000    -0.4989    20.7739    41.5368     1.7033    14.4503    14.4502     1.7046     0.0000     1.0000     0.0384     0.000
     39     1.0000     1.0000     0.4400     0.0001     30.000    943.000 225191.000     32.636    41.5367    54.4578   -37.6873    -1.9995     0.0009    26.0000     4.0000     9.0000    22.0000    26.0000    10.0000     5.0000    20.0000     3.0007     1.0000    -0.4992    20.7739    41.5368     1.7059    14.4503    14.4502     1.7046     0.0000     1.0000     0.0384     0.000
     40     1.0000     1.0000     0.4450     0.0001     30.000    853.000 224772.000     32.576    41.5367    54.6486   -37.7476    -1.9995     0.0009    26.0000     4.0000     9.0000    22.0000    26.0000    10.0000     5.0000    20.0000     3.0007     1.0000    -0.4992    20.7739    41.5368     1.7085    14.4503    14.4502     1.7046     0.0000     1.0000     0.0385     0.000
     41     1.0000     1.0000     0.4500     0.0001     30.000    875.000 225580.000     32.693    41.5367    54.8387   -37.8064    -1.9995     0.0009    26.0000     4.0000     9.0000    22.0000    26.0000    10.0000     5.0000    20.0000     3.0007     1.0000    -0.4992    20.7739    41.5368     1.7111    14.4503    14.4502     1.7047     0.0000     1.0000     0.0385     0.000
     42     1.0000     1.0000     0.4550     0.0001     30.000    896.000 224458.000     32.530    41.5367    55.0277   -37.8675    -1.9995     0.0009    26.0000     4.0000     9.0000    22.0000    26.0000    10.0000     5.0000    20.0000     3.0007     1.0000    -0.4992    20.7739    41.5368     1.7137    14.4503    14.4502     1.7047     0.0000     1.0000     0.0388     0.000
     43     1.0000     1.0000     0.4600     0.0001     30.000    938.000 225588.000     32.694    41.5367    55.2163   -37.9284    -1.9995     0.0009    26.0000     4.0000     9.0000    22.0000    26.0000    10.0000     5.0000    20.0000     3.0008     1.0000    -0.4991    20.7739    41.5368     1.7164    14.4503    14.4502     1.7046     0.0000     1.0000     0.0388     0.000
     44     1.0000     1.0000     0.4650     0.0001     30.000    911.000 225703.000     32.711    41.5367    55.4036   -37.9894    -1.9995     0.0009    26.0000     4.0000     9.0000    22.0000    26.0000    10.0000     5.0000    20.0000     3.0007     1.0000    -0.4991    20.7738    41.5368     1.7190    14.4503    14.4502     1.7046     0.0000     1.0000     0.0384     0.000
     45     1.0000     1.0000     0.4700     0.0001     30.000    906.000 226297.000     32.797    41.5367    55.5900   -38.0526    -1.9995     0.0009    26.0000     4.0000     9.0000    22.0000    26.0000    10.0000     5.0000    20.0000     3.0007     1.0000    -0.4991    20.7739    41.5368     1.7218    14.4503    14.4502     1.7046     0.0000     1.0000     0.0384     0.000
     46     1.0000     1.0000     0.4750     0.0001     30.000    887.000 226000.000     32.754    41.5367    55.7754   -38.1150    -1.9995     0.0009    26.0000     4.0000     9.0000    22.0000    26.0000    10.0000     5.0000    20.0000     3.0007     1.0000    -0.4988    20.7739    41.5368     1.7245    14.4503    14.4502     1.7047     0.0000     1.0000     0.0387     0.000
     47     1.0000     1.0000     0.4800     0.0001     30.000    931.000 225187.000     32.636    41.5367    55.9593   -38.1776    -1.9995     0.0009    26.0000     4.0000     9.0000    22.0000    26.0000    10.0000     5.0000    20.0000     3.0007     1.0000    -0.4990    20.7739    41.5368     1.7272    14.4503    14.4502     1.7046     0.0000     1.0000     0.0386     0.000
     48     1.0000     1.0000     0.4850     0.0001     30.000    858.000 225000.000     32.609    41.5367    56.1424   -38.2420    -1.9995     0.0009    26.0000     4.0000     9.0000    22.0000    26.0000    10.0000     5.0000    20.0000     3.0007     1.0000    -0.4992    20.7739    41.5368     1.7300    14.4503    14.4502     1.7047     0.0000     1.0000     0.0386     0.000
     49     1.0000     1.0000     0.4900     0.0001     30.000    875.000 226059.000     32.762    41.5367    56.3252   -38.3091    -1.9995     0.0009    26.0000     4.0000     9.0000    22.0000    26.0000    10.0000     5.0000    20.0000     3.0007     1.0000    -0.4989    20.7739    41.5368     1.7330    14.4503    14.4502     1.7047     0.0000     1.0000     0.0385     0.000
     50     1.0000     1.0000     0.4950     0.0001     30.000    937.000 225152.000     32.631    41.5367    56.5061   -38.3729    -1.9995     0.0009    26.0000     4.0000     9.0000    22.0000    26.0000    10.0000     5.0000    20.0000     3.0007     1.0000    -0.4992    20.7739    41.5368     1.7357    14.4503    14.4502     1.7047     0.0000     1.0000     0.0385     0.000
     51     1.0000     1.0000     0.5000     0.0001     30.000    892.000 225986.000     32.752    41.5367    56.6864   -38.4390    -1.9995     0.0009    26.0000     4.0000     9.0000    22.0000    26.0000    10.0000     5.0000    20.0000     3.0007     1.0000    -0.4992    20.7738    41.5368     1.7386    14.4503    14.4502     1.7048     0.0000     1.0000     0.0384     0.000
     52     1.0000     1.0000     0.5050     0.0001     30.000    867.000 225647.000     32.702    41.5367    56.8659   -38.5051    -1.9995     0.0009    26.0000     4.0000     9.0000    22.0000    26.0000    10.0000     5.0000    20.0000     3.0007     1.0000    -0.4992    20.7738    41.5368     1.7415    14.4503    14.4502     1.7048     0.0000     1.0000     0.0384     0.000
     53     1.0000     1.0000     0.5100     0.0001     30.000    909.000 226210.000     32.784    41.5367    57.0445   -38.5725    -1.9995     0.0009    26.0000     4.0000     9.0000    22.0000    26.0000    10.0000     5.0000    20.0000     3.0007     1.0000    -0.4994    20.7739    41.5368     1.7444    14.4503    14.4502     1.7048     0.0000     1.0000     0.0388     0.000
     54     1.0000     1.0000     0.5150     0.0001     30.000    863.000 224812.000     32.581    41.5367    57.2215   -38.6395    -1.9995     0.0009    26.0000     4.0000     9.0000    22.0000    26.0000    10.0000     5.0000    20.0000     3.0007     1.0000    -0.4992    20.7739    41.5368     1.7473    14.4503    14.4502     1.7046     0.0000     1.0000     0.0388     0.000
     55     1.0000     1.0000     0.5200     0.0001     30.000    939.000 226102.000     32.768    41.5367    57.3978   -38.7086    -1.9995     0.0009    26.0000     4.0000     9.0000    22.0000    26.0000    10.0000     5.0000    20.0000     3.0007     1.0000    -0.4991    20.7739    41.5368     1.7503    14.4503    14.4502     1.7047     0.0000     1.0000     0.0387     0.000
     56     0.9999     1.0000     0.5250     0.0000     30.000    931.000 225834.000     32.730    41.5367    57.5740   -38.7744    -1.9995     0.0009    26.0000     4.0000     9.0000    22.0000    26.0000    10.0000     5.0000    20.0000     3.0007     1.0000    -0.4991    20.7739    41.5368     1.7532    14.4503    14.4502     1.7047     0.0000     1.0000     0.0384     0.000
     57     1.0000     1.0000     0.5300     0.0001     30.000    906.000 225244.000     32.644    41.5367    57.7474   -38.8461    -1.9995     0.0009    26.0000     4.0000     9.0000    22.0000    26.0000    10.0000     5.0000    20.0000     3.0007     1.0000    -0.4992    20.7739    41.5368     1.7563    14.4503    14.4502     1.7047     0.0000     1.0000     0.0384     0.000
     58     1.0000     1.0000     0.5350     0.0001     30.000    900.000 224873.000     32.590    41.5367    57.9211   -38.9151    -1.9995     0.0009    26.0000     4.0000     9.0000    22.0000    26.0000    10.0000     5.0000    20.0000     3.0007     1.0000    -0.4991    20.7739    41.5368     1.7593    14.4503    14.4502     1.7047     0.0000     1.0000     0.0386     0.000
     59     1.0000     1.0000     0.5400     0.0001     30.000    877.000 225456.000     32.675    41.5367    58.0940   -38.9859    -1.9995     0.0009    26.0000     4.0000     9.0000    22.0000    26.0000    10.0000     5.0000    20.0000     3.0007     1.0000    -0.4992    20.7739    41.5368     1.7624    14.4503    14.4502     1.7046     0.0000     1.0000     0.0386     0.000
     60     1.0000     1.0000     0.5450     0.0001     30.000    890.000 225266.000     32.647    41.5367    58.2653   -39.0567    -1.9995     0.0009    26.0000     4.0000     9.0000    22.0000    26.0000    10.0000     5.0000    20.0000     3.0007     1.0000    -0.4990    20.7738    41.5368     1.7655    14.4503    14.4502     1.7046     0.0000     1.0000     0.0388     0.000
     61     1.0000     1.0000     0.5500     0.0001     30.000    916.000 224755.000     32.573    41.5367    58.4356   -39.1282    -1.9995     0.0009    26.0000     4.0000     9.0000    22.0000    26.0000    10.0000     5.0000    20.0000     3.0007     1.0000    -0.4993    20.7738    41.5368     1.7686    14.4503    14.4502     1.7046     0.0000     1.0000     0.0388     0.000
     62     1.0000     1.0000     0.5550     0.0001     30.000    931.000 226466.000     32.821    41.5367    58.6052   -39.2008    -1.9995     0.0009    26.0000     4.0000     9.0000    22.0000    26.0000    10.0000     5.0000    20.0000     3.0007     1.0000    -0.4994    20.7739    41.5368     1.7717    14.4503    14.4502     1.7047     0.0000     1.0000     0.0379     0.000
     63     1.0000     1.0000     0.5600     0.0001     30.000    952.000 225669.000     32.706    41.5367    58.7739   -39.2727    -1.9995     0.0009    26.0000     4.0000     9.0000    22.0000    26.0000    10.0000     5.0000    20.0000     3.0007     1.0000    -0.4992    20.7738    41.5368     1.7749    14.4503    14.4502     1.7046     0.0000     1.0000     0.0379     0.000
     64     1.0000     1.0000     0.5650     0.0001     30.000    937.000 226139.000     32.774    41.5367    58.9406   -39.3461    -1.9995     0.0009    26.0000     4.0000     9.0000    22.0000    26.0000    10.0000     5.0000    20.0000     3.0007     1.0000    -0.4989    20.7738    41.5368     1.7780    14.4503    14.4502     1.7046     0.0000     1.0000     0.0384     0.000
     65     1.0000     1.0000     0.5700     0.0000     30.000    933.000 225952.000     32.747    41.5367    59.1070   -39.4175    -1.9995     0.0009    26.0000     4.0000     9.0000    22.0000    26.0000    10.0000     5.0000    20.0000     3.0007     1.0000    -0.4992    20.7738    41.5368     1.7811    14.4503    14.4502     1.7046     0.0000     1.0000     0.0379     0.000
     66     1.0000     1.0000     0.5750     0.0001     30.000    937.000 226033.000     32.758    41.5367    59.2730   -39.4913    -1.9995     0.0009    26.0000     4.0000     9.0000    22.0000    26.0000    10.0000     5.0000    20.0000     3.0007     1.0000    -0.4988    20.7738    41.5368     1.7843    14.4503    14.4502     1.7046     0.0000     1.0000     0.0379     0.000
     67     1.0000     1.0000     0.5800     0.0001     30.000    913.000 225896.000     32.739    41.5367    59.4373   -39.5664    -1.9995     0.0009    26.0000     4.0000     9.0000    22.0000    26.0000    10.0000     5.0000    20.0000     3.0007     1.0000    -0.4989    20.7738    41.5368     1.7876    14.4503    14.4502     1.7047     0.0000     1.0000     0.0382     0.000
     68     1.0000     1.0000     0.5850     0.0000     30.000    850.000 225111.000     32.625    41.5367    59.6007   -39.6409    -1.9995     0.0009    26.0000     4.0000     9.0000    22.0000    26.0000    10.0000     5.0000    20.0000     3.0007     1.0000    -0.4993    20.7738    41.5368     1.7908    14.4503    14.4502     1.7046     0.0000     1.0000     0.0382     0.000
     69     1.0000     1.0000     0.5900     0.0000     30.000    916.000 225623.000     32.699    41.5367    59.7634   -39.7173    -1.9995     0.0009    26.0000     4.0000     9.0000    22.0000    26.0000    10.0000     5.0000    20.0000     3.0007     1.0000    -0.4991    20.7738    41.5368     1.7941    14.4503    14.4502     1.7047     0.0000     1.0000     0.0379     0.000
     70     1.0000     1.0000     0.5950     0.0001     30.000    884.000 226472.000     32.822    41.5367    59.9248   -39.7930    -1.9995     0.0009    26.0000     4.0000     9.0000    22.0000    26.0000    10.0000     5.0000    20.0000     3.0007     1.0000    -0.4990    20.7738    41.5368     1.7974    14.4503    14.4502     1.7047     0.0000     1.0000     0.0379     0.000
     71     0.9999     1.0000     0.5999     0.0000     30.000    896.000 226451.000     32.819    41.5367    60.0848   -39.8676    -1.9995     0.0009    26.0000     4.0000     9.0000    22.0000    26.0000    10.0000     5.0000    20.0000     3.0006     1.0000    -0.4992    20.7738    41.5367     1.8007    14.4503    14.4503     1.7047     0.0000     1.0000     0.0379     0.000
     72     1.0000     1.0000     0.6050     0.0000     30.000    872.000 225666.000     32.705    41.5367    60.2447   -39.9492    -1.9995     0.0009    26.0000     4.0000     9.0000    22.0000    26.0000    10.0000     5.0000    20.0000     3.0007     1.0000    -0.4993    20.7738    41.5367     1.8042    14.4503    14.4503     1.7046     0.0000     1.0000     0.0379     0.000
     73     0.9999     0.9999     0.6099     0.0000     30.000    845.000 225467.000     32.676    41.5367    60.4036   -40.0214    -1.9995     0.0009    26.0000     4.0000     9.0000    22.0000    26.0000    10.0000     5.0000    20.0000     3.0007     1.0000    -0.4994    20.7738    41.5368     1.8073    14.4503    14.4502     1.7045     0.0000     1.0000     0.0383     0.000
     74     1.0000     1.0000     0.6150     0.0000     30.000   1013.000 225583.000     32.693    41.5367    60.5607   -40.1038    -1.9995     0.0009    26.0000     4.0000     9.0000    22.0000    26.0000    10.0000     5.0000    20.0000     3.0007     1.0000    -0.4993    20.7738    41.5368     1.8109    14.4503    14.4502     1.7045     0.0000     1.0000     0.0383     0.000
     75     1.0000     1.0000     0.6200     0.0000     30.000    892.000 224943.000     32.600    41.5367    60.7171   -40.1819    -1.9995     0.0009    26.0000     4.0000     9.0000    22.0000    26.0000    10.0000     5.0000    20.0000     3.0007     1.0000    -0.4994    20.7738    41.5368     1.8143    14.4503    14.4502     1.7046     0.0000     1.0000     0.0383     0.000
     76     1.0000     1.0000     0.6250     0.0001     30.000    897.000 226166.000     32.778    41.5367    60.8733   -40.2609    -1.9995     0.0009    26.0000     4.0000     9.0000    22.0000    26.0000    10.0000     5.0000    20.0000     3.0007     1.0000    -0.4990    20.7738    41.5368     1.8177    14.4503    14.4502     1.7045     0.0000     1.0000     0.0384     0.000
     77     1.0000     1.0000     0.6300     0.0000     30.000    934.000 226449.000     32.819    41.5367    61.0276   -40.3404    -1.9995     0.0009    26.0000     4.0000     9.0000    22.0000    26.0000    10.0000     5.0000    20.0000     3.0007     1.0000    -0.4990    20.7738    41.5367     1.8211    14.4503    14.4503     1.7045     0.0000     1.0000     0.0384     0.000
     78     1.0000     1.0000     0.6350     0.0000     30.000    939.000 224752.000     32.573    41.5367    61.1805   -40.4209    -1.9995     0.0009    26.0000     4.0000     9.0000    22.0000    26.0000    10.0000     5.0000    20.0000     3.0007     1.0000    -0.4994    20.7738    41.5367     1.8246    14.4503    14.4503     1.7045     0.0000     1.0000     0.0387     0.000
     79     1.0000     1.0000     0.6400     0.0000     30.000    941.000 225686.000     32.708    41.5367    61.3337   -40.5023    -1.9995     0.0009    26.0000     4.0000     9.0000    22.0000    26.0000    10.0000     5.0000    20.0000     3.0007     1.0000    -0.4994    20.7738    41.5368     1.8281    14.4503    14.4502     1.7046     0.0000     1.0000     0.0387     0.000
     80     1.0000     1.0001     0.6451     0.0000     30.000    920.000 225182.000     32.635    41.5367    61.4848   -40.5864    -1.9995     0.0009    26.0000     4.0000     9.0000    22.0000    26.0000    10.0000     5.0000    20.0000     3.0007     1.0000    -0.4991    20.7738    41.5367     1.8318    14.4503    14.4503     1.7044     0.0000     1.0000     0.0380     0.000
     81     1.0000     1.0000     0.6500     0.0000     30.000    994.000 225892.000     32.738    41.5367    61.6351   -40.6654    -1.9995     0.0009    26.0000     4.0000     9.0000    22.0000    26.0000    10.0000     5.0000    20.0000     3.0007     1.0000    -0.4992    20.7738    41.5367     1.8352    14.4503    14.4503     1.7044     0.0000     1.0000     0.0380     0.000
     82     1.0000     1.0000     0.6550     0.0000     30.000    891.000 225856.000     32.733    41.5367    61.7849   -40.7482    -1.9995     0.0009    26.0000     4.0000     9.0000    22.0000    26.0000    10.0000     5.0000    20.0000     3.0007     1.0000    -0.4991    20.7738    41.5367     1.8388    14.4503    14.4503     1.7044     0.0000     1.0000     0.0381     0.000
     83     1.0000     1.0000     0.6600     0.0000     30.000    948.000 226332.000     32.802    41.5367    61.9345   -40.8306    -1.9995     0.0009    26.0000     4.0000     9.0000    22.0000    26.0000    10.0000     5.0000    20.0000     3.0007     1.0000    -0.4991    20.7738    41.5367     1.8423    14.4503    14.4503     1.7044     0.0000     1.0000     0.0382     0.000
     84     1.0000     1.0000     0.6650     0.0000     30.000    922.000 226070.000     32.764    41.5367    62.0815   -40.9132    -1.9995     0.0009    26.0000     4.0000     9.0000    22.0000    26.0000    10.0000     5.0000    20.0000     3.0007     1.0000    -0.4995    20.7738    41.5367     1.8459    14.4503    14.4503     1.7044     0.0000     1.0000     0.0382     0.000
     85     1.0000     1.0000     0.6700     0.0000     30.000    941.000 225858.000     32.733    41.5367    62.2281   -40.9972    -1.9995     0.0009    26.0000     4.0000     9.0000    22.0000    26.0000    10.0000     5.0000    20.0000     3.0007     1.0000    -0.4994    20.7738    41.5367     1.8495    14.4503    14.4503     1.7045     0.0000     1.0000     0.0378     0.000
     86     1.0000     1.0000     0.6750     0.0000     30.000    891.000 226550.000     32.833    41.5367    62.3741   -41.0818    -1.9995     0.0009    26.0000     4.0000     9.0000    22.0000    26.0000    10.0000     5.0000    20.0000     3.0007     1.0000    -0.4994    20.7738    41.5367     1.8532    14.4503    14.4503     1.7044     0.0000     1.0000     0.0378     0.000
     87     0.9999     1.0000     0.6800     0.0000     30.000    915.000 224940.000     32.600    41.5367    62.5186   -41.1634    -1.9995     0.0009    26.0000     4.0000     9.0000    22.0000    26.0000    10.0000     5.0000    20.0000     3.0007     1.0000    -0.4993    20.7738    41.5367     1.8567    14.4503    14.4503     1.7044     0.0000     1.0000     0.0377     0.000
     88     1.0000     1.0000     0.6850     0.0000     30.000    910.000 225840.000     32.730    41.5367    62.6627   -41.2495    -1.9995     0.0009    26.0000     4.0000     9.0000    22.0000    26.0000    10.0000     5.0000    20.0000     3.0007     1.0000    -0.4994    20.7738    41.5367     1.8604    14.4503    14.4503     1.7045     0.0000     1.0000     0.0377     0.000
     89     1.0000     1.0000     0.6900     0.0000     30.000    924.000 226007.000     32.755    41.5367    62.8045   -41.3350    -1.9995     0.0009    26.0000     4.0000     9.0000    22.0000    26.0000    10.0000     5.0000    20.0000     3.0007     1.0000    -0.4993    20.7738    41.5367     1.8641    14.4503    14.4503     1.7044     0.0000     1.0000     0.0380     0.000
     90     0.9999     1.0000     0.6949     0.0000     30.000    950.000 225783.000     32.722    41.5367    62.9464   -41.4197    -1.9995     0.0009    26.0000     4.0000     9.0000    22.0000    26.0000    10.0000     5.0000    20.0000     3.0007     1.0000    -0.4995    20.7738    41.5367     1.8677    14.4503    14.4503     1.7044     0.0000     1.0000     0.0380     0.000
     91     1.0000     1.0000     0.7000     0.0000     30.000    934.000 226798.000     32.869    41.5367    63.0875   -41.5077    -1.9995     0.0009    26.0000     4.0000     9.0000    22.0000    26.0000    10.0000     5.0000    20.0000     3.0007     1.0000    -0.4991    20.7738    41.5367     1.8715    14.4503    14.4503     1.7043     0.0000     1.0000     0.0378     0.000
     92     1.0000     1.0000     0.7050     0.0000     30.000    941.000 225647.000     32.702    41.5367    63.2276   -41.5954    -1.9995     0.0009    26.0000     4.0000     9.0000    22.0000    26.0000    10.0000     5.0000    20.0000     3.0007     1.0000    -0.4994    20.7738    41.5367     1.8753    14.4503    14.4503     1.7043     0.0000     1.0000     0.0382     0.000
     93     1.0000     1.0000     0.7100     0.0000     30.000    919.000 224643.000     32.557    41.5367    63.3663   -41.6825    -1.9995     0.0009    26.0000     4.0000     9.0000    22.0000    26.0000    10.0000     5.0000    20.0000     3.0007     1.0000    -0.4995    20.7738    41.5367     1.8791    14.4503    14.4503     1.7044     0.0000     1.0000     0.0382     0.000
     94     1.0000     1.0000     0.7150     0.0000     30.000    916.000 223997.000     32.463    41.5367    63.5042   -41.7710    -1.9995     0.0009    26.0000     4.0000     9.0000    22.0000    26.0000    10.0000     5.0000    20.0000     3.0007     1.0000    -0.4995    20.7738    41.5367     1.8829    14.4503    14.4503     1.7044     0.0000     1.0000     0.0378     0.000
     95     1.0000     1.0000     0.7200     0.0000     30.000    911.000 224444.000     32.528    41.5367    63.6413   -41.8605    -1.9995     0.0009    26.0000     4.0000     9.0000    22.0000    26.0000    10.0000     5.0000    20.0000     3.0007     1.0000    -0.4990    20.7738    41.5367     1.8867    14.4503    14.4503     1.7043     0.0000     1.0000     0.0378     0.000
     96     1.0000     1.0000     0.7250     0.0000     30.000    871.000 224852.000     32.587    41.5367    63.7770   -41.9481    -1.9995     0.0009    26.0000     4.0000     9.0000    22.0000    26.0000    10.0000     5.0000    20.0000     3.0007     1.0000    -0.4991    20.7738    41.5367     1.8905    14.4503    14.4503     1.7044     0.0000     1.0000     0.0377     0.000
     97     1.0000     1.0000     0.7300     0.0000     30.000    924.000 225615.000     32.698    41.5367    63.9128   -42.0383    -1.9995     0.0009    26.0000     4.0000     9.0000    22.0000    26.0000    10.0000     5.0000    20.0000     3.0007     1.0000    -0.4991    20.7738    41.5367     1.8944    14.4503    14.4503     1.7044     0.0000     1.0000     0.0377     0.000
     98     1.0000     1.0000     0.7350     0.0000     30.000    967.000 224706.000     32.566    41.5367    64.0464   -42.1289    -1.9995     0.0009    26.0000     4.0000     9.0000    22.0000    26.0000    10.0000     5.0000    20.0000     3.0007     1.0000    -0.4991    20.7738    41.5367     1.8983    14.4503    14.4503     1.7043     0.0000     1.0000     0.0375     0.000
     99     1.0000     1.0000     0.7400     0.0000     30.000    907.000 224774.000     32.576    41.5367    64.1792   -42.2191    -1.9995     0.0009    26.0000     4.0000     9.0000    22.0000    26.0000    10.0000     5.0000    20.0000     3.0006     1.0000    -0.4995    20.7738    41.5367     1.9022    14.4503    14.4503     1.7043     0.0000     1.0000     0.0375     0.000
    100     1.0000     1.0001     0.7451     0.0000     30.000    951.000 224376.000     32.518    41.5367    64.3122   -42.3118    -1.9995     0.0009    26.0000     4.0000     9.0000    22.0000    26.0000    10.0000     5.0000    20.0000     3.0007     1.0000    -0.4995    20.7738    41.5367     1.9061    14.4503    14.4503     1.7043     0.0000     1.0000     0.0375     0.000
    101     1.0000     1.0000     0.7501     0.0000     30.000    898.000 225243.000     32.644    41.5367    64.4433   -42.4021    -1.9995     0.0009    26.0000     4.0000     9.0000    22.0000    26.0000    10.0000     5.0000    20.0000     3.0007     1.0000    -0.4994    20.7738    41.5367     1.9100    14.4503    14.4503     1.7043     0.0000     1.0000     0.0375     0.000
    102     1.0000     1.0000     0.7551     0.0000     30.000    874.000 225242.000     32.644    41.5367    64.5735   -42.4929    -1.9995     0.0009    26.0000     4.0000     9.0000    22.0000    26.0000    10.0000     5.0000    20.0000     3.0007     1.0000    -0.4991    20.7738    41.5367     1.9139    14.4503    14.4503     1.7044     0.0000     1.0000     0.0375     0.000
    103     1.0000     1.0000     0.7601     0.0000     30.000    889.000 224918.000     32.597    41.5367    64.7026   -42.5851    -1.9995     0.0009    26.0000     4.0000     9.0000    22.0000    26.0000    10.0000     5.0000    20.0000     3.0007     1.0000    -0.4990    20.7738    41.5367     1.9179    14.4503    14.4503     1.7043     0.0000     1.0000     0.0374     0.000
    104     1.0000     1.0001     0.7651     0.0000     30.000    906.000 224317.000     32.510    41.5367    64.8310   -42.6791    -1.9995     0.0009    26.0000     4.0000     9.0000    22.0000    26.0000    10.0000     5.0000    20.0000     3.0007     1.0000    -0.4990    20.7738    41.5368     1.9219    14.4503    14.4502     1.7044     0.0000     1.0000     0.0374     0.000
    105     1.0000     1.0000     0.7700     0.0000     30.000    852.000 224565.000     32.546    41.5367    64.9577   -42.7697    -1.9995     0.0009    26.0000     4.0000     9.0000    22.0000    26.0000    10.0000     5.0000    20.0000     3.0007     1.0000    -0.4990    20.7738    41.5367     1.9258    14.4503    14.4503     1.7044     0.0000     1.0000     0.0374     0.000
    106     1.0000     1.0000     0.7750     0.0000     30.000    919.000 223869.000     32.445    41.5367    65.0841   -42.8625    -1.9995     0.0009    26.0000     4.0000     9.0000    22.0000    26.0000    10.0000     5.0000    20.0000     3.0007     1.0000    -0.4991    20.7738    41.5367     1.9298    14.4503    14.4503     1.7043     0.0000     1.0000     0.0374     0.000
    107     1.0000     1.0000     0.7800     0.0000     30.000    899.000 224903.000     32.595    41.5367    65.2101   -42.9563    -1.9995     0.0009    26.0000     4.0000     9.0000    22.0000    26.0000    10.0000     5.0000    20.0000     3.0007     1.0000    -0.4994    20.7738    41.5367     1.9338    14.4503    14.4503     1.7043     0.0000     1.0000     0.0375     0.000
    108     1.0000     1.0000     0.7850     0.0000     30.000    913.000 225719.000     32.713    41.5367    65.3342   -43.0495    -1.9995     0.0009    26.0000     4.0000     9.0000    22.0000    26.0000    10.0000     5.0000    20.0000     3.0006     1.0000    -0.4995    20.7738    41.5367     1.9378    14.4503    14.4503     1.7042     0.0000     1.0000     0.0375     0.000
    109     1.0000     1.0000     0.7900     0.0000     30.000    918.000 225620.000     32.699    41.5367    65.4581   -43.1439    -1.9995     0.0009    26.0000     4.0000     9.0000    22.0000    26.0000    10.0000     5.0000    20.0000     3.0006     1.0000    -0.4995    20.7738    41.5367     1.9419    14.4503    14.4503     1.7042     0.0000     1.0000     0.0377     0.000
    110     1.0000     1.0000     0.7950     0.0000     30.000    912.000 224759.000     32.574    41.5367    65.5820   -43.2396    -1.9995     0.0009    26.0000     4.0000     9.0000    22.0000    26.0000    10.0000     5.0000    20.0000     3.0007     1.0000    -0.4991    20.7738    41.5368     1.9460    14.4503    14.4502     1.7042     0.0000     1.0000     0.0376     0.000
    111     1.0000     1.0000     0.8000     0.0000     30.000    893.000 225861.000     32.733    41.5367    65.7032   -43.3355    -1.9995     0.0009    26.0000     4.0000     9.0000    22.0000    26.0000    10.0000     5.0000    20.0000     3.0007     1.0000    -0.4991    20.7738    41.5367     1.9501    14.4503    14.4503     1.7042     0.0000     1.0000     0.0376     0.000
    112     1.0000     1.0000     0.8050     0.0000     30.000    889.000 223522.000     32.394    41.5367    65.8230   -43.4315    -1.9995     0.0009    26.0000     4.0000     9.0000    22.0000    26.0000    10.0000     5.0000    20.0000     3.0006     1.0000    -0.4995    20.7738    41.5367     1.9542    14.4503    14.4503     1.7042     0.0000     1.0000     0.0377     0.000
    113     1.0000     1.0000     0.8100     0.0000     30.000    948.000 225217.000     32.640    41.5367    65.9428   -43.5276    -1.9995     0.0009    26.0000     4.0000     9.0000    22.0000    26.0000    10.0000     5.0000    20.0000     3.0007     1.0000    -0.4990    20.7738    41.5368     1.9583    14.4503    14.4502     1.7043     0.0000     1.0000     0.0377     0.000
    114     1.0000     1.0000     0.8150     0.0000     30.000    943.000 225001.000     32.609    41.5367    66.0623   -43.6240    -1.9995     0.0009    26.0000     4.0000     9.0000    22.0000    26.0000    10.0000     5.0000    20.0000     3.0006     1.0000    -0.4995    20.7738    41.5367     1.9624    14.4503    14.4503     1.7043     0.0000     1.0000     0.0375     0.000
    115     1.0000     1.0000     0.8200     0.0000     30.000    915.000 225690.000     32.709    41.5367    66.1812   -43.7232    -1.9995     0.0009    26.0000     4.0000     9.0000    22.0000    26.0000    10.0000     5.0000    20.0000     3.0006     1.0000    -0.4994    20.7738    41.5368     1.9667    14.4503    14.4502     1.7043     0.0000     1.0000     0.0375     0.000
    116     1.0000     1.0000     0.8250     0.0000     30.000    975.000 223968.000     32.459    41.5367    66.2978   -43.8212    -1.9995     0.0009    26.0000     4.0000     9.0000    22.0000    26.0000    10.0000     5.0000    20.0000     3.0006     1.0000    -0.4995    20.7738    41.5368     1.9709    14.4503    14.4502     1.7043     0.0000     1.0000     0.0375     0.000
    117     1.0000     1.0000     0.8300     0.0000     30.000    965.000 225209.000     32.639    41.5367    66.4145   -43.9185    -1.9995     0.0009    26.0000     4.0000     9.0000    22.0000    26.0000    10.0000     5.0000    20.0000     3.0006     1.0000    -0.4995    20.7738    41.5368     1.9750    14.4503    14.4502     1.7042     0.0000     1.0000     0.0375     0.000
    118     1.0000     1.0000     0.8351     0.0001     30.000    919.000 225081.000     32.620    41.5367    66.5295   -44.0189    -1.9995     0.0009    26.0000     4.0000     9.0000    22.0000    26.0000    10.0000     5.0000    20.0000     3.0006     1.0000    -0.4995    20.7738    41.5368     1.9793    14.4503    14.4502     1.7042     0.0000     1.0000     0.0375     0.000
    119     1.0000     1.0000     0.8400     0.0000     30.000    957.000 224743.000     32.571    41.5367    66.6434   -44.1169    -1.9995     0.0009    26.0000     4.0000     9.0000    22.0000    26.0000    10.0000     5.0000    20.0000     3.0006     1.0000    -0.4995    20.7738    41.5368     1.9835    14.4503    14.4502     1.7042     0.0000     1.0000     0.0375     0.000
    120     1.0000     1.0000     0.8451     0.0000     30.000    932.000 225267.000     32.647    41.5367    66.7572   -44.2175    -1.9995     0.0009    26.0000     4.0000     9.0000    22.0000    26.0000    10.0000     5.0000    20.0000     3.0007     1.0000    -0.4990    20.7738    41.5368     1.9878    14.4503    14.4502     1.7042     0.0000     1.0000     0.0375     0.000
    121     1.0000     1.0000     0.8500     0.0000     30.000    942.000 224957.000     32.602    41.5367    66.8705   -44.3160    -1.9995     0.0009    26.0000     4.0000     9.0000    22.0000    26.0000    10.0000     5.0000    20.0000     3.0007     1.0000    -0.4993    20.7738    41.5367     1.9920    14.4503    14.4503     1.7042     0.0000     1.0000     0.0377     0.000
    122     1.0000     1.0000     0.8550     0.0001     30.000    966.000 224753.000     32.573    41.5367    66.9815   -44.4155    -1.9995     0.0009    26.0000     4.0000     9.0000    22.0000    26.0000    10.0000     5.0000    20.0000     3.0007     1.0000    -0.4995    20.7738    41.5368     1.9962    14.4503    14.4502     1.7042     0.0000     1.0000     0.0377     0.000
    123     1.0000     1.0000     0.8600     0.0000     30.000    943.000 225256.000     32.646    41.5367    67.0921   -44.5155    -1.9995     0.0009    26.0000     4.0000     9.0000    22.0000    26.0000    10.0000     5.0000    20.0000     3.0006     1.0000    -0.4995    20.7738    41.5368     2.0005    14.4503    14.4502     1.7042     0.0000     1.0000     0.0377     0.000
    124     1.0000     1.0000     0.8650     0.0000     30.000    926.000 225330.000     32.657    41.5367    67.2022   -44.6169    -1.9995     0.0009    26.0000     4.0000     9.0000    22.0000    26.0000    10.0000     5.0000    20.0000     3.0006     1.0000    -0.4995    20.7738    41.5367     2.0048    14.4503    14.4503     1.7042     0.0000     1.0000     0.0377     0.000
    125     0.9999     1.0000     0.8699     0.0000     30.000    932.000 224643.000     32.557    41.5367    67.3119   -44.7158    -1.9995     0.0009    26.0000     4.0000     9.0000    22.0000    26.0000    10.0000     5.0000    20.0000     3.0006     1.0000    -0.4995    20.7738    41.5368     2.0090    14.4503    14.4502     1.7042     0.0000     1.0000     0.0376     0.000
    126     1.0000     1.0000     0.8750     0.0000     30.000    960.000 225328.000     32.656    41.5367    67.4210   -44.8198    -1.9995     0.0009    26.0000     4.0000     9.0000    22.0000    26.0000    10.0000     5.0000    20.0000     3.0006     1.0000    -0.4994    20.7738    41.5367     2.0135    14.4503    14.4503     1.7042     0.0000     1.0000     0.0376     0.000
    127     1.0000     1.0000     0.8800     0.0000     30.000    958.000 225797.000     32.724    41.5367    67.5271   -44.9225    -1.9995     0.0009    26.0000     4.0000     9.0000    22.0000    26.0000    10.0000     5.0000    20.0000     3.0006     1.0000    -0.4995    20.7738    41.5367     2.0179    14.4503    14.4503     1.7042     0.0000     1.0000     0.0376     0.000
    128     1.0000     1.0000     0.8850     0.0000     30.000    871.000 224917.000     32.597    41.5367    67.6335   -45.0240    -1.9995     0.0009    26.0000     4.0000     9.0000    22.0000    26.0000    10.0000     5.0000    20.0000     3.0006     1.0000    -0.4992    20.7738    41.5368     2.0222    14.4503    14.4502     1.7042     0.0000     1.0000     0.0377     0.000
    129     1.0000     1.0000     0.8900     0.0001     30.000    918.000 225409.000     32.668    41.5367    67.7395   -45.1281    -1.9995     0.0009    26.0000     4.0000     9.0000    22.0000    26.0000    10.0000     5.0000    20.0000     3.0007     1.0000    -0.4993    20.7738    41.5368     2.0266    14.4503    14.4502     1.7041     0.0000     1.0000     0.0377     0.000
    130     1.0000     1.0000     0.8950     0.0000     30.000    898.000 223520.000     32.394    41.5367    67.8438   -45.2308    -1.9995     0.0009    26.0000     4.0000     9.0000    22.0000    26.0000    10.0000     5.0000    20.0000     3.0007     1.0000    -0.4993    20.7738    41.5368     2.0310    14.4503    14.4502     1.7042     0.0000     1.0000     0.0375     0.000
    131     1.0000     1.0000     0.9000     0.0001     30.000    924.000 224614.000     32.553    41.5367    67.9472   -45.3345    -1.9995     0.0009    26.0000     4.0000     9.0000    22.0000    26.0000    10.0000     5.0000    20.0000     3.0007     1.0000    -0.4994    20.7738    41.5368     2.0354    14.4503    14.4502     1.7041     0.0000     1.0000     0.0375     0.000
    132     1.0000     1.0000     0.9050     0.0000     30.000    944.000 224380.000     32.519    41.5367    68.0508   -45.4391    -1.9995     0.0009    26.0000     4.0000     9.0000    22.0000    26.0000    10.0000     5.0000    20.0000     3.0006     1.0000    -0.4995    20.7738    41.5368     2.0398    14.4503    14.4502     1.7042     0.0000     1.0000     0.0375     0.000
    133     1.0000     1.0000     0.9101     0.0000     30.000    938.000 224703.000     32.566    41.5367    68.1543   -45.5444    -1.9995     0.0009    26.0000     4.0000     9.0000    22.0000    26.0000    10.0000     5.0000    20.0000     3.0007     1.0000    -0.4991    20.7738    41.5368     2.0443    14.4503    14.4502     1.7041     0.0000     1.0000     0.0375     0.000
    134     1.0000     1.0000     0.9150     0.0001     30.000    917.000 224836.000     32.585    41.5367    68.2551   -45.6485    -1.9995     0.0009    26.0000     4.0000     9.0000    22.0000    26.0000    10.0000     5.0000    20.0000     3.0007     1.0000    -0.4991    20.7738    41.5368     2.0487    14.4503    14.4502     1.7042     0.0000     1.0000     0.0375     0.000
    135     1.0000     1.0000     0.9201     0.0000     30.000    966.000 225664.000     32.705    41.5367    68.3537   -45.7562    -1.9995     0.0009    26.0000     4.0000     9.0000    22.0000    26.0000    10.0000     5.0000    20.0000     3.0007     1.0000    -0.4992    20.7738    41.5368     2.0533    14.4503    14.4502     1.7041     0.0000     1.0000     0.0375     0.000
    136     1.0000     1.0000     0.9250     0.0001     30.000    923.000 225790.000     32.723    41.5367    68.4542   -45.8602    -1.9995     0.0009    26.0000     4.0000     9.0000    22.0000    26.0000    10.0000     5.0000    20.0000     3.0006     1.0000    -0.4995    20.7738    41.5368     2.0577    14.4503    14.4502     1.7041     0.0000     1.0000     0.0377     0.000
    137     1.0000     1.0000     0.9300     0.0001     30.000    844.000 225610.000     32.697    41.5367    68.5520   -45.9666    -1.9995     0.0009    26.0000     4.0000     9.0000    22.0000    26.0000    10.0000     5.0000    20.0000     3.0006     1.0000    -0.4995    20.7738    41.5368     2.0622    14.4503    14.4502     1.7041     0.0000     1.0000     0.0376     0.000
    138     1.0000     1.0000     0.9350     0.0001     30.000    938.000 224531.000     32.541    41.5367    68.6512   -46.0720    -1.9995     0.0009    26.0000     4.0000     9.0000    22.0000    26.0000    10.0000     5.0000    20.0000     3.0007     1.0000    -0.4991    20.7738    41.5368     2.0667    14.4503    14.4502     1.7041     0.0000     1.0000     0.0376     0.000
    139     1.0000     1.0000     0.9399     0.0001     30.000    933.000 225012.000     32.610    41.5367    68.7460   -46.1766    -1.9995     0.0009    26.0000     4.0000     9.0000    22.0000    26.0000    10.0000     5.0000    20.0000     3.0006     1.0000    -0.4994    20.7738    41.5368     2.0711    14.4503    14.4502     1.7041     0.0000     1.0000     0.0375     0.000
    140     1.0000     1.0000     0.9450     0.0001     30.000    909.000 225468.000     32.677    41.5367    68.8423   -46.2854    -1.9995     0.0009    26.0000     4.0000     9.0000    22.0000    26.0000    10.0000     5.0000    20.0000     3.0007     1.0000    -0.4993    20.7738    41.5368     2.0758    14.4503    14.4502     1.7041     0.0000     1.0000     0.0375     0.000
    141     1.0000     1.0000     0.9499     0.0001     30.000    911.000 225562.000     32.690    41.5367    68.9377   -46.3916    -1.9995     0.0009    26.0000     4.0000     9.0000    22.0000    26.0000    10.0000     5.0000    20.0000     3.0006     1.0000    -0.4991    20.7738    41.5368     2.0803    14.4503    14.4502     1.7042     0.0000     1.0000     0.0376     0.000
    142     1.0000     1.0000     0.9549     0.0001     30.000    959.000 224959.000     32.603    41.5367    69.0319   -46.4997    -1.9995     0.0009    26.0000     4.0000     9.0000    22.0000    26.0000    10.0000     5.0000    20.0000     3.0007     1.0000    -0.4994    20.7738    41.5368     2.0848    14.4503    14.4502     1.7041     0.0000     1.0000     0.0376     0.000
    143     1.0000     1.0000     0.9600     0.0001     30.000    991.000 225667.000     32.705    41.5367    69.1257   -46.6099    -1.9995     0.0009    26.0000     4.0000     9.0000    22.0000    26.0000    10.0000     5.0000    20.0000     3.0007     1.0000    -0.4992    20.7738    41.5368     2.0895    14.4503    14.4502     1.7041     0.0000     1.0000     0.0376     0.000
    144     1.0000     1.0000     0.9650     0.0001     30.000   1090.000 225792.000     32.723    41.5367    69.2192   -46.7182    -1.9995     0.0009    26.0000     4.0000     9.0000    22.0000    26.0000    10.0000     5.0000    20.0000     3.0006     1.0000    -0.4994    20.7738    41.5368     2.0941    14.4503    14.4502     1.7040     0.0000     1.0000     0.0376     0.000
    145     1.0000     1.0000     0.9700     0.0001     30.000   1434.000 224201.000     32.493    41.5367    69.3108   -46.8272    -1.9995     0.0009    26.0000     4.0000     9.0000    22.0000    26.0000    10.0000     5.0000    20.0000     3.0007     1.0000    -0.4992    20.7738    41.5368     2.0987    14.4503    14.4502     1.7040     0.0000     1.0000     0.0376     0.000
    146     1.0000     1.0000     0.9750     0.0001     30.000   2237.000 224459.000     32.530    41.5367    69.4012   -46.9377    -1.9995     0.0009    26.0000     4.0000     9.0000    22.0000    26.0000    10.0000     5.0000    20.0000     3.0006     1.0000    -0.4995    20.7738    41.5368     2.1034    14.4503    14.4502     1.7039     0.0000     1.0000     0.0376     0.000
    147     1.0000     1.0000     0.9800     0.0001     30.000   6018.000 225520.000     32.684    41.5367    69.4918   -47.0470    -1.9995     0.0009    26.0000     4.0000     9.0000    22.0000    26.0000    10.0000     5.0000    20.0000     3.0006     1.0000    -0.4994    20.7738    41.5368     2.1080    14.4503    14.4502     1.7039     0.0000     1.0000     0.0376     0.000
    148     1.0000     1.0000     0.9850     0.0001     30.000  27366.000 225208.000     32.639    41.5367    69.5812   -47.1590    -1.9995     0.0009    26.0000     4.0000     9.0000    22.0000    26.0000    10.0000     5.0000    20.0000     3.0006     1.0000    -0.4992    20.7738    41.5368     2.1127    14.4503    14.4502     1.7039     0.0000     1.0000     0.0376     0.000
    149     1.0000     1.0000     0.9901     0.0001     30.000 130936.000 224021.000     32.467    41.5367    69.6707   -47.2696    -1.9995     0.0009    26.0000     4.0000     9.0000    22.0000    26.0000    10.0000     5.0000    20.0000     3.0007     1.0000    -0.4992    20.7738    41.5368     2.1174    14.4503    14.4502     1.7039     0.0000     1.0000     0.0376     0.000
    150     1.0000     1.0000     0.9950     0.0001     30.000 523888.000 224964.000     32.603    41.5367    69.7573   -47.3802    -1.9995     0.0009    26.0000     4.0000     9.0000    22.0000    26.0000    10.0000     5.0000    20.0000     3.0006     1.0000    -0.4992    20.7738    41.5368     2.1221    14.4503    14.4502     1.7040     0.0000     1.0000     0.0376     0.000
    151     1.0000     1.0000     1.0000     0.0000     30.000 1242535.000 225340.000     32.658    41.5367    69.8445   -47.4914    -1.9995     0.0009    26.0000     4.0000     9.0000    22.0000    26.0000    10.0000     5.0000    20.0000     3.0006     1.0000    -0.4994    20.7738    41.5368     2.1268    14.4503    14.4502     1.7040     0.0000     1.0000     0.0376     0.000
    152     1.0000     1.0000     1.0050     0.0001     30.000 1208307.000 224569.000     32.546    41.5367    69.9307   -47.6025    -1.9995     0.0009    26.0000     4.0000     9.0000    22.0000    26.0000    10.0000     5.0000    20.0000     3.0006     1.0000    -0.4994    20.7738    41.5368     2.1314    14.4503    14.4502     1.7040     0.0000     1.0000     0.0375     0.000
    153     1.0000     1.0000     1.0099     0.0000     30.000 416549.000 224430.000     32.526    41.5367    70.0155   -47.7122    -1.9995     0.0009    26.0000     4.0000     9.0000    22.0000    26.0000    10.0000     5.0000    20.0000     3.0007     1.0000    -0.4992    20.7738    41.5368     2.1361    14.4503    14.4502     1.7040     0.0000     1.0000     0.0375     0.000
    154     1.0000     1.0000     1.0150     0.0000     30.000  52747.000 224659.000     32.559    41.5367    70.1005   -47.8254    -1.9995     0.0009    26.0000     4.0000     9.0000    22.0000    26.0000    10.0000     5.0000    20.0000     3.0006     1.0000    -0.4994    20.7738    41.5368     2.1408    14.4503    14.4502     1.7039     0.0000     1.0000     0.0378     0.000
    155     0.9999     1.0000     1.0200     0.0001     30.000   6056.000 224666.000     32.560    41.5367    70.1848   -47.9369    -1.9995     0.0009    26.0000     4.0000     9.0000    22.0000    26.0000    10.0000     5.0000    20.0000     3.0007     1.0000    -0.4991    20.7738    41.5368     2.1455    14.4503    14.4502     1.7039     0.0000     1.0000     0.0377     0.000
    156     1.0000     1.0000     1.0250     0.0001     30.000   2070.000 223526.000     32.395    41.5367    70.2668   -48.0507    -1.9995     0.0009    26.0000     4.0000     9.0000    22.0000    26.0000    10.0000     5.0000    20.0000     3.0006     1.0000    -0.4993    20.7738    41.5368     2.1503    14.4503    14.4502     1.7040     0.0000     1.0000     0.0377     0.000
    157     1.0000     1.0000     1.0300     0.0001     30.000   1380.000 224716.000     32.568    41.5367    70.3498   -48.1646    -1.9995     0.0009    26.0000     4.0000     9.0000    22.0000    26.0000    10.0000     5.0000    20.0000     3.0007     1.0000    -0.4992    20.7738    41.5368     2.1551    14.4503    14.4502     1.7039     0.0000     1.0000     0.0376     0.000
    158     1.0000     1.0000     1.0350     0.0001     30.000   1081.000 224390.000     32.520    41.5367    70.4307   -48.2784    -1.9995     0.0009    26.0000     4.0000     9.0000    22.0000    26.0000    10.0000     5.0000    20.0000     3.0006     1.0000    -0.4994    20.7738    41.5368     2.1599    14.4503    14.4502     1.7039     0.0000     1.0000     0.0376     0.000
    159     1.0000     1.0000     1.0400     0.0001     30.000    971.000 224602.000     32.551    41.5367    70.5109   -48.3929    -1.9995     0.0009    26.0000     4.0000     9.0000    22.0000    26.0000    10.0000     5.0000    20.0000     3.0006     1.0000    -0.4994    20.7738    41.5368     2.1647    14.4503    14.4502     1.7039     0.0000     1.0000     0.0376     0.000
    160     1.0000     1.0000     1.0450     0.0000     30.000    992.000 225883.000     32.737    41.5367    70.5911   -48.5077    -1.9995     0.0009    26.0000     4.0000     9.0000    22.0000    26.0000    10.0000     5.0000    20.0000     3.0006     1.0000    -0.4995    20.7738    41.5368     2.1696    14.4503    14.4502     1.7039     0.0000     1.0000     0.0376     0.000
    161     1.0000     1.0000     1.0500     0.0000     30.000    913.000 224295.000     32.507    41.5367    70.6708   -48.6235    -1.9995     0.0009    26.0000     4.0000     9.0000    22.0000    26.0000    10.0000     5.0000    20.0000     3.0007     1.0000    -0.4990    20.7738    41.5368     2.1744    14.4503    14.4502     1.7040     0.0000     1.0000     0.0377     0.000
    162     1.0000     1.0000     1.0551     0.0001     30.000    978.000 225209.000     32.639    41.5367    70.7491   -48.7390    -1.9995     0.0009    26.0000     4.0000     9.0000    22.0000    26.0000    10.0000     5.0000    20.0000     3.0007     1.0000    -0.4991    20.7737    41.5368     2.1793    14.4503    14.4502     1.7040     0.0000     1.0000     0.0377     0.000
    163     1.0000     1.0000     1.0601     0.0001     30.000    977.000 225336.000     32.657    41.5367    70.8254   -48.8556    -1.9995     0.0009    26.0000     4.0000     9.0000    22.0000    26.0000    10.0000     5.0000    20.0000     3.0006     1.0000    -0.4994    20.7738    41.5368     2.1842    14.4503    14.4502     1.7039     0.0000     1.0000     0.0376     0.000
    164     1.0000     1.0000     1.0651     0.0001     30.000    904.000 224442.000     32.528    41.5367    70.9017   -48.9715    -1.9995     0.0009    26.0000     4.0000     9.0000    22.0000    26.0000    10.0000     5.0000    20.0000     3.0007     1.0000    -0.4992    20.7738    41.5368     2.1890    14.4503    14.4502     1.7040     0.0000     1.0000     0.0378     0.000
    165     1.0000     1.0000     1.0701     0.0001     30.000    909.000 223554.000     32.399    41.5367    70.9789   -49.0880    -1.9995     0.0009    26.0000     4.0000     9.0000    22.0000    26.0000    10.0000     5.0000    20.0000     3.0007     1.0000    -0.4992    20.7738    41.5368     2.1939    14.4503    14.4502     1.7040     0.0000     1.0000     0.0378     0.000
    166     1.0000     1.0000     1.0751     0.0000     30.000    930.000 224760.000     32.574    41.5367    71.0542   -49.2036    -1.9995     0.0009    26.0000     4.0000     9.0000    22.0000    26.0000    10.0000     5.0000    20.0000     3.0007     1.0000    -0.4992    20.7738    41.5367     2.1988    14.4503    14.4503     1.7039     0.0000     1.0000     0.0377     0.000
    167     1.0000     1.0000     1.0801     0.0000     30.000    960.000 223264.000     32.357    41.5367    71.1292   -49.3201    -1.9995     0.0009    26.0000     4.0000     9.0000    22.0000    26.0000    10.0000     5.0000    20.0000     3.0006     1.0000    -0.4994    20.7738    41.5368     2.2036    14.4503    14.4502     1.7039     0.0000     1.0000     0.0377     0.000
    168     1.0000     1.0000     1.0850     0.0001     30.000    876.000 224002.000     32.464    41.5367    71.2009   -49.4362    -1.9995     0.0009    26.0000     4.0000     9.0000    22.0000    26.0000    10.0000     5.0000    20.0000     3.0007     1.0000    -0.4992    20.7738    41.5368     2.2085    14.4503    14.4502     1.7039     0.0000     1.0000     0.0377     0.000
    169     1.0000     1.0000     1.0900     0.0000     30.000    946.000 225286.000     32.650    41.5367    71.2745   -49.5532    -1.9995     0.0009    26.0000     4.0000     9.0000    22.0000    26.0000    10.0000     5.0000    20.0000     3.0007     1.0000    -0.4992    20.7738    41.5367     2.2134    14.4503    14.4503     1.7039     0.0000     1.0000     0.0377     0.000
    170     1.0000     1.0000     1.0949     0.0000     30.000   1005.000 223687.000     32.418    41.5367    71.3454   -49.6696    -1.9995     0.0009    26.0000     4.0000     9.0000    22.0000    26.0000    10.0000     5.0000    20.0000     3.0006     1.0000    -0.4992    20.7738    41.5367     2.2183    14.4503    14.4503     1.7039     0.0000     1.0000     0.0376     0.000
    171     0.9999     1.0000     1.1000     0.0000     30.000    914.000 223871.000     32.445    41.5367    71.4200   -49.7883    -1.9995     0.0009    26.0000     4.0000     9.0000    22.0000    26.0000    10.0000     5.0000    20.0000     3.0006     1.0000    -0.4994    20.7738    41.5367     2.2232    14.4503    14.4503     1.7039     0.0000     1.0000     0.0376     0.000
    172     0.9999     1.0000     1.1050     0.0000     30.000    924.000 223955.000     32.457    41.5367    71.4910   -49.9069    -1.9995     0.0009    26.0000     4.0000     9.0000    22.0000    26.0000    10.0000     5.0000    20.0000     3.0006     1.0000    -0.4994    20.7738    41.5368     2.2282    14.4503    14.4502     1.7038     0.0000     1.0000     0.0376     0.000
    173     1.0000     1.0000     1.1100     0.0000     30.000    949.000 224895.000     32.593    41.5367    71.5589   -50.0259    -1.9995     0.0009    26.0000     4.0000     9.0000    22.0000    26.0000    10.0000     5.0000    20.0000     3.0007     1.0000    -0.4993    20.7738    41.5368     2.2332    14.4503    14.4502     1.7038     0.0000     1.0000     0.0377     0.000
    174     1.0000     1.0000     1.1150     0.0000     30.000    948.000 223488.000     32.390    41.5367    71.6272   -50.1452    -1.9995     0.0009    26.0000     4.0000     9.0000    22.0000    26.0000    10.0000     5.0000    20.0000     3.0006     1.0000    -0.4995    20.7738    41.5367     2.2381    14.4503    14.4503     1.7038     0.0000     1.0000     0.0377     0.000
    175     1.0000     1.0000     1.1200     0.0000     30.000    946.000 223896.000     32.449    41.5367    71.6958   -50.2646    -1.9995     0.0009    26.0000     4.0000     9.0000    22.0000    26.0000    10.0000     5.0000    20.0000     3.0007     1.0000    -0.4993    20.7738    41.5367     2.2431    14.4503    14.4503     1.7036     0.0000     1.0000     0.0376     0.000
    176     1.0000     1.0000     1.1250     0.0000     30.000    939.000 223614.000     32.408    41.5367    71.7634   -50.3867    -1.9995     0.0009    26.0000     4.0000     9.0000    22.0000    26.0000    10.0000     5.0000    20.0000     3.0007     1.0000    -0.4994    20.7738    41.5367     2.2482    14.4503    14.4503     1.7036     0.0000     1.0000     0.0376     0.000
    177     1.0000     1.0000     1.1300     0.0001     30.000    916.000 223822.000     32.438    41.5367    71.8309   -50.5067    -1.9995     0.0009    26.0000     4.0000     9.0000    22.0000    26.0000    10.0000     5.0000    20.0000     3.0006     1.0000    -0.4994    20.7738    41.5368     2.2532    14.4503    14.4502     1.7036     0.0000     1.0000     0.0375     0.000
    178     1.0000     1.0000     1.1351     0.0000     30.000    913.000 223982.000     32.461    41.5367    71.8987   -50.6275    -1.9995     0.0009    26.0000     4.0000     9.0000    22.0000    26.0000    10.0000     5.0000    20.0000     3.0006     1.0000    -0.4994    20.7737    41.5368     2.2583    14.4503    14.4502     1.7037     0.0000     1.0000     0.0375     0.000
    179     1.0000     1.0000     1.1401     0.0000     30.000    901.000 223860.000     32.443    41.5367    71.9615   -50.7495    -1.9995     0.0009    26.0000     4.0000     9.0000    22.0000    26.0000    10.0000     5.0000    20.0000     3.0007     1.0000    -0.4993    20.7738    41.5367     2.2633    14.4503    14.4503     1.7037     0.0000     1.0000     0.0377     0.000
    180     1.0000     1.0000     1.1451     0.0000     30.000    989.000 225197.000     32.637    41.5367    72.0290   -50.8683    -1.9995     0.0009    26.0000     4.0000     9.0000    22.0000    26.0000    10.0000     5.0000    20.0000     3.0007     1.0000    -0.4994    20.7738    41.5367     2.2683    14.4503    14.4503     1.7037     0.0000     1.0000     0.0377     0.000
    181     1.0000     1.0000     1.1500     0.0000     30.000    997.000 225426.000     32.670    41.5367    72.0902   -50.9915    -1.9995     0.0009    26.0000     4.0000     9.0000    22.0000    26.0000    10.0000     5.0000    20.0000     3.0006     1.0000    -0.4994    20.7738    41.5367     2.2734    14.4503    14.4503     1.7037     0.0000     1.0000     0.0377     0.000
    182     1.0000     1.0000     1.1550     0.0000     30.000    916.000 225290.000     32.651    41.5367    72.1544   -51.1106    -1.9995     0.0009    26.0000     4.0000     9.0000    22.0000    26.0000    10.0000     5.0000    20.0000     3.0007     1.0000    -0.4993    20.7738    41.5367     2.2784    14.4503    14.4503     1.7037     0.0000     1.0000     0.0376     0.000
    183     1.0000     1.0000     1.1600     0.0000     30.000    968.000 225873.000     32.735    41.5367    72.2174   -51.2328    -1.9995     0.0009    26.0000     4.0000     9.0000    22.0000    26.0000    10.0000     5.0000    20.0000     3.0006     1.0000    -0.4993    20.7738    41.5367     2.2834    14.4503    14.4503     1.7037     0.0000     1.0000     0.0376     0.000
    184     0.9999     0.9999     1.1650     0.0000     30.000    944.000 225225.000     32.641    41.5367    72.2820   -51.3548    -1.9995     0.0009    26.0000     4.0000     9.0000    22.0000    26.0000    10.0000     5.0000    20.0000     3.0006     1.0000    -0.4992    20.7738    41.5367     2.2885    14.4503    14.4503     1.7037     0.0000     1.0000     0.0375     0.000
    185     0.9999     0.9999     1.1701     0.0000     30.000    982.000 224213.000     32.495    41.5367    72.3442   -51.4787    -1.9995     0.0009    26.0000     4.0000     9.0000    22.0000    26.0000    10.0000     5.0000    20.0000     3.0006     1.0000    -0.4992    20.7738    41.5367     2.2937    14.4503    14.4503     1.7037     0.0000     1.0000     0.0375     0.000
    186     0.9999     1.0000     1.1751     0.0000     30.000    933.000 224539.000     32.542    41.5367    72.4041   -51.6014    -1.9995     0.0009    26.0000     4.0000     9.0000    22.0000    26.0000    10.0000     5.0000    20.0000     3.0007     1.0000    -0.4993    20.7738    41.5367     2.2987    14.4503    14.4503     1.7036     0.0000     1.0000     0.0376     0.000
    187     0.9999     0.9999     1.1800     0.0000     30.000    991.000 224093.000     32.477    41.5367    72.4639   -51.7241    -1.9995     0.0009    26.0000     4.0000     9.0000    22.0000    26.0000    10.0000     5.0000    20.0000     3.0006     1.0000    -0.4994    20.7738    41.5367     2.3038    14.4503    14.4503     1.7036     0.0000     1.0000     0.0376     0.000
    188     1.0000     1.0000     1.1850     0.0000     30.000    980.000 225601.000     32.696    41.5367    72.5191   -51.8478    -1.9995     0.0009    26.0000     4.0000     9.0000    22.0000    26.0000    10.0000     5.0000    20.0000     3.0006     1.0000    -0.4995    20.7738    41.5367     2.3090    14.4503    14.4503     1.7036     0.0000     1.0000     0.0376     0.000
    189     0.9999     1.0000     1.1901     0.0000     30.000    965.000 225052.000     32.616    41.5367    72.5811   -51.9724    -1.9995     0.0009    26.0000     4.0000     9.0000    22.0000    26.0000    10.0000     5.0000    20.0000     3.0006     1.0000    -0.4994    20.7738    41.5367     2.3141    14.4503    14.4503     1.7036     0.0000     1.0000     0.0376     0.000
    190     1.0000     1.0000     1.1950     0.0000     30.000    941.000 224561.000     32.545    41.5367    72.6364   -52.0979    -1.9995     0.0009    26.0000     4.0000     9.0000    22.0000    26.0000    10.0000     5.0000    20.0000     3.0006     1.0000    -0.4991    20.7738    41.5367     2.3193    14.4503    14.4503     1.7037     0.0000     1.0000     0.0375     0.000
    191     1.0000     1.0000     1.2001     0.0000     30.000    973.000 224737.000     32.571    41.5367    72.6947   -52.2226    -1.9995     0.0009    26.0000     4.0000     9.0000    22.0000    26.0000    10.0000     5.0000    20.0000     3.0006     1.0000    -0.4994    20.7738    41.5367     2.3245    14.4503    14.4503     1.7036     0.0000     1.0000     0.0375     0.000
    192     1.0000     1.0000     1.2051     0.0000     30.000   1009.000 224447.000     32.529    41.5367    72.7502   -52.3474    -1.9995     0.0009    26.0000     4.0000     9.0000    22.0000    26.0000    10.0000     5.0000    20.0000     3.0006     1.0000    -0.4994    20.7738    41.5367     2.3297    14.4503    14.4503     1.7036     0.0000     1.0000     0.0375     0.000
    193     1.0000     1.0000     1.2101     0.0000     30.000    949.000 225046.000     32.615    41.5367    72.8058   -52.4726    -1.9995     0.0009    26.0000     4.0000     9.0000    22.0000    26.0000    10.0000     5.0000    20.0000     3.0006     1.0000    -0.4994    20.7738    41.5367     2.3348    14.4503    14.4503     1.7036     0.0000     1.0000     0.0375     0.000
    194     1.0000     1.0000     1.2150     0.0000     30.000    957.000 224983.000     32.606    41.5367    72.8603   -52.5969    -1.9995     0.0009    26.0000     4.0000     9.0000    22.0000    26.0000    10.0000     5.0000    20.0000     3.0006     1.0000    -0.4995    20.7738    41.5367     2.3400    14.4503    14.4503     1.7036     0.0000     1.0000     0.0375     0.000
    195     1.0000     1.0000     1.2200     0.0000     30.000   1005.000 224989.000     32.607    41.5367    72.9145   -52.7217    -1.9995     0.0009    26.0000     4.0000     9.0000    22.0000    26.0000    10.0000     5.0000    20.0000     3.0006     1.0000    -0.4994    20.7738    41.5367     2.3451    14.4503    14.4503     1.7035     0.0000     1.0000     0.0375     0.000
    196     0.9999     1.0000     1.2250     0.0000     30.000    982.000 225216.000     32.640    41.5367    72.9693   -52.8470    -1.9995     0.0009    26.0000     4.0000     9.0000    22.0000    26.0000    10.0000     5.0000    20.0000     3.0006     1.0000    -0.4991    20.7738    41.5367     2.3503    14.4503    14.4503     1.7035     0.0000     1.0000     0.0375     0.000
    197     1.0000     1.0000     1.2299     0.0000     30.000   1001.000 224314.000     32.509    41.5367    73.0213   -52.9725    -1.9995     0.0009    26.0000     4.0000     9.0000    22.0000    26.0000    10.0000     5.0000    20.0000     3.0006     1.0000    -0.4995    20.7738    41.5367     2.3555    14.4503    14.4503     1.7035     0.0000     1.0000     0.0375     0.000
    198     0.9999     1.0000     1.2350     0.0000     30.000   1064.000 224249.000     32.500    41.5367    73.0762   -53.1014    -1.9995     0.0009    26.0000     4.0000     9.0000    22.0000    26.0000    10.0000     5.0000    20.0000     3.0006     1.0000    -0.4992    20.7738    41.5367     2.3608    14.4503    14.4503     1.7035     0.0000     1.0000     0.0375     0.000
    199     1.0000     1.0000     1.2400     0.0000     30.000   1055.000 225172.000     32.634    41.5367    73.1268   -53.2292    -1.9995     0.0009    26.0000     4.0000     9.0000    22.0000    26.0000    10.0000     5.0000    20.0000     3.0006     1.0000    -0.4995    20.7738    41.5367     2.3661    14.4503    14.4503     1.7035     0.0000     1.0000     0.0375     0.000
    200     1.0000     1.0000     1.2450     0.0000     30.000   1087.000 224897.000     32.594    41.5367    73.1776   -53.3566    -1.9995     0.0009    26.0000     4.0000     9.0000    22.0000    26.0000    10.0000     5.0000    20.0000     3.0006     1.0000    -0.4992    20.7738    41.5367     2.3713    14.4503    14.4503     1.7035     0.0000     1.0000     0.0375     0.000
    201     0.9999     1.0000     1.2500     0.0000     30.000   1092.000 224706.000     32.566    41.5367    73.2284   -53.4818    -1.9995     0.0009    26.0000     4.0000     9.0000    22.0000    26.0000    10.0000     5.0000    20.0000     3.0007     1.0000    -0.4992    20.7738    41.5367     2.3765    14.4503    14.4503     1.7035     0.0000     1.0000     0.0375     0.000
    202     1.0000     1.0000     1.2550     0.0000     30.000   1143.000 224992.000     32.608    41.5367    73.2772   -53.6120    -1.9995     0.0009    26.0000     4.0000     9.0000    22.0000    26.0000    10.0000     5.0000    20.0000     3.0006     1.0000    -0.4992    20.7738    41.5367     2.3818    14.4503    14.4503     1.7035     0.0000     1.0000     0.0374     0.000
    203     1.0000     1.0000     1.2601     0.0000     30.000   1144.000 225665.000     32.705    41.5367    73.3270   -53.7420    -1.9995     0.0009    26.0000     4.0000     9.0000    22.0000    26.0000    10.0000     5.0000    20.0000     3.0006     1.0000    -0.4992    20.7738    41.5367     2.3872    14.4503    14.4503     1.7034     0.0000     1.0000     0.0374     0.000
    204     1.0000     1.0000     1.2650     0.0000     30.000   1120.000 224386.000     32.520    41.5367    73.3728   -53.8693    -1.9995     0.0009    26.0000     4.0000     9.0000    22.0000    26.0000    10.0000     5.0000    20.0000     3.0006     1.0000    -0.4992    20.7738    41.5367     2.3924    14.4503    14.4503     1.7034     0.0000     1.0000     0.0375     0.000
    205     1.0000     1.0000     1.2701     0.0000     30.000   1169.000 224192.000     32.492    41.5367    73.4223   -53.9991    -1.9995     0.0009    26.0000     4.0000     9.0000    22.0000    26.0000    10.0000     5.0000    20.0000     3.0006     1.0000    -0.4992    20.7738    41.5367     2.3977    14.4503    14.4503     1.7034     0.0000     1.0000     0.0375     0.000
    206     1.0000     1.0000     1.2751     0.0000     30.000   1247.000 223950.000     32.457    41.5367    73.4694   -54.1296    -1.9995     0.0009    26.0000     4.0000     9.0000    22.0000    26.0000    10.0000     5.0000    20.0000     3.0006     1.0000    -0.4994    20.7738    41.5367     2.4031    14.4503    14.4503     1.7034     0.0000     1.0000     0.0375     0.000
    207     0.9999     0.9999     1.2800     0.0000     30.000   1201.000 224150.000     32.486    41.5367    73.5185   -54.2543    -1.9995     0.0009    26.0000     4.0000     9.0000    22.0000    26.0000    10.0000     5.0000    20.0000     3.0006     1.0000    -0.4992    20.7738    41.5367     2.4082    14.4503    14.4503     1.7034     0.0000     1.0000     0.0375     0.000
    208     0.9999     1.0000     1.2850     0.0000     30.000   1255.000 224516.000     32.539    41.5367    73.5628   -54.3853    -1.9995     0.0009    26.0000     4.0000     9.0000    22.0000    26.0000    10.0000     5.0000    20.0000     3.0006     1.0000    -0.4992    20.7738    41.5367     2.4136    14.4503    14.4503     1.7034     0.0000     1.0000     0.0376     0.000
    209     0.9999     1.0000     1.2900     0.0000     30.000   1229.000 224754.000     32.573    41.5367    73.6077   -54.5138    -1.9995     0.0009    26.0000     4.0000     9.0000    22.0000    26.0000    10.0000     5.0000    20.0000     3.0006     1.0000    -0.4992    20.7738    41.5367     2.4188    14.4503    14.4503     1.7034     0.0000     1.0000     0.0376     0.000
    210     0.9999     1.0000     1.2950     0.0000     30.000   1224.000 224690.000     32.564    41.5367    73.6523   -54.6453    -1.9995     0.0009    26.0000     4.0000     9.0000    22.0000    26.0000    10.0000     5.0000    20.0000     3.0006     1.0000    -0.4994    20.7738    41.5367     2.4242    14.4503    14.4503     1.7034     0.0000     1.0000     0.0375     0.000
    211     0.9999     1.0000     1.3000     0.0000     30.000   1328.000 224286.000     32.505    41.5367    73.6967   -54.7757    -1.9995     0.0009    26.0000     4.0000     9.0000    22.0000    26.0000    10.0000     5.0000    20.0000     3.0006     1.0000    -0.4991    20.7738    41.5367     2.4296    14.4503    14.4503     1.7034     0.0000     1.0000     0.0375     0.000
    212     1.0000     1.0000     1.3050     0.0000     30.000   1264.000 224190.000     32.491    41.5367    73.7393   -54.9077    -1.9995     0.0009    26.0000     4.0000     9.0000    22.0000    26.0000    10.0000     5.0000    20.0000     3.0006     1.0000    -0.4994    20.7738    41.5367     2.4350    14.4503    14.4503     1.7034     0.0000     1.0000     0.0375     0.000
    213     0.9999     1.0000     1.3101     0.0000     30.000   1275.000 224168.000     32.488    41.5367    73.7827   -55.0396    -1.9995     0.0009    26.0000     4.0000     9.0000    22.0000    26.0000    10.0000     5.0000    20.0000     3.0006     1.0000    -0.4992    20.7738    41.5367     2.4404    14.4503    14.4503     1.7034     0.0000     1.0000     0.0377     0.000
    214     1.0000     1.0000     1.3150     0.0000     30.000   1359.000 224163.000     32.487    41.5367    73.8236   -55.1716    -1.9995     0.0009    26.0000     4.0000     9.0000    22.0000    26.0000    10.0000     5.0000    20.0000     3.0007     1.0000    -0.4994    20.7738    41.5367     2.4458    14.4503    14.4503     1.7033     0.0000     1.0000     0.0377     0.000
    215     1.0000     1.0000     1.3201     0.0000     30.000   1336.000 224067.000     32.473    41.5367    73.8646   -55.3042    -1.9995     0.0009    26.0000     4.0000     9.0000    22.0000    26.0000    10.0000     5.0000    20.0000     3.0006     1.0000    -0.4992    20.7738    41.5367     2.4512    14.4503    14.4503     1.7034     0.0000     1.0000     0.0378     0.000
    216     1.0000     1.0000     1.3251     0.0000     30.000   1297.000 224488.000     32.534    41.5367    73.9057   -55.4376    -1.9995     0.0009    26.0000     4.0000     9.0000    22.0000    26.0000    10.0000     5.0000    20.0000     3.0006     1.0000    -0.4994    20.7738    41.5367     2.4566    14.4503    14.4503     1.7034     0.0000     1.0000     0.0378     0.000
    217     1.0000     1.0000     1.3301     0.0000     30.000   1381.000 224256.000     32.501    41.5367    73.9462   -55.5689    -1.9995     0.0009    26.0000     4.0000     9.0000    22.0000    26.0000    10.0000     5.0000    20.0000     3.0006     1.0000    -0.4994    20.7738    41.5367     2.4620    14.4503    14.4503     1.7035     0.0000     1.0000     0.0376     0.000
    218     1.0000     1.0000     1.3351     0.0000     30.000   1356.000 223703.000     32.421    41.5367    73.9860   -55.7033    -1.9995     0.0009    26.0000     4.0000     9.0000    22.0000    26.0000    10.0000     5.0000    20.0000     3.0007     1.0000    -0.4994    20.7737    41.5367     2.4674    14.4503    14.4503     1.7035     0.0000     1.0000     0.0376     0.000
    219     0.9999     1.0000     1.3401     0.0000     30.000   1407.000 223631.000     32.410    41.5367    74.0263   -55.8335    -1.9995     0.0009    26.0000     4.0000     9.0000    22.0000    26.0000    10.0000     5.0000    20.0000     3.0006     1.0000    -0.4995    20.7738    41.5367     2.4728    14.4503    14.4503     1.7034     0.0000     1.0000     0.0376     0.000
    220     0.9999     1.0000     1.3450     0.0000     30.000   1328.000 223134.000     32.338    41.5367    74.0645   -55.9641    -1.9995     0.0009    26.0000     4.0000     9.0000    22.0000    26.0000    10.0000     5.0000    20.0000     3.0007     1.0000    -0.4991    20.7738    41.5367     2.4781    14.4503    14.4503     1.7034     0.0000     1.0000     0.0376     0.000
    221     1.0000     1.0000     1.3500     0.0000     30.000   1306.000 224142.000     32.484    41.5367    74.0992   -56.0984    -1.9995     0.0009    26.0000     4.0000     9.0000    22.0000    26.0000    10.0000     5.0000    20.0000     3.0006     1.0000    -0.4991    20.7738    41.5367     2.4835    14.4503    14.4503     1.7034     0.0000     1.0000     0.0376     0.000
    222     1.0000     1.0000     1.3550     0.0000     30.000   1359.000 224358.000     32.516    41.5367    74.1385   -56.2311    -1.9995     0.0009    26.0000     4.0000     9.0000    22.0000    26.0000    10.0000     5.0000    20.0000     3.0007     1.0000    -0.4991    20.7737    41.5367     2.4889    14.4503    14.4503     1.7034     0.0000     1.0000     0.0376     0.000
    223     0.9999     1.0000     1.3600     0.0000     30.000   1343.000 224579.000     32.548    41.5367    74.1756   -56.3658    -1.9995     0.0009    26.0000     4.0000     9.0000    22.0000    26.0000    10.0000     5.0000    20.0000     3.0006     1.0000    -0.4994    20.7738    41.5367     2.4944    14.4503    14.4503     1.7033     0.0000     1.0000     0.0376     0.000
    224     0.9999     0.9999     1.3650     0.0000     30.000   1299.000 224086.000     32.476    41.5367    74.2131   -56.4995    -1.9995     0.0009    26.0000     4.0000     9.0000    22.0000    26.0000    10.0000     5.0000    20.0000     3.0006     1.0000    -0.4991    20.7738    41.5367     2.4998    14.4503    14.4503     1.7033     0.0000     1.0000     0.0376     0.000
    225     0.9999     1.0000     1.3700     0.0000     30.000   1294.000 224053.000     32.471    41.5367    74.2475   -56.6344    -1.9995     0.0009    26.0000     4.0000     9.0000    22.0000    26.0000    10.0000     5.0000    20.0000     3.0006     1.0000    -0.4994    20.7737    41.5367     2.5053    14.4503    14.4503     1.7033     0.0000     1.0000     0.0376     0.000
    226     1.0000     1.0000     1.3750     0.0000     30.000   1312.000 224631.000     32.555    41.5367    74.2815   -56.7696    -1.9995     0.0009    26.0000     4.0000     9.0000    22.0000    26.0000    10.0000     5.0000    20.0000     3.0006     1.0000    -0.4992    20.7737    41.5367     2.5108    14.4503    14.4503     1.7033     0.0000     1.0000     0.0378     0.000
    227     0.9999     1.0000     1.3801     0.0000     30.000   1299.000 224356.000     32.515    41.5367    74.3170   -56.9066    -1.9995     0.0009    26.0000     4.0000     9.0000    22.0000    26.0000    10.0000     5.0000    20.0000     3.0006     1.0000    -0.4994    20.7738    41.5367     2.5163    14.4503    14.4503     1.7033     0.0000     1.0000     0.0378     0.000
    228     1.0000     1.0000     1.3851     0.0000     30.000   1239.000 224722.000     32.568    41.5367    74.3500   -57.0434    -1.9995     0.0009    26.0000     4.0000     9.0000    22.0000    26.0000    10.0000     5.0000    20.0000     3.0006     1.0000    -0.4991    20.7738    41.5367     2.5219    14.4503    14.4503     1.7033     0.0000     1.0000     0.0376     0.000
    229     1.0000     1.0000     1.3901     0.0000     30.000   1254.000 225140.000     32.629    41.5367    74.3823   -57.1796    -1.9995     0.0009    26.0000     4.0000     9.0000    22.0000    26.0000    10.0000     5.0000    20.0000     3.0006     1.0000    -0.4994    20.7738    41.5367     2.5274    14.4503    14.4503     1.7033     0.0000     1.0000     0.0377     0.000
    230     1.0000     1.0000     1.3951     0.0000     30.000   1255.000 223493.000     32.390    41.5367    74.4147   -57.3159    -1.9995     0.0009    26.0000     4.0000     9.0000    22.0000    26.0000    10.0000     5.0000    20.0000     3.0007     1.0000    -0.4991    20.7738    41.5367     2.5329    14.4503    14.4503     1.7033     0.0000     1.0000     0.0377     0.000
    231     1.0000     1.0000     1.4001     0.0000     30.000   1279.000 223398.000     32.377    41.5367    74.4464   -57.4513    -1.9995     0.0009    26.0000     4.0000     9.0000    22.0000    26.0000    10.0000     5.0000    20.0000     3.0006     1.0000    -0.4994    20.7738    41.5367     2.5384    14.4503    14.4503     1.7033     0.0000     1.0000     0.0377     0.000
    232     0.9999     1.0000     1.4051     0.0000     30.000   1276.000 224334.000     32.512    41.5367    74.4791   -57.5870    -1.9995     0.0009    26.0000     4.0000     9.0000    22.0000    26.0000    10.0000     5.0000    20.0000     3.0007     1.0000    -0.4992    20.7738    41.5367     2.5439    14.4503    14.4503     1.7033     0.0000     1.0000     0.0377     0.000
    233     0.9999     1.0000     1.4100     0.0000     30.000   1289.000 223751.000     32.428    41.5367    74.5101   -57.7226    -1.9995     0.0009    26.0000     4.0000     9.0000    22.0000    26.0000    10.0000     5.0000    20.0000     3.0006     1.0000    -0.4995    20.7738    41.5367     2.5493    14.4503    14.4503     1.7032     0.0000     1.0000     0.0376     0.000
    234     1.0000     1.0000     1.4151     0.0000     30.000   1247.000 224387.000     32.520    41.5367    74.5392   -57.8614    -1.9995     0.0009    26.0000     4.0000     9.0000    22.0000    26.0000    10.0000     5.0000    20.0000     3.0006     1.0000    -0.4991    20.7737    41.5367     2.5549    14.4503    14.4503     1.7032     0.0000     1.0000     0.0376     0.000
    235     0.9999     1.0000     1.4201     0.0000     30.000   1246.000 224506.000     32.537    41.5367    74.5704   -57.9979    -1.9995     0.0009    26.0000     4.0000     9.0000    22.0000    26.0000    10.0000     5.0000    20.0000     3.0007     1.0000    -0.4992    20.7738    41.5367     2.5605    14.4503    14.4503     1.7032     0.0000     1.0000     0.0376     0.000
    236     1.0000     1.0000     1.4250     0.0000     30.000   1206.000 222802.000     32.290    41.5367    74.5983   -58.1349    -1.9995     0.0009    26.0000     4.0000     9.0000    22.0000    26.0000    10.0000     5.0000    20.0000     3.0006     1.0000    -0.4993    20.7737    41.5367     2.5660    14.4503    14.4503     1.7032     0.0000     1.0000     0.0376     0.000
    237     1.0000     1.0000     1.4300     0.0000     30.000   1250.000 222828.000     32.294    41.5367    74.6265   -58.2743    -1.9995     0.0009    26.0000     4.0000     9.0000    22.0000    26.0000    10.0000     5.0000    20.0000     3.0006     1.0000    -0.4991    20.7738    41.5367     2.5716    14.4503    14.4503     1.7032     0.0000     1.0000     0.0376     0.000
    238     0.9999     1.0000     1.4350     0.0000     30.000   1173.000 223531.000     32.396    41.5367    74.6554   -58.4107    -1.9995     0.0009    26.0000     4.0000     9.0000    22.0000    26.0000    10.0000     5.0000    20.0000     3.0006     1.0000    -0.4992    20.7738    41.5367     2.5771    14.4503    14.4503     1.7032     0.0000     1.0000     0.0377     0.000
    239     1.0000     1.0000     1.4400     0.0000     30.000   1150.000 224318.000     32.510    41.5367    74.6811   -58.5510    -1.9995     0.0009    26.0000     4.0000     9.0000    22.0000    26.0000    10.0000     5.0000    20.0000     3.0006     1.0000    -0.4992    20.7738    41.5367     2.5827    14.4503    14.4503     1.7031     0.0000     1.0000     0.0377     0.000
    240     1.0000     1.0000     1.4450     0.0000     30.000   1204.000 223716.000     32.423    41.5367    74.7087   -58.6892    -1.9995     0.0009    26.0000     4.0000     9.0000    22.0000    26.0000    10.0000     5.0000    20.0000     3.0006     1.0000    -0.4993    20.7738    41.5367     2.5883    14.4503    14.4503     1.7031     0.0000     1.0000     0.0377     0.000
    241     1.0000     1.0000     1.4500     0.0000     30.000   1240.000 223605.000     32.407    41.5367    74.7349   -58.8292    -1.9995     0.0009    26.0000     4.0000     9.0000    22.0000    26.0000    10.0000     5.0000    20.0000     3.0006     1.0000    -0.4992    20.7738    41.5367     2.5939    14.4503    14.4503     1.7031     0.0000     1.0000     0.0377     0.000
    242     1.0000     1.0000     1.4551     0.0000     30.000   1201.000 223338.000     32.368    41.5367    74.7604   -58.9691    -1.9995     0.0009    26.0000     4.0000     9.0000    22.0000    26.0000    10.0000     5.0000    20.0000     3.0006     1.0000    -0.4995    20.7738    41.5367     2.5995    14.4503    14.4503     1.7031     0.0000     1.0000     0.0376     0.000
    243     1.0000     1.0000     1.4600     0.0000     30.000   1158.000 223694.000     32.419    41.5367    74.7855   -59.1071    -1.9995     0.0009    26.0000     4.0000     9.0000    22.0000    26.0000    10.0000     5.0000    20.0000     3.0006     1.0000    -0.4992    20.7737    41.5367     2.6050    14.4503    14.4503     1.7031     0.0000     1.0000     0.0376     0.000
    244     1.0000     1.0000     1.4650     0.0000     30.000   1204.000 224340.000     32.513    41.5367    74.8096   -59.2461    -1.9995     0.0009    26.0000     4.0000     9.0000    22.0000    26.0000    10.0000     5.0000    20.0000     3.0006     1.0000    -0.4995    20.7737    41.5367     2.6106    14.4503    14.4503     1.7030     0.0000     1.0000     0.0376     0.000
    245     1.0000     1.0000     1.4699     0.0000     30.000   1212.000 223386.000     32.375    41.5367    74.8341   -59.3847    -1.9995     0.0009    26.0000     4.0000     9.0000    22.0000    26.0000    10.0000     5.0000    20.0000     3.0007     1.0000    -0.4992    20.7737    41.5367     2.6162    14.4503    14.4503     1.7031     0.0000     1.0000     0.0376     0.000
    246     1.0000     1.0000     1.4749     0.0000     30.000   1162.000 223767.000     32.430    41.5367    74.8576   -59.5250    -1.9995     0.0009    26.0000     4.0000     9.0000    22.0000    26.0000    10.0000     5.0000    20.0000     3.0006     1.0000    -0.4994    20.7738    41.5367     2.6218    14.4503    14.4503     1.7031     0.0000     1.0000     0.0376     0.000
    247     0.9999     0.9999     1.4800     0.0000     30.000   1117.000 223917.000     32.452    41.5367    74.8827   -59.6677    -1.9995     0.0009    26.0000     4.0000     9.0000    22.0000    26.0000    10.0000     5.0000    20.0000     3.0007     1.0000    -0.4992    20.7737    41.5367     2.6275    14.4503    14.4503     1.7030     0.0000     1.0000     0.0377     0.000
    248     1.0000     1.0000     1.4850     0.0000     30.000   1220.000 224082.000     32.476    41.5367    74.9026   -59.8093    -1.9995     0.0009    26.0000     4.0000     9.0000    22.0000    26.0000    10.0000     5.0000    20.0000     3.0006     1.0000    -0.4991    20.7738    41.5367     2.6332    14.4503    14.4503     1.7031     0.0000     1.0000     0.0377     0.000
    249     1.0000     1.0000     1.4899     0.0000     30.000   1184.000 223536.000     32.397    41.5367    74.9245   -59.9489    -1.9995     0.0009    26.0000     4.0000     9.0000    22.0000    26.0000    10.0000     5.0000    20.0000     3.0006     1.0000    -0.4993    20.7737    41.5367     2.6387    14.4503    14.4503     1.7031     0.0000     1.0000     0.0376     0.000
    250     1.0000     1.0000     1.4950     0.0000     30.000   1189.000 223856.000     32.443    41.5367    74.9467   -60.0938    -1.9995     0.0009    26.0000     4.0000     9.0000    22.0000    26.0000    10.0000     5.0000    20.0000     3.0006     1.0000    -0.4992    20.7738    41.5367     2.6445    14.4503    14.4503     1.7031     0.0000     1.0000     0.0376     0.000
    251     1.0000     1.0000     1.5001     0.0000     30.000   1131.000 223725.000     32.424    41.5367    74.9684   -60.2356    -1.9995     0.0009    26.0000     4.0000     9.0000    22.0000    26.0000    10.0000     5.0000    20.0000     3.0006     1.0000    -0.4992    20.7737    41.5367     2.6502    14.4503    14.4503     1.7031     0.0000     1.0000     0.0376     0.000
    252     1.0000     1.0000     1.5051     0.0000     30.000   1144.000 223462.000     32.386    41.5367    74.9887   -60.3787    -1.9995     0.0009    26.0000     4.0000     9.0000    22.0000    26.0000    10.0000     5.0000    20.0000     3.0006     1.0000    -0.4991    20.7737    41.5367     2.6559    14.4503    14.4503     1.7031     0.0000     1.0000     0.0376     0.000
    253     0.9999     1.0000     1.5101     0.0000     30.000   1123.000 224756.000     32.573    41.5367    75.0091   -60.5209    -1.9995     0.0009    26.0000     4.0000     9.0000    22.0000    26.0000    10.0000     5.0000    20.0000     3.0006     1.0000    -0.4993    20.7737    41.5367     2.6615    14.4503    14.4503     1.7030     0.0000     1.0000     0.0376     0.000
    254     0.9999     1.0000     1.5151     0.0000     30.000   1151.000 223668.000     32.416    41.5367    75.0290   -60.6645    -1.9995     0.0009    26.0000     4.0000     9.0000    22.0000    26.0000    10.0000     5.0000    20.0000     3.0006     1.0000    -0.4992    20.7737    41.5367     2.6672    14.4503    14.4503     1.7030     0.0000     1.0000     0.0376     0.000
    255     0.9999     0.9999     1.5200     0.0000     30.000   1066.000 225015.000     32.611    41.5367    75.0488   -60.8030    -1.9995     0.0009    26.0000     4.0000     9.0000    22.0000    26.0000    10.0000     5.0000    20.0000     3.0006     1.0000    -0.4994    20.7737    41.5367     2.6728    14.4503    14.4503     1.7030     0.0000     1.0000     0.0377     0.000
    256     0.9999     1.0000     1.5250     0.0000     30.000   1183.000 224437.000     32.527    41.5367    75.0657   -60.9468    -1.9995     0.0009    26.0000     4.0000     9.0000    22.0000    26.0000    10.0000     5.0000    20.0000     3.0007     1.0000    -0.4992    20.7737    41.5367     2.6785    14.4503    14.4503     1.7029     0.0000     1.0000     0.0379     0.000
    257     0.9999     0.9999     1.5300     0.0000     30.000   1116.000 223838.000     32.440    41.5367    75.0841   -61.0895    -1.9995     0.0009    26.0000     4.0000     9.0000    22.0000    26.0000    10.0000     5.0000    20.0000     3.0006     1.0000    -0.4994    20.7737    41.5367     2.6841    14.4503    14.4503     1.7029     0.0000     1.0000     0.0379     0.000
    258     0.9999     0.9999     1.5350     0.0000     30.000   1137.000 224217.000     32.495    41.5367    75.1010   -61.2338    -1.9995     0.0009    26.0000     4.0000     9.0000    22.0000    26.0000    10.0000     5.0000    20.0000     3.0006     1.0000    -0.4992    20.7737    41.5367     2.6899    14.4503    14.4503     1.7029     0.0000     1.0000     0.0378     0.000
    259     0.9999     0.9999     1.5400     0.0000     30.000   1129.000 223789.000     32.433    41.5367    75.1181   -61.3779    -1.9995     0.0009    26.0000     4.0000     9.0000    22.0000    26.0000    10.0000     5.0000    20.0000     3.0006     1.0000    -0.4994    20.7737    41.5367     2.6956    14.4503    14.4503     1.7029     0.0000     1.0000     0.0378     0.000
    260     0.9999     1.0000     1.5451     0.0000     30.000   1124.000 223940.000     32.455    41.5367    75.1338   -61.5242    -1.9995     0.0009    26.0000     4.0000     9.0000    22.0000    26.0000    10.0000     5.0000    20.0000     3.0007     1.0000    -0.4992    20.7737    41.5367     2.7014    14.4503    14.4503     1.7029     0.0000     1.0000     0.0376     0.000
    261     1.0000     1.0000     1.5500     0.0000     30.000   1196.000 224438.000     32.527    41.5367    75.1482   -61.6676    -1.9995     0.0009    26.0000     4.0000     9.0000    22.0000    26.0000    10.0000     5.0000    20.0000     3.0006     1.0000    -0.4992    20.7738    41.5367     2.7070    14.4503    14.4503     1.7029     0.0000     1.0000     0.0376     0.000
    262     1.0000     1.0000     1.5551     0.0000     30.000   1163.000 224259.000     32.501    41.5367    75.1634   -61.8152    -1.9995     0.0009    26.0000     4.0000     9.0000    22.0000    26.0000    10.0000     5.0000    20.0000     3.0006     1.0000    -0.4992    20.7738    41.5367     2.7129    14.4503    14.4503     1.7029     0.0000     1.0000     0.0376     0.000
    263     1.0000     1.0000     1.5601     0.0000     30.000   1132.000 223991.000     32.462    41.5367    75.1781   -61.9602    -1.9995     0.0009    26.0000     4.0000     9.0000    22.0000    26.0000    10.0000     5.0000    20.0000     3.0006     1.0000    -0.4992    20.7737    41.5367     2.7186    14.4503    14.4503     1.7028     0.0000     1.0000     0.0376     0.000
    264     0.9999     1.0000     1.5652     0.0000     30.000   1129.000 222962.000     32.313    41.5367    75.1937   -62.1068    -1.9995     0.0009    26.0000     4.0000     9.0000    22.0000    26.0000    10.0000     5.0000    20.0000     3.0006     1.0000    -0.4993    20.7737    41.5367     2.7244    14.4503    14.4503     1.7028     0.0000     1.0000     0.0376     0.000
    265     1.0000     1.0000     1.5701     0.0000     30.000   1170.000 223617.000     32.408    41.5367    75.2065   -62.2517    -1.9995     0.0009    26.0000     4.0000     9.0000    22.0000    26.0000    10.0000     5.0000    20.0000     3.0007     1.0000    -0.4992    20.7737    41.5367     2.7301    14.4503    14.4503     1.7029     0.0000     1.0000     0.0376     0.000
    266     0.9999     0.9999     1.5751     0.0000     30.000   1143.000 223805.000     32.436    41.5367    75.2217   -62.3971    -1.9995     0.0009    26.0000     4.0000     9.0000    22.0000    26.0000    10.0000     5.0000    20.0000     3.0006     1.0000    -0.4994    20.7737    41.5367     2.7359    14.4503    14.4503     1.7028     0.0000     1.0000     0.0376     0.000
    267     0.9999     1.0000     1.5800     0.0000     30.000   1138.000 224541.000     32.542    41.5367    75.2327   -62.5391    -1.9995     0.0009    26.0000     4.0000     9.0000    22.0000    26.0000    10.0000     5.0000    20.0000     3.0007     1.0000    -0.4992    20.7737    41.5367     2.7415    14.4503    14.4503     1.7029     0.0000     1.0000     0.0375     0.000
    268     1.0000     1.0000     1.5850     0.0000     30.000   1084.000 224141.000     32.484    41.5367    75.2439   -62.6860    -1.9995     0.0009    26.0000     4.0000     9.0000    22.0000    26.0000    10.0000     5.0000    20.0000     3.0006     1.0000    -0.4992    20.7737    41.5367     2.7472    14.4503    14.4503     1.7029     0.0000     1.0000     0.0375     0.000
    269     1.0000     1.0000     1.5900     0.0000     30.000   1171.000 223705.000     32.421    41.5367    75.2553   -62.8345    -1.9995     0.0009    26.0000     4.0000     9.0000    22.0000    26.0000    10.0000     5.0000    20.0000     3.0006     1.0000    -0.4992    20.7737    41.5367     2.7531    14.4503    14.4503     1.7029     0.0000     1.0000     0.0376     0.000
    270     1.0000     1.0000     1.5949     0.0000     30.000   1108.000 224282.000     32.505    41.5367    75.2666   -62.9787    -1.9995     0.0009    26.0000     4.0000     9.0000    22.0000    26.0000    10.0000     5.0000    20.0000     3.0007     1.0000    -0.4993    20.7737    41.5367     2.7588    14.4503    14.4503     1.7028     0.0000     1.0000     0.0376     0.000
    271     0.9999     0.9999     1.5999    -0.0000     30.000   1091.000 223358.000     32.371    41.5367    75.2792   -63.1251    -1.9995     0.0009    26.0000     4.0000     9.0000    22.0000    26.0000    10.0000     5.0000    20.0000     3.0007     1.0000    -0.4992    20.7737    41.5367     2.7645    14.4503    14.4503     1.7029     0.0000     1.0000     0.0376     0.000
    272     0.9999     1.0000     1.6050     0.0000     30.000   1122.000 223369.000     32.372    41.5367    75.2888   -63.2746    -1.9995     0.0009    26.0000     4.0000     9.0000    22.0000    26.0000    10.0000     5.0000    20.0000     3.0007     1.0000    -0.4995    20.7737    41.5367     2.7704    14.4503    14.4503     1.7029     0.0000     1.0000     0.0376     0.000
    273     1.0000     1.0000     1.6100     0.0000     30.000   1120.000 223288.000     32.361    41.5367    75.2974   -63.4233    -1.9995     0.0009    26.0000     4.0000     9.0000    22.0000    26.0000    10.0000     5.0000    20.0000     3.0006     1.0000    -0.4995    20.7737    41.5367     2.7762    14.4503    14.4503     1.7029     0.0000     1.0000     0.0376     0.000
    274     1.0000     1.0000     1.6150     0.0000     30.000   1102.000 224819.000     32.582    41.5367    75.3067   -63.5730    -1.9995     0.0009    26.0000     4.0000     9.0000    22.0000    26.0000    10.0000     5.0000    20.0000     3.0006     1.0000    -0.4994    20.7737    41.5367     2.7821    14.4503    14.4503     1.7028     0.0000     1.0000     0.0375     0.000
    275     1.0000     1.0000     1.6201     0.0000     30.000   1174.000 223841.000     32.441    41.5367    75.3153   -63.7217    -1.9995     0.0009    26.0000     4.0000     9.0000    22.0000    26.0000    10.0000     5.0000    20.0000     3.0006     1.0000    -0.4994    20.7737    41.5367     2.7879    14.4503    14.4503     1.7028     0.0000     1.0000     0.0375     0.000
    276     1.0000     1.0000     1.6251     0.0000     30.000   1100.000 223692.000     32.419    41.5367    75.3242   -63.8714    -1.9995     0.0009    26.0000     4.0000     9.0000    22.0000    26.0000    10.0000     5.0000    20.0000     3.0007     1.0000    -0.4992    20.7737    41.5367     2.7938    14.4503    14.4503     1.7027     0.0000     1.0000     0.0376     0.000
    277     1.0000     1.0000     1.6300     0.0000     30.000   1125.000 223965.000     32.459    41.5367    75.3317   -64.0186    -1.9995     0.0009    26.0000     4.0000     9.0000    22.0000    26.0000    10.0000     5.0000    20.0000     3.0006     1.0000    -0.4994    20.7737    41.5367     2.7995    14.4503    14.4503     1.7027     0.0000     1.0000     0.0376     0.000
    278     1.0000     1.0000     1.6350     0.0000     30.000   1174.000 224167.000     32.488    41.5367    75.3400   -64.1661    -1.9995     0.0009    26.0000     4.0000     9.0000    22.0000    26.0000    10.0000     5.0000    20.0000     3.0006     1.0000    -0.4992    20.7737    41.5367     2.8053    14.4503    14.4503     1.7027     0.0000     1.0000     0.0375     0.000
    279     1.0000     1.0000     1.6400    -0.0000     30.000   1162.000 223446.000     32.383    41.5367    75.3456   -64.3155    -1.9995     0.0009    26.0000     4.0000     9.0000    22.0000    26.0000    10.0000     5.0000    20.0000     3.0006     1.0000    -0.4992    20.7737    41.5367     2.8111    14.4503    14.4503     1.7027     0.0000     1.0000     0.0375     0.000
    280     1.0000     1.0000     1.6450    -0.0000     30.000   1156.000 224156.000     32.486    41.5367    75.3532   -64.4645    -1.9995     0.0009    26.0000     4.0000     9.0000    22.0000    26.0000    10.0000     5.0000    20.0000     3.0007     1.0000    -0.4992    20.7737    41.5367     2.8169    14.4503    14.4503     1.7027     0.0000     1.0000     0.0376     0.000
    281     1.0000     1.0000     1.6500     0.0000     30.000   1220.000 224187.000     32.491    41.5367    75.3587   -64.6148    -1.9995     0.0009    26.0000     4.0000     9.0000    22.0000    26.0000    10.0000     5.0000    20.0000     3.0006     1.0000    -0.4994    20.7737    41.5367     2.8228    14.4503    14.4503     1.7027     0.0000     1.0000     0.0376     0.000
    282     1.0000     1.0000     1.6550    -0.0000     30.000   1192.000 224527.000     32.540    41.5367    75.3637   -64.7662    -1.9995     0.0009    26.0000     4.0000     9.0000    22.0000    26.0000    10.0000     5.0000    20.0000     3.0006     1.0000    -0.4994    20.7737    41.5367     2.8287    14.4503    14.4503     1.7026     0.0000     1.0000     0.0376     0.000
    283     1.0000     1.0000     1.6600     0.0000     30.000   1195.000 224384.000     32.519    41.5367    75.3692   -64.9162    -1.9995     0.0009    26.0000     4.0000     9.0000    22.0000    26.0000    10.0000     5.0000    20.0000     3.0006     1.0000    -0.4994    20.7737    41.5367     2.8345    14.4503    14.4503     1.7027     0.0000     1.0000     0.0375     0.000
    284     1.0000     1.0000     1.6650     0.0003     30.000   1114.000 223826.000     32.439    41.5367    75.3733   -65.0655    -1.9995     0.0009    26.0000     4.0000     9.0000    22.0000    26.0000    10.0000     5.0000    20.0000     3.0007     1.0000    -0.4992    20.7737    41.5371     2.8403    14.4503    14.4500     1.7026     0.0000     1.0000     0.0375     0.000
    285     1.0000     1.0000     1.6700     0.0001     30.000   1231.000 224013.000     32.466    41.5367    75.3783   -65.2179    -1.9995     0.0009    26.0000     4.0000     9.0000    22.0000    26.0000    10.0000     5.0000    20.0000     3.0006     1.0000    -0.4995    20.7737    41.5368     2.8462    14.4503    14.4502     1.7026     0.0000     1.0000     0.0375     0.000
    286     1.0000     1.0000     1.6751     0.0000     30.000   1176.000 224067.000     32.473    41.5367    75.3810   -65.3727    -1.9995     0.0009    26.0000     4.0000     9.0000    22.0000    26.0000    10.0000     5.0000    20.0000     3.0007     1.0000    -0.4993    20.7737    41.5368     2.8522    14.4503    14.4502     1.7026     0.0000     1.0000     0.0375     0.000
    287     1.0000     1.0000     1.6800     0.0000     30.000   1211.000 223850.000     32.442    41.5367    75.3841   -65.5221    -1.9995     0.0009    26.0000     4.0000     9.0000    22.0000    26.0000    10.0000     5.0000    20.0000     3.0006     1.0000    -0.4992    20.7737    41.5367     2.8580    14.4503    14.4503     1.7027     0.0000     1.0000     0.0376     0.000
    288     0.9999     1.0000     1.6850     0.0000     30.000   1245.000 223001.000     32.319    41.5367    75.3888   -65.6722    -1.9995     0.0009    26.0000     4.0000     9.0000    22.0000    26.0000    10.0000     5.0000    20.0000     3.0006     1.0000    -0.4994    20.7737    41.5367     2.8638    14.4503    14.4503     1.7027     0.0000     1.0000     0.0376     0.000
    289     1.0000     1.0000     1.6900     0.0000     30.000   1179.000 224097.000     32.478    41.5367    75.3894   -65.8233    -1.9995     0.0009    26.0000     4.0000     9.0000    22.0000    26.0000    10.0000     5.0000    20.0000     3.0007     1.0000    -0.4993    20.7736    41.5367     2.8697    14.4503    14.4503     1.7026     0.0000     1.0000     0.0375     0.000
    290     1.0000     1.0000     1.6950     0.0000     30.000   1231.000 223620.000     32.409    41.5367    75.3911   -65.9759    -1.9995     0.0009    26.0000     4.0000     9.0000    22.0000    26.0000    10.0000     5.0000    20.0000     3.0006     1.0000    -0.4994    20.7737    41.5367     2.8756    14.4503    14.4503     1.7026     0.0000     1.0000     0.0375     0.000
    291     1.0000     1.0000     1.6999     0.0000     30.000   1277.000 224170.000     32.488    41.5367    75.3926   -66.1262    -1.9995     0.0009    26.0000     4.0000     9.0000    22.0000    26.0000    10.0000     5.0000    20.0000     3.0006     1.0000    -0.4995    20.7737    41.5367     2.8814    14.4503    14.4503     1.7026     0.0000     1.0000     0.0376     0.000
    292     1.0000     1.0000     1.7049     0.0000     30.000   1196.000 223570.000     32.401    41.5367    75.3930   -66.2809    -1.9995     0.0009    26.0000     4.0000     9.0000    22.0000    26.0000    10.0000     5.0000    20.0000     3.0006     1.0000    -0.4992    20.7737    41.5367     2.8874    14.4503    14.4503     1.7026     0.0000     1.0000     0.0376     0.000
    293     1.0000     1.0000     1.7100     0.0000     30.000   1340.000 223631.000     32.410    41.5367    75.3937   -66.4356    -1.9995     0.0009    26.0000     4.0000     9.0000    22.0000    26.0000    10.0000     5.0000    20.0000     3.0006     1.0000    -0.4995    20.7736    41.5367     2.8933    14.4503    14.4503     1.7026     0.0000     1.0000     0.0375     0.000
    294     1.0000     1.0000     1.7150    -0.0000     30.000   1312.000 224609.000     32.552    41.5367    75.3935   -66.5885    -1.9995     0.0009    26.0000     4.0000     9.0000    22.0000    26.0000    10.0000     5.0000    20.0000     3.0006     1.0000    -0.4993    20.7737    41.5367     2.8992    14.4503    14.4503     1.7026     0.0000     1.0000     0.0377     0.000
    295     1.0000     1.0000     1.7200     0.0000     30.000   1339.000 224197.000     32.492    41.5367    75.3935   -66.7421    -1.9995     0.0009    26.0000     4.0000     9.0000    22.0000    26.0000    10.0000     5.0000    20.0000     3.0006     1.0000    -0.4993    20.7737    41.5367     2.9052    14.4503    14.4503     1.7026     0.0000     1.0000     0.0377     0.000
    296     1.0000     1.0000     1.7250    -0.0000     30.000   1333.000 223608.000     32.407    41.5367    75.3934   -66.8975    -1.9995     0.0009    26.0000     4.0000     9.0000    22.0000    26.0000    10.0000     5.0000    20.0000     3.0006     1.0000    -0.4992    20.7736    41.5367     2.9111    14.4503    14.4503     1.7026     0.0000     1.0000     0.0376     0.000
    297     0.9999     0.9999     1.7301     0.0003     30.000   1399.000 223703.000     32.421    41.5367    75.3934   -67.0524    -1.9995     0.0009    26.0000     4.0000     9.0000    22.0000    26.0000    10.0000     5.0000    20.0000     3.0006     1.0000    -0.4993    20.7736    41.5372     2.9171    14.4503    14.4500     1.7026     0.0000     1.0000     0.0376     0.000
    298     0.9999     0.9999     1.7352     0.0001     30.000   1396.000 223268.000     32.358    41.5367    75.3934   -67.2078    -1.9995     0.0009    26.0000     4.0000     9.0000    22.0000    26.0000    10.0000     5.0000    20.0000     3.0006     1.0000    -0.4992    20.7737    41.5369     2.9230    14.4503    14.4502     1.7026     0.0000     1.0000     0.0376     0.000
    299     0.9998     0.9998     1.7401     0.0001     30.000   1359.000 223210.000     32.349    41.5367    75.3934   -67.3581    -1.9995     0.0009    26.0000     4.0000     9.0000    22.0000    26.0000    10.0000     5.0000    20.0000     3.0006     1.0000    -0.4993    20.7737    41.5369     2.9288    14.4503    14.4501     1.7026     0.0000     1.0000     0.0376     0.000
    300     0.9997     0.9998     1.7451     0.0001     30.000   1440.000 223671.000     32.416    41.5367    75.3934   -67.5133    -1.9995     0.0009    26.0000     4.0000     9.0000    22.0000    26.0000    10.0000     5.0000    20.0000     3.0006     1.0000    -0.4992    20.7736    41.5369     2.9348    14.4503    14.4502     1.7025     0.0000     1.0000     0.0376     0.000
    301     1.0000     1.0000     1.7499     0.0001     30.000   1418.000 225094.000     32.622    41.5367    75.3811   -67.6684    -1.9995     0.0009    26.0000     4.0000     9.0000    22.0000    26.0000    10.0000     5.0000    20.0000     3.0006     1.0000    -0.4992    20.7736    41.5369     2.9407    14.4503    14.4502     1.7024     0.0000     1.0000     0.0376     0.000
    302     0.9999     0.9999     1.7550     0.0001     30.000   1537.000 223482.000     32.389    41.5367    75.3810   -67.8245    -1.9995     0.0009    26.0000     4.0000     9.0000    22.0000    26.0000    10.0000     5.0000    20.0000     3.0006     1.0000    -0.4993    20.7736    41.5368     2.9467    14.4503    14.4502     1.7024     0.0000     1.0000     0.0377     0.000
    303     0.9998     0.9998     1.7601     0.0001     30.000   1622.000 223213.000     32.350    41.5367    75.3810   -67.9809    -1.9995     0.0009    26.0000     4.0000     9.0000    22.0000    26.0000    10.0000     5.0000    20.0000     3.0006     1.0000    -0.4993    20.7736    41.5368     2.9527    14.4503    14.4502     1.7024     0.0000     1.0000     0.0377     0.000
    304     1.0000     1.0000     1.7650     0.0001     30.000   1760.000 224735.000     32.570    41.5367    75.3698   -68.1385    -1.9995     0.0009    26.0000     4.0000     9.0000    22.0000    26.0000    10.0000     5.0000    20.0000     3.0006     1.0000    -0.4994    20.7736    41.5368     2.9587    14.4503    14.4502     1.7025     0.0000     1.0000     0.0377     0.000
    305     0.9998     0.9999     1.7701     0.0001     30.000   2406.000 223801.000     32.435    41.5367    75.3697   -68.2959    -1.9995     0.0009    26.0000     4.0000     9.0000    22.0000    26.0000    10.0000     5.0000    20.0000     3.0006     1.0000    -0.4993    20.7736    41.5368     2.9647    14.4503    14.4502     1.7024     0.0000     1.0000     0.0376     0.000
    306     1.0000     1.0000     1.7751     0.0001     30.000   3951.000 224429.000     32.526    41.5367    75.3590   -68.4535    -1.9995     0.0009    26.0000     4.0000     9.0000    22.0000    26.0000    10.0000     5.0000    20.0000     3.0006     1.0000    -0.4994    20.7736    41.5368     2.9707    14.4503    14.4502     1.7024     0.0000     1.0000     0.0376     0.000
    307     0.9998     0.9999     1.7802     0.0001     30.000   8102.000 224923.000     32.598    41.5367    75.3589   -68.6111    -1.9995     0.0009    26.0000     4.0000     9.0000    22.0000    26.0000    10.0000     5.0000    20.0000     3.0006     1.0000    -0.4993    20.7736    41.5368     2.9767    14.4503    14.4502     1.7024     0.0000     1.0000     0.0377     0.000
    308     1.0000     1.0000     1.7851     0.0001     30.000  15921.000 224297.000     32.507    41.5367    75.3469   -68.7701    -1.9995     0.0009    26.0000     4.0000     9.0000    22.0000    26.0000    10.0000     5.0000    20.0000     3.0006     1.0000    -0.4994    20.7736    41.5368     2.9828    14.4503    14.4502     1.7024     0.0000     1.0000     0.0377     0.000
    309     0.9998     0.9998     1.7902     0.0001     30.000  27458.000 223260.000     32.357    41.5367    75.3468   -68.9253    -1.9995     0.0009    26.0000     4.0000     9.0000    22.0000    26.0000    10.0000     5.0000    20.0000     3.0006     1.0000    -0.4993    20.7736    41.5368     2.9887    14.4503    14.4502     1.7024     0.0000     1.0000     0.0377     0.000
    310     1.0000     1.0000     1.7950     0.0001     30.000  41294.000 224154.000     32.486    41.5367    75.3340   -69.0792    -1.9995     0.0009    26.0000     4.0000     9.0000    22.0000    26.0000    10.0000     5.0000    20.0000     3.0006     1.0000    -0.4992    20.7736    41.5368     2.9945    14.4503    14.4502     1.7023     0.0000     1.0000     0.0377     0.000
    311     0.9998     0.9998     1.8001     0.0001     30.000  56527.000 224143.000     32.484    41.5367    75.3339   -69.2373    -1.9995     0.0009    26.0000     4.0000     9.0000    22.0000    26.0000    10.0000     5.0000    20.0000     3.0006     1.0000    -0.4993    20.7736    41.5368     3.0005    14.4503    14.4502     1.7023     0.0000     1.0000     0.0377     0.000
    312     1.0000     1.0000     1.8050     0.0001     30.000  69343.000 223680.000     32.417    41.5367    75.3187   -69.3957    -1.9995     0.0009    26.0000     4.0000     9.0000    22.0000    26.0000    10.0000     5.0000    20.0000     3.0006     1.0000    -0.4992    20.7736    41.5368     3.0065    14.4503    14.4502     1.7023     0.0000     1.0000     0.0377     0.000
    313     0.9998     0.9998     1.8101     0.0001     30.000  77043.000 224392.000     32.521    41.5367    75.3186   -69.5540    -1.9995     0.0009    26.0000     4.0000     9.0000    22.0000    26.0000    10.0000     5.0000    20.0000     3.0006     1.0000    -0.4993    20.7736    41.5368     3.0125    14.4503    14.4502     1.7024     0.0000     1.0000     0.0377     0.000
    314     1.0000     1.0000     1.8150     0.0001     30.000  77787.000 224491.000     32.535    41.5367    75.3011   -69.7137    -1.9995     0.0009    26.0000     4.0000     9.0000    22.0000    26.0000    10.0000     5.0000    20.0000     3.0006     1.0000    -0.4993    20.7736    41.5368     3.0185    14.4503    14.4502     1.7024     0.0000     1.0000     0.0377     0.000
    315     0.9997     0.9998     1.8201     0.0001     30.000  72794.000 223783.000     32.432    41.5367    75.3010   -69.8712    -1.9995     0.0009    26.0000     4.0000     9.0000    22.0000    26.0000    10.0000     5.0000    20.0000     3.0006     1.0000    -0.4993    20.7736    41.5368     3.0245    14.4503    14.4502     1.7024     0.0000     1.0000     0.0377     0.000
    316     1.0000     1.0000     1.8250     0.0001     30.000  61724.000 224224.000     32.496    41.5367    75.2832   -70.0343    -1.9995     0.0009    26.0000     4.0000     9.0000    22.0000    26.0000    10.0000     5.0000    20.0000     3.0006     1.0000    -0.4994    20.7736    41.5368     3.0307    14.4503    14.4502     1.7023     0.0000     1.0000     0.0376     0.000
    317     1.0000     1.0000     1.8301     0.0001     30.000  48288.000 223900.000     32.449    41.5367    75.2733   -70.1944    -1.9995     0.0009    26.0000     4.0000     9.0000    22.0000    26.0000    10.0000     5.0000    20.0000     3.0006     1.0000    -0.4994    20.7736    41.5368     3.0367    14.4503    14.4502     1.7023     0.0000     1.0000     0.0376     0.000
    318     1.0000     1.0000     1.8351     0.0001     30.000  33600.000 223982.000     32.461    41.5367    75.2626   -70.3571    -1.9995     0.0009    26.0000     4.0000     9.0000    22.0000    26.0000    10.0000     5.0000    20.0000     3.0006     1.0000    -0.4993    20.7736    41.5368     3.0428    14.4503    14.4502     1.7023     0.0000     1.0000     0.0376     0.000
    319     1.0000     1.0000     1.8400     0.0001     30.000  21011.000 223752.000     32.428    41.5367    75.2519   -70.5137    -1.9995     0.0009    26.0000     4.0000     9.0000    22.0000    26.0000    10.0000     5.0000    20.0000     3.0006     1.0000    -0.4994    20.7736    41.5368     3.0487    14.4503    14.4502     1.7024     0.0000     1.0000     0.0376     0.000
    320     1.0000     1.0000     1.8451     0.0001     30.000  11117.000 223585.000     32.404    41.5367    75.2409   -70.6763    -1.9995     0.0009    26.0000     4.0000     9.0000    22.0000    26.0000    10.0000     5.0000    20.0000     3.0006     1.0000    -0.4993    20.7736    41.5368     3.0548    14.4503    14.4502     1.7023     0.0000     1.0000     0.0377     0.000
    321     1.0000     1.0000     1.8499     0.0001     30.000   5741.000 223898.000     32.449    41.5367    75.2297   -70.8321    -1.9995     0.0009    26.0000     4.0000     9.0000    22.0000    26.0000    10.0000     5.0000    20.0000     3.0006     1.0000    -0.4994    20.7736    41.5368     3.0607    14.4503    14.4502     1.7023     0.0000     1.0000     0.0377     0.000
    322     1.0000     1.0000     1.8550     0.0001     30.000   2966.000 224534.000     32.541    41.5367    75.2171   -70.9968    -1.9995     0.0009    26.0000     4.0000     9.0000    22.0000    26.0000    10.0000     5.0000    20.0000     3.0006     1.0000    -0.4994    20.7736    41.5368     3.0669    14.4503    14.4502     1.7023     0.0000     1.0000     0.0376     0.000
    323     1.0000     1.0000     1.8600     0.0001     30.000   2018.000 224734.000     32.570    41.5367    75.2050   -71.1575    -1.9995     0.0009    26.0000     4.0000     9.0000    22.0000    26.0000    10.0000     5.0000    20.0000     3.0006     1.0000    -0.4993    20.7736    41.5368     3.0729    14.4503    14.4502     1.7024     0.0000     1.0000     0.0376     0.000
    324     1.0000     1.0000     1.8650     0.0001     30.000   1703.000 223734.000     32.425    41.5367    75.1921   -71.3199    -1.9995     0.0009    26.0000     4.0000     9.0000    22.0000    26.0000    10.0000     5.0000    20.0000     3.0006     1.0000    -0.4994    20.7736    41.5368     3.0790    14.4503    14.4502     1.7023     0.0000     1.0000     0.0377     0.000
    325     1.0000     1.0000     1.8700     0.0001     30.000   1480.000 223857.000     32.443    41.5367    75.1793   -71.4798    -1.9995     0.0009    26.0000     4.0000     9.0000    22.0000    26.0000    10.0000     5.0000    20.0000     3.0006     1.0000    -0.4994    20.7735    41.5368     3.0850    14.4503    14.4502     1.7023     0.0000     1.0000     0.0377     0.000
    326     1.0000     1.0000     1.8750     0.0001     30.000   1478.000 223924.000     32.453    41.5367    75.1650   -71.6434    -1.9995     0.0009    26.0000     4.0000     9.0000    22.0000    26.0000    10.0000     5.0000    20.0000     3.0006     1.0000    -0.4994    20.7736    41.5368     3.0911    14.4503    14.4502     1.7023     0.0000     1.0000     0.0377     0.000
    327     1.0000     1.0000     1.8800     0.0001     30.000   1452.000 224614.000     32.553    41.5367    75.1512   -71.8060    -1.9995     0.0009    26.0000     4.0000     9.0000    22.0000    26.0000    10.0000     5.0000    20.0000     3.0006     1.0000    -0.4994    20.7735    41.5368     3.0972    14.4503    14.4502     1.7023     0.0000     1.0000     0.0378     0.000
    328     1.0000     1.0000     1.8851     0.0001     30.000   1411.000 223968.000     32.459    41.5367    75.1370   -71.9710    -1.9995     0.0009    26.0000     4.0000     9.0000    22.0000    26.0000    10.0000     5.0000    20.0000     3.0006     1.0000    -0.4994    20.7735    41.5368     3.1033    14.4503    14.4502     1.7023     0.0000     1.0000     0.0378     0.000
    329     1.0000     1.0000     1.8901     0.0001     30.000   1396.000 224394.000     32.521    41.5367    75.1219   -72.1337    -1.9995     0.0009    26.0000     4.0000     9.0000    22.0000    26.0000    10.0000     5.0000    20.0000     3.0006     1.0000    -0.4993    20.7735    41.5368     3.1094    14.4503    14.4502     1.7023     0.0000     1.0000     0.0377     0.000
    330     1.0000     1.0000     1.8950     0.0001     30.000   1377.000 224181.000     32.490    41.5367    75.1071   -72.2926    -1.9995     0.0009    26.0000     4.0000     9.0000    22.0000    26.0000    10.0000     5.0000    20.0000     3.0006     1.0000    -0.4994    20.7736    41.5368     3.1153    14.4503    14.4502     1.7022     0.0000     1.0000     0.0377     0.000
    331     1.0000     1.0000     1.8999     0.0000     30.000   1340.000 224036.000     32.469    41.5367    75.0910   -72.4562    -1.9995     0.0009    26.0000     4.0000     9.0000    22.0000    26.0000    10.0000     5.0000    20.0000     3.0006     1.0000    -0.4994    20.7735    41.5367     3.1214    14.4503    14.4503     1.7022     0.0000     1.0000     0.0376     0.000
    332     1.0000     1.0000     1.9050     0.0001     30.000   1269.000 223665.000     32.415    41.5367    75.0752   -72.6207    -1.9995     0.0009    26.0000     4.0000     9.0000    22.0000    26.0000    10.0000     5.0000    20.0000     3.0006     1.0000    -0.4994    20.7735    41.5368     3.1275    14.4503    14.4502     1.7022     0.0000     1.0000     0.0376     0.000
    333     1.0000     1.0000     1.9100     0.0001     30.000   1311.000 224173.000     32.489    41.5367    75.0590   -72.7861    -1.9995     0.0009    26.0000     4.0000     9.0000    22.0000    26.0000    10.0000     5.0000    20.0000     3.0006     1.0000    -0.4994    20.7735    41.5368     3.1336    14.4503    14.4502     1.7022     0.0000     1.0000     0.0376     0.000
    334     1.0000     1.0000     1.9149     0.0001     30.000   1427.000 223227.000     32.352    41.5367    75.0418   -72.9473    -1.9995     0.0009    26.0000     4.0000     9.0000    22.0000    26.0000    10.0000     5.0000    20.0000     3.0006     1.0000    -0.4994    20.7735    41.5368     3.1396    14.4503    14.4502     1.7022     0.0000     1.0000     0.0376     0.000
    335     1.0000     1.0000     1.9200     0.0001     30.000   1393.000 224118.000     32.481    41.5367    75.0247   -73.1150    -1.9995     0.0009    26.0000     4.0000     9.0000    22.0000    26.0000    10.0000     5.0000    20.0000     3.0006     1.0000    -0.4994    20.7735    41.5368     3.1458    14.4503    14.4502     1.7022     0.0000     1.0000     0.0376     0.000
    336     1.0000     1.0000     1.9250     0.0001     30.000   1305.000 224279.000     32.504    41.5367    75.0077   -73.2806    -1.9995     0.0009    26.0000     4.0000     9.0000    22.0000    26.0000    10.0000     5.0000    20.0000     3.0006     1.0000    -0.4994    20.7735    41.5368     3.1520    14.4503    14.4502     1.7022     0.0000     1.0000     0.0378     0.000
    337     1.0000     1.0000     1.9300     0.0001     30.000   1278.000 224829.000     32.584    41.5367    74.9892   -73.4461    -1.9995     0.0009    26.0000     4.0000     9.0000    22.0000    26.0000    10.0000     5.0000    20.0000     3.0006     1.0000    -0.4995    20.7735    41.5368     3.1581    14.4503    14.4502     1.7022     0.0000     1.0000     0.0378     0.000
    338     1.0000     1.0000     1.9350     0.0001     30.000   1364.000 224026.000     32.468    41.5367    74.9704   -73.6125    -1.9995     0.0009    26.0000     4.0000     9.0000    22.0000    26.0000    10.0000     5.0000    20.0000     3.0006     1.0000    -0.4993    20.7735    41.5368     3.1642    14.4503    14.4502     1.7022     0.0000     1.0000     0.0376     0.000
    339     1.0000     1.0000     1.9401     0.0000     30.000   1365.000 224699.000     32.565    41.5367    74.9522   -73.7781    -1.9995     0.0009    26.0000     4.0000     9.0000    22.0000    26.0000    10.0000     5.0000    20.0000     3.0006     1.0000    -0.4995    20.7735    41.5368     3.1703    14.4503    14.4502     1.7021     0.0000     1.0000     0.0376     0.000
    340     1.0000     1.0000     1.9449     0.0000     30.000   1282.000 224105.000     32.479    41.5367    74.9328   -73.9404    -1.9995     0.0009    26.0000     4.0000     9.0000    22.0000    26.0000    10.0000     5.0000    20.0000     3.0006     1.0000    -0.4993    20.7734    41.5368     3.1763    14.4503    14.4502     1.7021     0.0000     1.0000     0.0375     0.000
    341     1.0000     1.0000     1.9499     0.0001     30.000   1342.000 223895.000     32.449    41.5367    74.9132   -74.1071    -1.9995     0.0009    26.0000     4.0000     9.0000    22.0000    26.0000    10.0000     5.0000    20.0000     3.0006     1.0000    -0.4994    20.7735    41.5368     3.1824    14.4503    14.4502     1.7021     0.0000     1.0000     0.0375     0.000
    342     1.0000     1.0000     1.9549     0.0000     30.000   1331.000 225063.000     32.618    41.5367    74.8933   -74.2731    -1.9995     0.0009    26.0000     4.0000     9.0000    22.0000    26.0000    10.0000     5.0000    20.0000     3.0006     1.0000    -0.4994    20.7735    41.5368     3.1886    14.4503    14.4502     1.7021     0.0000     1.0000     0.0377     0.000
    343     1.0000     1.0000     1.9599     0.0000     30.000   1281.000 223354.000     32.370    41.5367    74.8730   -74.4411    -1.9995     0.0009    26.0000     4.0000     9.0000    22.0000    26.0000    10.0000     5.0000    20.0000     3.0006     1.0000    -0.4994    20.7734    41.5368     3.1947    14.4503    14.4502     1.7021     0.0000     1.0000     0.0377     0.000
    344     1.0000     1.0000     1.9650     0.0000     30.000   1524.000 224350.000     32.514    41.5367    74.8522   -74.6103    -1.9995     0.0009    26.0000     4.0000     9.0000    22.0000    26.0000    10.0000     5.0000    20.0000     3.0006     1.0000    -0.4994    20.7734    41.5368     3.2009    14.4503    14.4502     1.7021     0.0000     1.0000     0.0377     0.000
    345     1.0000     1.0000     1.9700     0.0000     30.000   1975.000 224452.000     32.529    41.5367    74.8310   -74.7789    -1.9995     0.0009    26.0000     4.0000     9.0000    22.0000    26.0000    10.0000     5.0000    20.0000     3.0006     1.0000    -0.4994    20.7734    41.5368     3.2071    14.4503    14.4502     1.7021     0.0000     1.0000     0.0376     0.000
    346     1.0000     1.0000     1.9751     0.0000     30.000   2997.000 225046.000     32.615    41.5367    74.8099   -74.9485    -1.9995     0.0009    26.0000     4.0000     9.0000    22.0000    26.0000    10.0000     5.0000    20.0000     3.0006     1.0000    -0.4995    20.7734    41.5368     3.2133    14.4503    14.4502     1.7021     0.0000     1.0000     0.0376     0.000
    347     1.0000     1.0000     1.9801     0.0000     30.000   5874.000 224369.000     32.517    41.5367    74.7879   -75.1175    -1.9995     0.0009    26.0000     4.0000     9.0000    22.0000    26.0000    10.0000     5.0000    20.0000     3.0006     1.0000    -0.4995    20.7734    41.5367     3.2195    14.4503    14.4503     1.7021     0.0000     1.0000     0.0378     0.000
    348     1.0000     1.0000     1.9850     0.0001     30.000  11627.000 224039.000     32.469    41.5367    74.7649   -75.2818    -1.9995     0.0009    26.0000     4.0000     9.0000    22.0000    26.0000    10.0000     5.0000    20.0000     3.0006     1.0000    -0.4994    20.7734    41.5368     3.2255    14.4503    14.4502     1.7021     0.0000     1.0000     0.0378     0.000
    349     1.0000     1.0000     1.9901     0.0000     30.000  21968.000 224290.000     32.506    41.5367    74.7430   -75.4539    -1.9995     0.0009    26.0000     4.0000     9.0000    22.0000    26.0000    10.0000     5.0000    20.0000     3.0006     1.0000    -0.4994    20.7734    41.5368     3.2318    14.4503    14.4502     1.7021     0.0000     1.0000     0.0378     0.000
    350     1.0000     1.0000     1.9950     0.0000     30.000  35320.000 224508.000     32.537    41.5367    74.7199   -75.6197    -1.9995     0.0009    26.0000     4.0000     9.0000    22.0000    26.0000    10.0000     5.0000    20.0000     3.0006     1.0000    -0.4993    20.7734    41.5367     3.2378    14.4503    14.4503     1.7021     0.0000     1.0000     0.0378     0.000
    351     1.0000     1.0000     1.9999     0.0000     30.000  45908.000 224693.000     32.564    41.5367    74.6963   -75.7881    -1.9995     0.0009    26.0000     4.0000     9.0000    22.0000    26.0000    10.0000     5.0000    20.0000     3.0006     1.0000    -0.4994    20.7734    41.5367     3.2439    14.4503    14.4503     1.7021     0.0000     1.0000     0.0378     0.000
    352     1.0000     1.0000     2.0050     0.0000     30.000  45716.000 223844.000     32.441    41.5367    74.6726   -75.9578    -1.9995     0.0009    26.0000     4.0000     9.0000    22.0000    26.0000    10.0000     5.0000    20.0000     3.0006     1.0000    -0.4994    20.7734    41.5367     3.2501    14.4503    14.4503     1.7021     0.0000     1.0000     0.0378     0.000
    353     1.0000     1.0000     2.0100     0.0000     30.000  36470.000 224997.000     32.608    41.5367    74.6488   -76.1278    -1.9995     0.0009    26.0000     4.0000     9.0000    22.0000    26.0000    10.0000     5.0000    20.0000     3.0006     1.0000    -0.4994    20.7734    41.5367     3.2563    14.4503    14.4503     1.7022     0.0000     1.0000     0.0375     0.000
    354     1.0000     1.0000     2.0150     0.0000     30.000  22674.000 224380.000     32.519    41.5367    74.6234   -76.2989    -1.9995     0.0009    26.0000     4.0000     9.0000    22.0000    26.0000    10.0000     5.0000    20.0000     3.0006     1.0000    -0.4994    20.7734    41.5367     3.2625    14.4503    14.4503     1.7022     0.0000     1.0000     0.0377     0.000
    355     1.0000     1.0000     2.0200     0.0000     30.000  10986.000 224958.000     32.603    41.5367    74.5995   -76.4688    -1.9995     0.0009    26.0000     4.0000     9.0000    22.0000    26.0000    10.0000     5.0000    20.0000     3.0006     1.0000    -0.4994    20.7733    41.5367     3.2686    14.4503    14.4503     1.7022     0.0000     1.0000     0.0377     0.000
    356     1.0000     1.0000     2.0250     0.0000     30.000   4748.000 223723.000     32.424    41.5367    74.5736   -76.6409    -1.9995     0.0009    26.0000     4.0000     9.0000    22.0000    26.0000    10.0000     5.0000    20.0000     3.0006     1.0000    -0.4994    20.7733    41.5367     3.2749    14.4503    14.4503     1.7022     0.0000     1.0000     0.0376     0.000
    357     1.0000     1.0000     2.0300     0.0000     30.000   2311.000 224640.000     32.557    41.5367    74.5477   -76.8120    -1.9995     0.0009    26.0000     4.0000     9.0000    22.0000    26.0000    10.0000     5.0000    20.0000     3.0006     1.0000    -0.4995    20.7733    41.5367     3.2810    14.4503    14.4503     1.7022     0.0000     1.0000     0.0376     0.000
    358     1.0000     1.0000     2.0349     0.0000     30.000   1521.000 224242.000     32.499    41.5367    74.5216   -76.9822    -1.9995     0.0009    26.0000     4.0000     9.0000    22.0000    26.0000    10.0000     5.0000    20.0000     3.0006     1.0000    -0.4995    20.7734    41.5367     3.2872    14.4503    14.4503     1.7021     0.0000     1.0000     0.0377     0.000
    359     1.0000     1.0000     2.0400     0.0000     30.000   1389.000 224160.000     32.487    41.5367    74.4956   -77.1564    -1.9995     0.0009    26.0000     4.0000     9.0000    22.0000    26.0000    10.0000     5.0000    20.0000     3.0006     1.0000    -0.4994    20.7733    41.5367     3.2935    14.4503    14.4503     1.7020     0.0000     1.0000     0.0377     0.000
    360     1.0000     1.0000     2.0449     0.0000     30.000   1277.000 224690.000     32.564    41.5367    74.4685   -77.3260    -1.9995     0.0009    26.0000     4.0000     9.0000    22.0000    26.0000    10.0000     5.0000    20.0000     3.0006     1.0000    -0.4995    20.7733    41.5367     3.2996    14.4503    14.4503     1.7020     0.0000     1.0000     0.0376     0.000
    361     1.0000     1.0000     2.0500     0.0000     30.000   1407.000 225110.000     32.625    41.5367    74.4410   -77.5003    -1.9995     0.0009    26.0000     4.0000     9.0000    22.0000    26.0000    10.0000     5.0000    20.0000     3.0006     1.0000    -0.4994    20.7733    41.5367     3.3058    14.4503    14.4503     1.7020     0.0000     1.0000     0.0376     0.000
    362     1.0000     1.0000     2.0550     0.0000     30.000   1315.000 224452.000     32.529    41.5367    74.4139   -77.6740    -1.9995     0.0009    26.0000     4.0000     9.0000    22.0000    26.0000    10.0000     5.0000    20.0000     3.0006     1.0000    -0.4994    20.7733    41.5367     3.3121    14.4503    14.4503     1.7020     0.0000     1.0000     0.0378     0.000
    363     1.0000     1.0000     2.0600     0.0000     30.000   1300.000 224445.000     32.528    41.5367    74.3856   -77.8472    -1.9995     0.0009    26.0000     4.0000     9.0000    22.0000    26.0000    10.0000     5.0000    20.0000     3.0006     1.0000    -0.4995    20.7733    41.5367     3.3183    14.4503    14.4503     1.7020     0.0000     1.0000     0.0378     0.000
    364     1.0000     1.0000     2.0650     0.0000     30.000   1334.000 223653.000     32.413    41.5367    74.3574   -78.0179    -1.9995     0.0009    26.0000     4.0000     9.0000    22.0000    26.0000    10.0000     5.0000    20.0000     3.0006     1.0000    -0.4995    20.7733    41.5367     3.3244    14.4503    14.4503     1.7020     0.0000     1.0000     0.0377     0.000
    365     1.0000     1.0000     2.0701     0.0000     30.000   1300.000 224516.000     32.539    41.5367    74.3290   -78.1940    -1.9995     0.0009    26.0000     4.0000     9.0000    22.0000    26.0000    10.0000     5.0000    20.0000     3.0006     1.0000    -0.4995    20.7733    41.5367     3.3307    14.4503    14.4503     1.7020     0.0000     1.0000     0.0376     0.000
    366     1.0000     1.0000     2.0750     0.0000     30.000   1388.000 224657.000     32.559    41.5367    74.2994   -78.3671    -1.9995     0.0009    26.0000     4.0000     9.0000    22.0000    26.0000    10.0000     5.0000    20.0000     3.0006     1.0000    -0.4994    20.7733    41.5367     3.3369    14.4503    14.4503     1.7020     0.0000     1.0000     0.0376     0.000
    367     1.0000     1.0000     2.0801     0.0000     30.000   1352.000 223973.000     32.460    41.5367    74.2702   -78.5450    -1.9995     0.0009    26.0000     4.0000     9.0000    22.0000    26.0000    10.0000     5.0000    20.0000     3.0005     1.0000    -0.4994    20.7733    41.5368     3.3433    14.4503    14.4502     1.7021     0.0000     1.0000     0.0376     0.000
    368     1.0000     1.0000     2.0850     0.0000     30.000   1410.000 223975.000     32.460    41.5367    74.2402   -78.7153    -1.9995     0.0009    26.0000     4.0000     9.0000    22.0000    26.0000    10.0000     5.0000    20.0000     3.0006     1.0000    -0.4995    20.7732    41.5367     3.3493    14.4503    14.4503     1.7021     0.0000     1.0000     0.0376     0.000
    369     1.0000     1.0000     2.0899     0.0000     30.000   1345.000 223567.000     32.401    41.5367    74.2101   -78.8883    -1.9995     0.0009    26.0000     4.0000     9.0000    22.0000    26.0000    10.0000     5.0000    20.0000     3.0006     1.0000    -0.4995    20.7733    41.5367     3.3555    14.4503    14.4503     1.7020     0.0000     1.0000     0.0377     0.000
    370     1.0000     1.0000     2.0949     0.0000     30.000   1377.000 224326.000     32.511    41.5367    74.1798   -79.0638    -1.9995     0.0009    26.0000     4.0000     9.0000    22.0000    26.0000    10.0000     5.0000    20.0000     3.0006     1.0000    -0.4994    20.7732    41.5367     3.3617    14.4503    14.4503     1.7020     0.0000     1.0000     0.0377     0.000
    371     1.0000     1.0000     2.0999     0.0000     30.000   1391.000 223946.000     32.456    41.5367    74.1490   -79.2373    -1.9995     0.0009    26.0000     4.0000     9.0000    22.0000    26.0000    10.0000     5.0000    20.0000     3.0006     1.0000    -0.4995    20.7732    41.5367     3.3679    14.4503    14.4503     1.7020     0.0000     1.0000     0.0376     0.000
    372     1.0000     1.0000     2.1050     0.0000     30.000   1408.000 224879.000     32.591    41.5367    74.1176   -79.4163    -1.9995     0.0009    26.0000     4.0000     9.0000    22.0000    26.0000    10.0000     5.0000    20.0000     3.0005     1.0000    -0.4994    20.7732    41.5367     3.3743    14.4503    14.4503     1.7020     0.0000     1.0000     0.0376     0.000
    373     1.0000     1.0000     2.1100     0.0000     30.000   1451.000 223973.000     32.460    41.5367    74.0855   -79.5927    -1.9995     0.0009    26.0000     4.0000     9.0000    22.0000    26.0000    10.0000     5.0000    20.0000     3.0006     1.0000    -0.4994    20.7732    41.5367     3.3805    14.4503    14.4503     1.7020     0.0000     1.0000     0.0375     0.000
    374     1.0000     1.0000     2.1150     0.0000     30.000   1350.000 223930.000     32.454    41.5367    74.0542   -79.7694    -1.9995     0.0009    26.0000     4.0000     9.0000    22.0000    26.0000    10.0000     5.0000    20.0000     3.0005     1.0000    -0.4994    20.7732    41.5367     3.3868    14.4503    14.4503     1.7020     0.0000     1.0000     0.0376     0.000
    375     1.0000     1.0000     2.1200     0.0000     30.000   1470.000 224550.000     32.543    41.5367    74.0212   -79.9477    -1.9995     0.0009    26.0000     4.0000     9.0000    22.0000    26.0000    10.0000     5.0000    20.0000     3.0006     1.0000    -0.4994    20.7732    41.5367     3.3931    14.4503    14.4503     1.7020     0.0000     1.0000     0.0376     0.000
    376     1.0000     1.0000     2.1250     0.0000     30.000   1457.000 224808.000     32.581    41.5367    73.9893   -80.1234    -1.9995     0.0009    26.0000     4.0000     9.0000    22.0000    26.0000    10.0000     5.0000    20.0000     3.0005     1.0000    -0.4994    20.7732    41.5367     3.3993    14.4503    14.4503     1.7020     0.0000     1.0000     0.0376     0.000
    377     1.0000     1.0000     2.1299     0.0000     30.000   1470.000 224085.000     32.476    41.5367    73.9555   -80.2970    -1.9995     0.0009    26.0000     4.0000     9.0000    22.0000    26.0000    10.0000     5.0000    20.0000     3.0006     1.0000    -0.4994    20.7732    41.5367     3.4054    14.4503    14.4503     1.7026     0.0000     1.0000     0.0376     0.000
    378     1.0000     1.0000     2.1350     0.0000     30.000   1678.000 224320.000     32.510    41.5367    73.9222   -80.4784    -1.9995     0.0009    26.0000     4.0000     9.0000    22.0000    26.0000    10.0000     5.0000    20.0000     3.0005     1.0000    -0.4994    20.7731    41.5368     3.4118    14.4503    14.4502     1.7038     0.0000     1.0000     0.0376     0.000
    379     1.0000     1.0000     2.1400     0.0000     30.000   1768.000 224001.000     32.464    41.5367    73.8888   -80.6568    -1.9995     0.0009    26.0000     4.0000     9.0000    22.0000    26.0000    10.0000     5.0000    20.0000     3.0005     1.0000    -0.4995    20.7731    41.5367     3.4180    14.4503    14.4503     1.7046     0.0000     1.0000     0.0376     0.000
    380     1.0000     1.0000     2.1450     0.0000     30.000   2197.000 224260.000     32.501    41.5367    73.8541   -80.8346    -1.9995     0.0009    26.0000     4.0000     9.0000    22.0000    26.0000    10.0000     5.0000    20.0000     3.0005     1.0000    -0.4995    20.7731    41.5367     3.4243    14.4503    14.4503     1.7052     0.0000     1.0000     0.0377     0.000
    381     1.0000     1.0000     2.1500     0.0000     30.000   3396.000 224205.000     32.493    41.5367    73.8195   -81.0120    -1.9995     0.0009    26.0000     4.0000     9.0000    22.0000    26.0000    10.0000     5.0000    20.0000     3.0005     1.0000    -0.4995    20.7731    41.5367     3.4305    14.4503    14.4503     1.7056     0.0000     1.0000     0.0377     0.000
    382     1.0000     1.0000     2.1550     0.0000     30.000   5751.000 224841.000     32.586    41.5367    73.7845   -81.1916    -1.9995     0.0009    26.0000     4.0000     9.0000    22.0000    26.0000    10.0000     5.0000    20.0000     3.0005     1.0000    -0.4994    20.7731    41.5367     3.4368    14.4503    14.4503     1.7060     0.0000     1.0000     0.0376     0.000
    383     1.0000     1.0000     2.1601     0.0000     30.000   9785.000 223803.000     32.435    41.5367    73.7498   -81.3730    -1.9995     0.0009    26.0000     4.0000     9.0000    22.0000    26.0000    10.0000     5.0000    20.0000     3.0006     1.0000    -0.4995    20.7731    41.5367     3.4431    14.4503    14.4503     1.7064     0.0000     1.0000     0.0376     0.000
    384     1.0000     1.0000     2.1651     0.0000     30.000  15247.000 224788.000     32.578    41.5367    73.7139   -81.5541    -1.9995     0.0009    26.0000     4.0000     9.0000    22.0000    26.0000    10.0000     5.0000    20.0000     3.0005     1.0000    -0.4994    20.7731    41.5367     3.4495    14.4503    14.4503     1.7066     0.0000     1.0000     0.0376     0.000
    385     1.0000     1.0000     2.1699     0.0000     30.000  21371.000 224230.000     32.497    41.5367    73.6778   -81.7277    -1.9995     0.0009    26.0000     4.0000     9.0000    22.0000    26.0000    10.0000     5.0000    20.0000     3.0005     1.0000    -0.4994    20.7731    41.5367     3.4555    14.4503    14.4503     1.7068     0.0000     1.0000     0.0377     0.000
    386     1.0000     1.0000     2.1751     0.0000     30.000  28450.000 225462.000     32.676    41.5367    73.6412   -81.9149    -1.9995     0.0009    26.0000     4.0000     9.0000    22.0000    26.0000    10.0000     5.0000    20.0000     3.0006     1.0000    -0.4995    20.7730    41.5367     3.4620    14.4503    14.4503     1.7070     0.0000     1.0000     0.0377     0.000
    387     1.0000     1.0000     2.1800     0.0000     30.000  34080.000 224259.000     32.501    41.5367    73.6051   -82.0929    -1.9995     0.0009    26.0000     4.0000     9.0000    22.0000    26.0000    10.0000     5.0000    20.0000     3.0005     1.0000    -0.4994    20.7731    41.5367     3.4682    14.4503    14.4503     1.7072     0.0000     1.0000     0.0376     0.000
    388     1.0000     1.0000     2.1849     0.0000     30.000  38136.000 225387.000     32.665    41.5367    73.5674   -82.2715    -1.9995     0.0009    26.0000     4.0000     9.0000    22.0000    26.0000    10.0000     5.0000    20.0000     3.0006     1.0000    -0.4995    20.7730    41.5367     3.4744    14.4503    14.4503     1.7073     0.0000     1.0000     0.0376     0.000
    389     1.0000     1.0000     2.1899     0.0000     30.000  40254.000 224823.000     32.583    41.5367    73.5305   -82.4527    -1.9995     0.0009    26.0000     4.0000     9.0000    22.0000    26.0000    10.0000     5.0000    20.0000     3.0005     1.0000    -0.4994    20.7730    41.5367     3.4807    14.4503    14.4503     1.7074     0.0000     1.0000     0.0375     0.000
    390     1.0000     1.0000     2.1950     0.0000     30.000  39543.000 225516.000     32.683    41.5367    73.4920   -82.6367    -1.9995     0.0009    26.0000     4.0000     9.0000    22.0000    26.0000    10.0000     5.0000    20.0000     3.0005     1.0000    -0.4994    20.7730    41.5367     3.4871    14.4503    14.4503     1.7076     0.0000     1.0000     0.0375     0.000
    391     1.0000     1.0000     2.2000     0.0000     30.000  36686.000 224860.000     32.588    41.5367    73.4542   -82.8179    -1.9995     0.0009    26.0000     4.0000     9.0000    22.0000    26.0000    10.0000     5.0000    20.0000     3.0005     1.0000    -0.4994    20.7730    41.5367     3.4934    14.4503    14.4503     1.7077     0.0000     1.0000     0.0376     0.000
    392     1.0000     1.0000     2.2050     0.0000     30.000  31570.000 223957.000     32.458    41.5367    73.4154   -82.9998    -1.9995     0.0009    26.0000     4.0000     9.0000    22.0000    26.0000    10.0000     5.0000    20.0000     3.0005     1.0000    -0.4995    20.7730    41.5367     3.4996    14.4503    14.4503     1.7078     0.0000     1.0000     0.0376     0.000
    393     1.0000     1.0000     2.2101     0.0000     30.000  26906.000 225349.000     32.659    41.5367    73.3763   -83.1855    -1.9995     0.0009    26.0000     4.0000     9.0000    22.0000    26.0000    10.0000     5.0000    20.0000     3.0005     1.0000    -0.4994    20.7730    41.5367     3.5061    14.4503    14.4503     1.7079     0.0000     1.0000     0.0375     0.000
    394     1.0000     1.0000     2.2151     0.0000     30.000  20281.000 224794.000     32.579    41.5367    73.3371   -83.3702    -1.9995     0.0009    26.0000     4.0000     9.0000    22.0000    26.0000    10.0000     5.0000    20.0000     3.0005     1.0000    -0.4995    20.7731    41.5368     3.5124    14.4503    14.4502     1.7081     0.0000     1.0000     0.0378     0.000
    395     1.0000     1.0000     2.2201     0.0000     30.000  14015.000 225475.000     32.678    41.5367    73.2976   -83.5533    -1.9995     0.0009    26.0000     4.0000     9.0000    22.0000    26.0000    10.0000     5.0000    20.0000     3.0005     1.0000    -0.4994    20.7731    41.5367     3.5187    14.4503    14.4503     1.7082     0.0000     1.0000     0.0378     0.000
    396     1.0000     1.0000     2.2250     0.0000     30.000   8615.000 224850.000     32.587    41.5367    73.2577   -83.7337    -1.9995     0.0009    26.0000     4.0000     9.0000    22.0000    26.0000    10.0000     5.0000    20.0000     3.0005     1.0000    -0.4995    20.7730    41.5368     3.5249    14.4503    14.4502     1.7083     0.0000     1.0000     0.0376     0.000
    397     1.0000     1.0000     2.2299     0.0000     30.000   5028.000 223705.000     32.421    41.5367    73.2169   -83.9156    -1.9995     0.0009    26.0000     4.0000     9.0000    22.0000    26.0000    10.0000     5.0000    20.0000     3.0005     1.0000    -0.4995    20.7730    41.5367     3.5311    14.4503    14.4503     1.7084     0.0000     1.0000     0.0376     0.000
    398     1.0000     1.0000     2.2350     0.0000     30.000   2984.000 224544.000     32.543    41.5367    73.1767   -84.1028    -1.9995     0.0009    26.0000     4.0000     9.0000    22.0000    26.0000    10.0000     5.0000    20.0000     3.0005     1.0000    -0.4995    20.7730    41.5367     3.5376    14.4503    14.4503     1.7085     0.0000     1.0000     0.0375     0.000
    399     1.0000     1.0000     2.2400     0.0000     30.000   1929.000 224256.000     32.501    41.5367    73.1355   -84.2876    -1.9995     0.0009    26.0000     4.0000     9.0000    22.0000    26.0000    10.0000     5.0000    20.0000     3.0005     1.0000    -0.4994    20.7730    41.5367     3.5439    14.4503    14.4503     1.7086     0.0000     1.0000     0.0375     0.000
    400     1.0000     1.0000     2.2450     0.0000     30.000   1652.000 224532.000     32.541    41.5367    73.0944   -84.4708    -1.9995     0.0009    26.0000     4.0000     9.0000    22.0000    26.0000    10.0000     5.0000    20.0000     3.0005     1.0000    -0.4995    20.7730    41.5368     3.5501    14.4503    14.4502     1.7087     0.0000     1.0000     0.0377     0.000
    401     1.0000     1.0000     2.2499     0.0000     30.000   1499.000 225395.000     32.666    41.5367    73.0519   -84.6564    -1.9995     0.0009    26.0000     4.0000     9.0000    22.0000    26.0000    10.0000     5.0000    20.0000     3.0005     1.0000    -0.4995    20.7729    41.5367     3.5565    14.4503    14.4503     1.7088     0.0000     1.0000     0.0377     0.000
# Sum of Counts = 5259162
# Center of Mass = 1.251191+/-0.000795
# Full Width Half-Maximum = 0.880280+/-0.000498
# 4:36:20 AM  9/20/2023   scan completed.
