# scan = 222
# date = 9/22/2023
# time = 4:20:00 AM
# proposal = 30730
# experiment = Low Temperature Magnetic Structure of CeCl3
# experiment_number = 998
# command = scan h 0.6666 k 0.6666 l 0.25 2.25 0.005 e 0 preset time 30 
# builtin_command = scan h 0.6666 k 0.6666 l 0.25 2.25 0.005 e 0 preset time 30
# users = Adam Aczel, David Mandrus, Matthew Cothrine, Stephen Nagler
# local_contact = A. Aczel
# scan_title = CeBr3, (2/3 2/3 L) scan, T = 0.2 K
# monochromator = PG002
# analyzer = Pg002
# sense = +-+
# collimation = 40-40-40-80
# samplename = CeBr3
# sampletype = crystal
# samplemosaic = 30.000000
# latticeconstants = 7.911813,7.911813,4.442653,90.000000,90.000000,120.000000
# ubmatrix = 0.075384,0.080477,-0.177039,-0.099473,-0.099471,-0.138870,-0.075649,0.070209,0.006183
# mode = 0
# plane_normal = 0.034896,0.000010,0.999390
# ubconf = UB19Sep2023_24416PM.ini
# preset_type = normal 
# preset_channel = time
# preset_value = 30.000000
# def_x = l
# def_y = detector
# col_headers = 
#   Pt.          h          k          l          e       time   detector    monitor        mcu         m2         s1         s2        sgl        sgu   slitb_bt   slitb_lf   slitb_rt   slitb_tp   slita_bt   slita_lf   slita_rt   slita_tp        stl        stu         sz         a1         a2          q         ei         ef        vti     sample       temp dr_tsample    dr_temp
      1     0.6666     0.6666     0.2500     0.0002     30.000   1454.000 224337.000     32.513    41.5367    58.1716   -24.4027    -1.9995     0.0009    26.0000     4.0000     9.0000    22.0000    26.0000    10.0000     5.0000    20.0000     3.0005     1.0000    -0.4995    20.7745    41.5369     1.1162    14.4503    14.4501     1.7083     0.0000     1.0000     0.2002     0.200
      2     0.6666     0.6666     0.2550     0.0001     30.000   1535.000 225519.000     32.684    41.5367    58.4903   -24.4538    -1.9995     0.0009    26.0000     4.0000     9.0000    22.0000    26.0000    10.0000     5.0000    20.0000     3.0005     1.0000    -0.4995    20.7744    41.5369     1.1185    14.4503    14.4501     1.7087     0.0000     1.0000     0.2002     0.200
      3     0.6666     0.6666     0.2600     0.0002     30.000   1478.000 224754.000     32.573    41.5367    58.8066   -24.5037    -1.9995     0.0009    26.0000     4.0000     9.0000    22.0000    26.0000    10.0000     5.0000    20.0000     3.0005     1.0000    -0.4995    20.7743    41.5369     1.1208    14.4503    14.4501     1.7086     0.0000     1.0000     0.2003     0.200
      4     0.6666     0.6666     0.2650     0.0002     30.000   1490.000 225289.000     32.651    41.5367    59.1212   -24.5565    -1.9995     0.0009    26.0000     4.0000     9.0000    22.0000    26.0000    10.0000     5.0000    20.0000     3.0005     1.0000    -0.4995    20.7743    41.5369     1.1232    14.4503    14.4501     1.7086     0.0000     1.0000     0.2003     0.200
      5     0.6666     0.6666     0.2700     0.0002     30.000   1500.000 225022.000     32.612    41.5367    59.4352   -24.6088    -1.9995     0.0009    26.0000     4.0000     9.0000    22.0000    26.0000    10.0000     5.0000    20.0000     3.0005     1.0000    -0.4996    20.7743    41.5369     1.1255    14.4503    14.4501     1.7088     0.0000     1.0000     0.2003     0.200
      6     0.6666     0.6666     0.2750     0.0002     30.000   1494.000 224302.000     32.508    41.5367    59.7458   -24.6626    -1.9995     0.0009    26.0000     4.0000     9.0000    22.0000    26.0000    10.0000     5.0000    20.0000     3.0005     1.0000    -0.4994    20.7743    41.5369     1.1279    14.4503    14.4501     1.7087     0.0000     1.0000     0.2003     0.200
      7     0.6666     0.6666     0.2800     0.0002     30.000   1464.000 223548.000     32.398    41.5367    60.0550   -24.7174    -1.9995     0.0009    26.0000     4.0000     9.0000    22.0000    26.0000    10.0000     5.0000    20.0000     3.0006     1.0000    -0.4995    20.7743    41.5369     1.1304    14.4503    14.4501     1.7087     0.0000     1.0000     0.2004     0.200
      8     0.6666     0.6666     0.2850     0.0002     30.000   1489.000 224842.000     32.586    41.5367    60.3616   -24.7721    -1.9995     0.0009    26.0000     4.0000     9.0000    22.0000    26.0000    10.0000     5.0000    20.0000     3.0006     1.0000    -0.4996    20.7743    41.5369     1.1329    14.4503    14.4501     1.7087     0.0000     1.0000     0.2004     0.200
      9     0.6666     0.6666     0.2900     0.0002     30.000   1510.000 225996.000     32.753    41.5367    60.6669   -24.8286    -1.9995     0.0009    26.0000     4.0000     9.0000    22.0000    26.0000    10.0000     5.0000    20.0000     3.0005     1.0000    -0.4995    20.7743    41.5369     1.1354    14.4503    14.4501     1.7082     0.0000     1.0000     0.1994     0.200
     10     0.6666     0.6666     0.2950     0.0002     30.000   1515.000 225656.000     32.704    41.5367    60.9706   -24.8853    -1.9995     0.0009    26.0000     4.0000     9.0000    22.0000    26.0000    10.0000     5.0000    20.0000     3.0006     1.0000    -0.4995    20.7743    41.5369     1.1380    14.4503    14.4501     1.7094     0.0000     1.0000     0.1994     0.200
     11     0.6666     0.6666     0.3000     0.0002     30.000   1524.000 225319.000     32.655    41.5367    61.2720   -24.9435    -1.9995     0.0009    26.0000     4.0000     9.0000    22.0000    26.0000    10.0000     5.0000    20.0000     3.0006     1.0000    -0.4995    20.7743    41.5369     1.1406    14.4503    14.4501     1.7089     0.0000     1.0000     0.2002     0.200
     12     0.6666     0.6666     0.3050     0.0002     30.000   1517.000 225836.000     32.730    41.5367    61.5716   -25.0023    -1.9995     0.0009    26.0000     4.0000     9.0000    22.0000    26.0000    10.0000     5.0000    20.0000     3.0006     1.0000    -0.4996    20.7742    41.5369     1.1432    14.4503    14.4501     1.7089     0.0000     1.0000     0.2002     0.200
     13     0.6666     0.6666     0.3100     0.0002     30.000   1545.000 225810.000     32.726    41.5367    61.8693   -25.0613    -1.9995     0.0009    26.0000     4.0000     9.0000    22.0000    26.0000    10.0000     5.0000    20.0000     3.0006     1.0000    -0.4995    20.7742    41.5369     1.1459    14.4503    14.4501     1.7086     0.0000     1.0000     0.2002     0.200
     14     0.6666     0.6666     0.3150     0.0002     30.000   1545.000 225206.000     32.639    41.5367    62.1647   -25.1234    -1.9995     0.0009    26.0000     4.0000     9.0000    22.0000    26.0000    10.0000     5.0000    20.0000     3.0006     1.0000    -0.4996    20.7742    41.5369     1.1487    14.4503    14.4501     1.7088     0.0000     1.0000     0.2005     0.200
     15     0.6666     0.6666     0.3200     0.0002     30.000   1433.000 225226.000     32.641    41.5367    62.4587   -25.1845    -1.9995     0.0009    26.0000     4.0000     9.0000    22.0000    26.0000    10.0000     5.0000    20.0000     3.0006     1.0000    -0.4996    20.7742    41.5369     1.1514    14.4503    14.4501     1.7087     0.0000     1.0000     0.2005     0.200
     16     0.6666     0.6666     0.3250     0.0002     30.000   1481.000 225142.000     32.629    41.5367    62.7503   -25.2456    -1.9995     0.0009    26.0000     4.0000     9.0000    22.0000    26.0000    10.0000     5.0000    20.0000     3.0006     1.0000    -0.4995    20.7742    41.5369     1.1542    14.4503    14.4501     1.7087     0.0000     1.0000     0.2004     0.200
     17     0.6666     0.6666     0.3300     0.0002     30.000   1480.000 224983.000     32.606    41.5367    63.0399   -25.3099    -1.9995     0.0009    26.0000     4.0000     9.0000    22.0000    26.0000    10.0000     5.0000    20.0000     3.0006     1.0000    -0.4996    20.7742    41.5369     1.1571    14.4503    14.4501     1.7089     0.0000     1.0000     0.2004     0.200
     18     0.6666     0.6666     0.3350     0.0002     30.000   1502.000 225302.000     32.652    41.5367    63.3277   -25.3735    -1.9995     0.0009    26.0000     4.0000     9.0000    22.0000    26.0000    10.0000     5.0000    20.0000     3.0006     1.0000    -0.4995    20.7742    41.5369     1.1599    14.4503    14.4501     1.7088     0.0000     1.0000     0.1990     0.200
     19     0.6666     0.6666     0.3400     0.0002     30.000   1477.000 225281.000     32.649    41.5367    63.6139   -25.4379    -1.9995     0.0009    26.0000     4.0000     9.0000    22.0000    26.0000    10.0000     5.0000    20.0000     3.0006     1.0000    -0.4995    20.7742    41.5369     1.1628    14.4503    14.4501     1.7088     0.0000     1.0000     0.1990     0.200
     20     0.6666     0.6666     0.3450     0.0002     30.000   1463.000 224987.000     32.607    41.5367    63.8969   -25.5033    -1.9995     0.0009    26.0000     4.0000     9.0000    22.0000    26.0000    10.0000     5.0000    20.0000     3.0006     1.0000    -0.4995    20.7742    41.5369     1.1658    14.4503    14.4501     1.7087     0.0000     1.0000     0.2000     0.200
     21     0.6666     0.6666     0.3500     0.0002     30.000   1480.000 224981.000     32.606    41.5367    64.1787   -25.5698    -1.9995     0.0009    26.0000     4.0000     9.0000    22.0000    26.0000    10.0000     5.0000    20.0000     3.0006     1.0000    -0.4996    20.7742    41.5369     1.1688    14.4503    14.4501     1.7085     0.0000     1.0000     0.2000     0.200
     22     0.6666     0.6666     0.3550     0.0002     30.000   1486.000 225113.000     32.625    41.5367    64.4586   -25.6364    -1.9995     0.0009    26.0000     4.0000     9.0000    22.0000    26.0000    10.0000     5.0000    20.0000     3.0006     1.0000    -0.4997    20.7742    41.5369     1.1717    14.4503    14.4501     1.7088     0.0000     1.0000     0.1988     0.200
     23     0.6666     0.6666     0.3600     0.0002     30.000   1524.000 224833.000     32.584    41.5367    64.7361   -25.7049    -1.9995     0.0009    26.0000     4.0000     9.0000    22.0000    26.0000    10.0000     5.0000    20.0000     3.0006     1.0000    -0.4996    20.7742    41.5369     1.1748    14.4503    14.4501     1.7086     0.0000     1.0000     0.1988     0.200
     24     0.6666     0.6666     0.3650     0.0002     30.000   1559.000 224911.000     32.596    41.5367    65.0124   -25.7732    -1.9995     0.0009    26.0000     4.0000     9.0000    22.0000    26.0000    10.0000     5.0000    20.0000     3.0006     1.0000    -0.4996    20.7742    41.5369     1.1779    14.4503    14.4501     1.7084     0.0000     1.0000     0.2003     0.200
     25     0.6666     0.6666     0.3700     0.0002     30.000   1528.000 226053.000     32.761    41.5367    65.2853   -25.8428    -1.9995     0.0009    26.0000     4.0000     9.0000    22.0000    26.0000    10.0000     5.0000    20.0000     3.0006     1.0000    -0.4996    20.7742    41.5369     1.1810    14.4503    14.4501     1.7085     0.0000     1.0000     0.2005     0.200
     26     0.6666     0.6666     0.3750     0.0002     30.000   1561.000 224788.000     32.578    41.5367    65.5575   -25.9122    -1.9995     0.0009    26.0000     4.0000     9.0000    22.0000    26.0000    10.0000     5.0000    20.0000     3.0006     1.0000    -0.4996    20.7742    41.5369     1.1841    14.4503    14.4501     1.7084     0.0000     1.0000     0.2005     0.200
     27     0.6666     0.6666     0.3800     0.0002     30.000   1445.000 225406.000     32.668    41.5367    65.8271   -25.9845    -1.9995     0.0009    26.0000     4.0000     9.0000    22.0000    26.0000    10.0000     5.0000    20.0000     3.0006     1.0000    -0.4995    20.7742    41.5369     1.1874    14.4503    14.4501     1.7085     0.0000     1.0000     0.1999     0.200
     28     0.6666     0.6666     0.3850     0.0002     30.000   1511.000 224704.000     32.566    41.5367    66.0942   -26.0560    -1.9995     0.0009    26.0000     4.0000     9.0000    22.0000    26.0000    10.0000     5.0000    20.0000     3.0006     1.0000    -0.4996    20.7741    41.5369     1.1906    14.4503    14.4501     1.7087     0.0000     1.0000     0.1999     0.200
     29     0.6666     0.6666     0.3900     0.0002     30.000   1481.000 226211.000     32.784    41.5367    66.3602   -26.1286    -1.9995     0.0009    26.0000     4.0000     9.0000    22.0000    26.0000    10.0000     5.0000    20.0000     3.0006     1.0000    -0.4997    20.7741    41.5369     1.1939    14.4503    14.4501     1.7087     0.0000     1.0000     0.2000     0.200
     30     0.6666     0.6666     0.3950     0.0002     30.000   1546.000 225070.000     32.619    41.5367    66.6235   -26.2015    -1.9995     0.0009    26.0000     4.0000     9.0000    22.0000    26.0000    10.0000     5.0000    20.0000     3.0006     1.0000    -0.4996    20.7741    41.5369     1.1971    14.4503    14.4501     1.7087     0.0000     1.0000     0.2000     0.200
     31     0.6666     0.6666     0.4000     0.0002     30.000   1415.000 224474.000     32.532    41.5367    66.8852   -26.2756    -1.9995     0.0009    26.0000     4.0000     9.0000    22.0000    26.0000    10.0000     5.0000    20.0000     3.0006     1.0000    -0.4997    20.7741    41.5369     1.2005    14.4503    14.4501     1.7087     0.0000     1.0000     0.2002     0.200
     32     0.6666     0.6666     0.4050     0.0002     30.000   1534.000 224927.000     32.598    41.5367    67.1445   -26.3503    -1.9995     0.0009    26.0000     4.0000     9.0000    22.0000    26.0000    10.0000     5.0000    20.0000     3.0006     1.0000    -0.4997    20.7741    41.5369     1.2038    14.4503    14.4501     1.7086     0.0000     1.0000     0.2002     0.200
     33     0.6665     0.6666     0.4100     0.0002     30.000   1480.000 226027.000     32.758    41.5367    67.4024   -26.4229    -1.9995     0.0009    26.0000     4.0000     9.0000    22.0000    26.0000    10.0000     5.0000    20.0000     3.0006     1.0000    -0.4995    20.7741    41.5369     1.2071    14.4503    14.4501     1.7089     0.0000     1.0000     0.1996     0.200
     34     0.6666     0.6666     0.4150     0.0002     30.000   1469.000 226372.000     32.808    41.5367    67.6579   -26.5005    -1.9995     0.0009    26.0000     4.0000     9.0000    22.0000    26.0000    10.0000     5.0000    20.0000     3.0006     1.0000    -0.4996    20.7741    41.5369     1.2105    14.4503    14.4501     1.7088     0.0000     1.0000     0.1996     0.200
     35     0.6666     0.6666     0.4200     0.0002     30.000   1482.000 225586.000     32.694    41.5367    67.9120   -26.5763    -1.9995     0.0009    26.0000     4.0000     9.0000    22.0000    26.0000    10.0000     5.0000    20.0000     3.0006     1.0000    -0.4997    20.7741    41.5369     1.2140    14.4503    14.4501     1.7088     0.0000     1.0000     0.2002     0.200
     36     0.6666     0.6666     0.4250     0.0002     30.000   1479.000 225589.000     32.694    41.5367    68.1627   -26.6540    -1.9995     0.0009    26.0000     4.0000     9.0000    22.0000    26.0000    10.0000     5.0000    20.0000     3.0006     1.0000    -0.4996    20.7741    41.5369     1.2174    14.4503    14.4501     1.7086     0.0000     1.0000     0.2002     0.200
     37     0.6665     0.6666     0.4300     0.0002     30.000   1495.000 226278.000     32.794    41.5367    68.4128   -26.7317    -1.9995     0.0009    26.0000     4.0000     9.0000    22.0000    26.0000    10.0000     5.0000    20.0000     3.0006     1.0000    -0.4996    20.7741    41.5369     1.2209    14.4503    14.4501     1.7086     0.0000     1.0000     0.1999     0.200
     38     0.6666     0.6666     0.4350     0.0002     30.000   1406.000 225802.000     32.725    41.5367    68.6608   -26.8118    -1.9995     0.0009    26.0000     4.0000     9.0000    22.0000    26.0000    10.0000     5.0000    20.0000     3.0006     1.0000    -0.4997    20.7741    41.5369     1.2245    14.4503    14.4501     1.7087     0.0000     1.0000     0.2003     0.200
     39     0.6666     0.6666     0.4400     0.0002     30.000   1622.000 225756.000     32.718    41.5367    68.9053   -26.8907    -1.9995     0.0009    26.0000     4.0000     9.0000    22.0000    26.0000    10.0000     5.0000    20.0000     3.0005     1.0000    -0.4995    20.7741    41.5369     1.2280    14.4503    14.4501     1.7086     0.0000     1.0000     0.2003     0.200
     40     0.6666     0.6666     0.4450     0.0002     30.000   1486.000 225917.000     32.742    41.5367    69.1492   -26.9710    -1.9995     0.0009    26.0000     4.0000     9.0000    22.0000    26.0000    10.0000     5.0000    20.0000     3.0006     1.0000    -0.4997    20.7741    41.5369     1.2316    14.4503    14.4501     1.7086     0.0000     1.0000     0.1994     0.200
     41     0.6666     0.6666     0.4500     0.0002     30.000   1457.000 227313.000     32.944    41.5367    69.3916   -27.0524    -1.9995     0.0009    26.0000     4.0000     9.0000    22.0000    26.0000    10.0000     5.0000    20.0000     3.0006     1.0000    -0.4997    20.7741    41.5369     1.2353    14.4503    14.4501     1.7084     0.0000     1.0000     0.1994     0.200
     42     0.6666     0.6666     0.4550     0.0002     30.000   1463.000 225591.000     32.694    41.5367    69.6305   -27.1343    -1.9995     0.0009    26.0000     4.0000     9.0000    22.0000    26.0000    10.0000     5.0000    20.0000     3.0006     1.0000    -0.4996    20.7741    41.5369     1.2390    14.4503    14.4501     1.7086     0.0000     1.0000     0.1990     0.200
     43     0.6666     0.6666     0.4600     0.0002     30.000   1488.000 225920.000     32.742    41.5367    69.8675   -27.2164    -1.9995     0.0009    26.0000     4.0000     9.0000    22.0000    26.0000    10.0000     5.0000    20.0000     3.0006     1.0000    -0.4996    20.7741    41.5369     1.2426    14.4503    14.4501     1.7087     0.0000     1.0000     0.1990     0.200
     44     0.6666     0.6666     0.4650     0.0002     30.000   1459.000 226544.000     32.832    41.5367    70.1028   -27.3010    -1.9995     0.0009    26.0000     4.0000     9.0000    22.0000    26.0000    10.0000     5.0000    20.0000     3.0006     1.0000    -0.4996    20.7741    41.5369     1.2464    14.4503    14.4501     1.7088     0.0000     1.0000     0.2003     0.200
     45     0.6666     0.6666     0.4700     0.0002     30.000   1483.000 224796.000     32.579    41.5367    70.3361   -27.3834    -1.9995     0.0009    26.0000     4.0000     9.0000    22.0000    26.0000    10.0000     5.0000    20.0000     3.0006     1.0000    -0.4996    20.7741    41.5369     1.2501    14.4503    14.4501     1.7087     0.0000     1.0000     0.2003     0.200
     46     0.6666     0.6666     0.4750     0.0002     30.000   1446.000 225694.000     32.709    41.5367    70.5692   -27.4686    -1.9995     0.0009    26.0000     4.0000     9.0000    22.0000    26.0000    10.0000     5.0000    20.0000     3.0006     1.0000    -0.4997    20.7741    41.5369     1.2539    14.4503    14.4501     1.7088     0.0000     1.0000     0.2001     0.200
     47     0.6666     0.6666     0.4800     0.0002     30.000   1533.000 225499.000     32.681    41.5367    70.7971   -27.5526    -1.9995     0.0009    26.0000     4.0000     9.0000    22.0000    26.0000    10.0000     5.0000    20.0000     3.0006     1.0000    -0.4996    20.7741    41.5369     1.2577    14.4503    14.4501     1.7087     0.0000     1.0000     0.2001     0.200
     48     0.6666     0.6666     0.4850     0.0002     30.000   1440.000 226651.000     32.848    41.5367    71.0255   -27.6394    -1.9995     0.0009    26.0000     4.0000     9.0000    22.0000    26.0000    10.0000     5.0000    20.0000     3.0006     1.0000    -0.4997    20.7740    41.5369     1.2616    14.4503    14.4501     1.7085     0.0000     1.0000     0.2003     0.200
     49     0.6666     0.6666     0.4901     0.0002     30.000   1434.000 225796.000     32.724    41.5367    71.2508   -27.7265    -1.9995     0.0009    26.0000     4.0000     9.0000    22.0000    26.0000    10.0000     5.0000    20.0000     3.0006     1.0000    -0.4996    20.7740    41.5369     1.2655    14.4503    14.4501     1.7085     0.0000     1.0000     0.2001     0.200
     50     0.6666     0.6666     0.4950     0.0002     30.000   1374.000 225934.000     32.744    41.5367    71.4756   -27.8117    -1.9995     0.0009    26.0000     4.0000     9.0000    22.0000    26.0000    10.0000     5.0000    20.0000     3.0006     1.0000    -0.4996    20.7740    41.5369     1.2693    14.4503    14.4501     1.7086     0.0000     1.0000     0.2001     0.200
     51     0.6666     0.6666     0.5000     0.0002     30.000   1313.000 226185.000     32.780    41.5367    71.6962   -27.9002    -1.9995     0.0009    26.0000     4.0000     9.0000    22.0000    26.0000    10.0000     5.0000    20.0000     3.0006     1.0000    -0.4996    20.7741    41.5369     1.2733    14.4503    14.4501     1.7087     0.0000     1.0000     0.1988     0.200
     52     0.6666     0.6666     0.5050     0.0002     30.000   1427.000 226121.000     32.771    41.5367    71.9155   -27.9867    -1.9995     0.0009    26.0000     4.0000     9.0000    22.0000    26.0000    10.0000     5.0000    20.0000     3.0006     1.0000    -0.4996    20.7740    41.5369     1.2771    14.4503    14.4501     1.7089     0.0000     1.0000     0.1988     0.200
     53     0.6665     0.6666     0.5100     0.0002     30.000   1395.000 226500.000     32.826    41.5367    72.1352   -28.0743    -1.9995     0.0009    26.0000     4.0000     9.0000    22.0000    26.0000    10.0000     5.0000    20.0000     3.0006     1.0000    -0.4996    20.7740    41.5369     1.2810    14.4503    14.4501     1.7092     0.0000     1.0000     0.2005     0.200
     54     0.6666     0.6666     0.5150     0.0001     30.000   1367.000 226568.000     32.836    41.5367    72.3498   -28.1642    -1.9995     0.0009    26.0000     4.0000     9.0000    22.0000    26.0000    10.0000     5.0000    20.0000     3.0006     1.0000    -0.4996    20.7740    41.5369     1.2851    14.4503    14.4501     1.7093     0.0000     1.0000     0.2005     0.200
     55     0.6665     0.6666     0.5200     0.0002     30.000   1402.000 225672.000     32.706    41.5367    72.5640   -28.2533    -1.9995     0.0009    26.0000     4.0000     9.0000    22.0000    26.0000    10.0000     5.0000    20.0000     3.0006     1.0000    -0.4997    20.7740    41.5369     1.2890    14.4503    14.4501     1.7093     0.0000     1.0000     0.2001     0.200
     56     0.6665     0.6666     0.5250     0.0001     30.000   1380.000 225203.000     32.638    41.5367    72.7774   -28.3440    -1.9995     0.0009    26.0000     4.0000     9.0000    22.0000    26.0000    10.0000     5.0000    20.0000     3.0005     1.0000    -0.4996    20.7740    41.5369     1.2931    14.4503    14.4501     1.7093     0.0000     1.0000     0.2001     0.200
     57     0.6666     0.6666     0.5300     0.0002     30.000   1362.000 225503.000     32.682    41.5367    72.9851   -28.4358    -1.9995     0.0009    26.0000     4.0000     9.0000    22.0000    26.0000    10.0000     5.0000    20.0000     3.0006     1.0000    -0.4996    20.7740    41.5369     1.2972    14.4503    14.4501     1.7093     0.0000     1.0000     0.2000     0.200
     58     0.6666     0.6666     0.5350     0.0002     30.000   1460.000 225686.000     32.708    41.5367    73.1957   -28.5277    -1.9995     0.0009    26.0000     4.0000     9.0000    22.0000    26.0000    10.0000     5.0000    20.0000     3.0006     1.0000    -0.4996    20.7740    41.5369     1.3013    14.4503    14.4501     1.7094     0.0000     1.0000     0.2000     0.200
     59     0.6666     0.6666     0.5400     0.0002     30.000   1371.000 226269.000     32.793    41.5367    73.3999   -28.6194    -1.9995     0.0009    26.0000     4.0000     9.0000    22.0000    26.0000    10.0000     5.0000    20.0000     3.0006     1.0000    -0.4995    20.7740    41.5369     1.3054    14.4503    14.4501     1.7095     0.0000     1.0000     0.2004     0.200
     60     0.6666     0.6666     0.5450     0.0002     30.000   1371.000 225871.000     32.735    41.5367    73.6060   -28.7142    -1.9995     0.0009    26.0000     4.0000     9.0000    22.0000    26.0000    10.0000     5.0000    20.0000     3.0006     1.0000    -0.4996    20.7740    41.5369     1.3096    14.4503    14.4501     1.7093     0.0000     1.0000     0.2004     0.200
     61     0.6666     0.6666     0.5500     0.0001     30.000   1365.000 226111.000     32.770    41.5367    73.8077   -28.8063    -1.9995     0.0009    26.0000     4.0000     9.0000    22.0000    26.0000    10.0000     5.0000    20.0000     3.0006     1.0000    -0.4996    20.7740    41.5369     1.3137    14.4503    14.4501     1.7093     0.0000     1.0000     0.1996     0.200
     62     0.6666     0.6666     0.5550     0.0002     30.000   1314.000 226076.000     32.765    41.5367    74.0083   -28.9023    -1.9995     0.0009    26.0000     4.0000     9.0000    22.0000    26.0000    10.0000     5.0000    20.0000     3.0006     1.0000    -0.4996    20.7740    41.5369     1.3180    14.4503    14.4501     1.7092     0.0000     1.0000     0.1996     0.200
     63     0.6666     0.6666     0.5601     0.0001     30.000   1338.000 224708.000     32.566    41.5367    74.2095   -28.9970    -1.9995     0.0009    26.0000     4.0000     9.0000    22.0000    26.0000    10.0000     5.0000    20.0000     3.0006     1.0000    -0.4996    20.7740    41.5369     1.3223    14.4503    14.4501     1.7092     0.0000     1.0000     0.1996     0.200
     64     0.6666     0.6666     0.5650     0.0002     30.000   1336.000 224161.000     32.487    41.5367    74.4048   -29.0916    -1.9995     0.0009    26.0000     4.0000     9.0000    22.0000    26.0000    10.0000     5.0000    20.0000     3.0006     1.0000    -0.4995    20.7740    41.5369     1.3265    14.4503    14.4501     1.7093     0.0000     1.0000     0.2002     0.200
     65     0.6666     0.6666     0.5701     0.0001     30.000   1316.000 225648.000     32.703    41.5367    74.6008   -29.1877    -1.9995     0.0009    26.0000     4.0000     9.0000    22.0000    26.0000    10.0000     5.0000    20.0000     3.0006     1.0000    -0.4996    20.7740    41.5369     1.3308    14.4503    14.4502     1.7094     0.0000     1.0000     0.2002     0.200
     66     0.6666     0.6666     0.5751     0.0001     30.000   1281.000 225147.000     32.630    41.5367    74.7932   -29.2857    -1.9995     0.0009    26.0000     4.0000     9.0000    22.0000    26.0000    10.0000     5.0000    20.0000     3.0006     1.0000    -0.4996    20.7740    41.5369     1.3351    14.4503    14.4501     1.7094     0.0000     1.0000     0.1993     0.200
     67     0.6666     0.6666     0.5801     0.0001     30.000   1313.000 224306.000     32.508    41.5367    74.9845   -29.3824    -1.9995     0.0009    26.0000     4.0000     9.0000    22.0000    26.0000    10.0000     5.0000    20.0000     3.0006     1.0000    -0.4995    20.7740    41.5369     1.3394    14.4503    14.4501     1.7095     0.0000     1.0000     0.1993     0.200
     68     0.6666     0.6666     0.5851     0.0001     30.000   1350.000 223765.000     32.430    41.5367    75.1738   -29.4803    -1.9995     0.0009    26.0000     4.0000     9.0000    22.0000    26.0000    10.0000     5.0000    20.0000     3.0006     1.0000    -0.4995    20.7740    41.5369     1.3438    14.4503    14.4501     1.7096     0.0000     1.0000     0.1987     0.200
     69     0.6666     0.6666     0.5900     0.0001     30.000   1323.000 224917.000     32.597    41.5367    75.3612   -29.5769    -1.9995     0.0009    26.0000     4.0000     9.0000    22.0000    26.0000    10.0000     5.0000    20.0000     3.0005     1.0000    -0.4995    20.7740    41.5369     1.3481    14.4503    14.4501     1.7096     0.0000     1.0000     0.1987     0.200
     70     0.6665     0.6666     0.5950     0.0001     30.000   1309.000 226438.000     32.817    41.5367    75.5494   -29.6729    -1.9995     0.0009    26.0000     4.0000     9.0000    22.0000    26.0000    10.0000     5.0000    20.0000     3.0006     1.0000    -0.4996    20.7740    41.5369     1.3524    14.4503    14.4501     1.7097     0.0000     1.0000     0.1994     0.200
     71     0.6666     0.6666     0.6000     0.0001     30.000   1341.000 225013.000     32.611    41.5367    75.7324   -29.7727    -1.9995     0.0009    26.0000     4.0000     9.0000    22.0000    26.0000    10.0000     5.0000    20.0000     3.0006     1.0000    -0.4996    20.7740    41.5369     1.3568    14.4503    14.4501     1.7098     0.0000     1.0000     0.1994     0.200
     72     0.6666     0.6666     0.6050     0.0001     30.000   1361.000 224607.000     32.552    41.5367    75.9141   -29.8718    -1.9995     0.0009    26.0000     4.0000     9.0000    22.0000    26.0000    10.0000     5.0000    20.0000     3.0006     1.0000    -0.4996    20.7740    41.5369     1.3612    14.4503    14.4501     1.7099     0.0000     1.0000     0.1996     0.200
     73     0.6665     0.6666     0.6100     0.0002     30.000   1280.000 225630.000     32.700    41.5367    76.0976   -29.9721    -1.9995     0.0009    26.0000     4.0000     9.0000    22.0000    26.0000    10.0000     5.0000    20.0000     3.0006     1.0000    -0.4995    20.7740    41.5369     1.3657    14.4503    14.4501     1.7099     0.0000     1.0000     0.1996     0.200
     74     0.6666     0.6666     0.6150     0.0001     30.000   1283.000 225780.000     32.722    41.5367    76.2711   -30.0723    -1.9995     0.0009    26.0000     4.0000     9.0000    22.0000    26.0000    10.0000     5.0000    20.0000     3.0006     1.0000    -0.4995    20.7740    41.5369     1.3702    14.4503    14.4501     1.7099     0.0000     1.0000     0.1999     0.200
     75     0.6665     0.6666     0.6200     0.0001     30.000   1306.000 225175.000     32.634    41.5367    76.4533   -30.1734    -1.9995     0.0009    26.0000     4.0000     9.0000    22.0000    26.0000    10.0000     5.0000    20.0000     3.0006     1.0000    -0.4996    20.7740    41.5369     1.3747    14.4503    14.4501     1.7100     0.0000     1.0000     0.1997     0.200
     76     0.6665     0.6665     0.6250     0.0002     30.000   1296.000 225659.000     32.704    41.5367    76.6295   -30.2745    -1.9995     0.0009    26.0000     4.0000     9.0000    22.0000    26.0000    10.0000     5.0000    20.0000     3.0006     1.0000    -0.4995    20.7740    41.5369     1.3792    14.4503    14.4501     1.7104     0.0000     1.0000     0.1997     0.200
     77     0.6666     0.6666     0.6300     0.0001     30.000   1319.000 226329.000     32.801    41.5367    76.8007   -30.3767    -1.9995     0.0009    26.0000     4.0000     9.0000    22.0000    26.0000    10.0000     5.0000    20.0000     3.0006     1.0000    -0.4996    20.7740    41.5369     1.3837    14.4503    14.4501     1.7105     0.0000     1.0000     0.1994     0.200
     78     0.6666     0.6666     0.6351     0.0001     30.000   1293.000 225169.000     32.633    41.5367    76.9718   -30.4829    -1.9995     0.0009    26.0000     4.0000     9.0000    22.0000    26.0000    10.0000     5.0000    20.0000     3.0006     1.0000    -0.4995    20.7740    41.5369     1.3884    14.4503    14.4501     1.7101     0.0000     1.0000     0.1994     0.200
     79     0.6665     0.6665     0.6400     0.0001     30.000   1271.000 226356.000     32.805    41.5367    77.1478   -30.5805    -1.9995     0.0009    26.0000     4.0000     9.0000    22.0000    26.0000    10.0000     5.0000    20.0000     3.0006     1.0000    -0.4996    20.7740    41.5369     1.3928    14.4503    14.4501     1.7095     0.0000     1.0000     0.1996     0.200
     80     0.6665     0.6665     0.6451     0.0001     30.000   1286.000 224922.000     32.597    41.5367    77.3170   -30.6882    -1.9995     0.0009    26.0000     4.0000     9.0000    22.0000    26.0000    10.0000     5.0000    20.0000     3.0006     1.0000    -0.4995    20.7740    41.5369     1.3976    14.4503    14.4501     1.7090     0.0000     1.0000     0.1996     0.200
     81     0.6666     0.6666     0.6500     0.0001     30.000   1260.000 224708.000     32.566    41.5367    77.4736   -30.7920    -1.9995     0.0009    26.0000     4.0000     9.0000    22.0000    26.0000    10.0000     5.0000    20.0000     3.0006     1.0000    -0.4995    20.7739    41.5369     1.4022    14.4503    14.4501     1.7087     0.0000     1.0000     0.1984     0.200
     82     0.6666     0.6666     0.6551     0.0001     30.000   1211.000 224607.000     32.552    41.5367    77.6460   -30.8966    -1.9995     0.0009    26.0000     4.0000     9.0000    22.0000    26.0000    10.0000     5.0000    20.0000     3.0006     1.0000    -0.4995    20.7739    41.5369     1.4068    14.4503    14.4502     1.7087     0.0000     1.0000     0.1984     0.200
     83     0.6665     0.6666     0.6601     0.0001     30.000   1309.000 225767.000     32.720    41.5367    77.8126   -31.0030    -1.9995     0.0009    26.0000     4.0000     9.0000    22.0000    26.0000    10.0000     5.0000    20.0000     3.0006     1.0000    -0.4995    20.7740    41.5369     1.4116    14.4503    14.4501     1.7088     0.0000     1.0000     0.2003     0.200
     84     0.6666     0.6666     0.6651     0.0001     30.000   1317.000 225625.000     32.699    41.5367    77.9715   -31.1076    -1.9995     0.0009    26.0000     4.0000     9.0000    22.0000    26.0000    10.0000     5.0000    20.0000     3.0006     1.0000    -0.4995    20.7739    41.5369     1.4162    14.4503    14.4502     1.7085     0.0000     1.0000     0.2003     0.200
     85     0.6665     0.6666     0.6701     0.0001     30.000   1277.000 225594.000     32.695    41.5367    78.1333   -31.2133    -1.9995     0.0009    26.0000     4.0000     9.0000    22.0000    26.0000    10.0000     5.0000    20.0000     3.0006     1.0000    -0.4996    20.7739    41.5369     1.4209    14.4503    14.4502     1.7087     0.0000     1.0000     0.2000     0.200
     86     0.6666     0.6666     0.6751     0.0001     30.000   1247.000 225844.000     32.731    41.5367    78.2878   -31.3207    -1.9995     0.0009    26.0000     4.0000     9.0000    22.0000    26.0000    10.0000     5.0000    20.0000     3.0006     1.0000    -0.4995    20.7739    41.5369     1.4257    14.4503    14.4502     1.7085     0.0000     1.0000     0.2000     0.200
     87     0.6665     0.6666     0.6800     0.0001     30.000   1229.000 225481.000     32.678    41.5367    78.4461   -31.4252    -1.9995     0.0009    26.0000     4.0000     9.0000    22.0000    26.0000    10.0000     5.0000    20.0000     3.0006     1.0000    -0.4996    20.7739    41.5369     1.4303    14.4503    14.4502     1.7085     0.0000     1.0000     0.2002     0.200
     88     0.6666     0.6666     0.6850     0.0001     30.000   1180.000 226226.000     32.786    41.5367    78.6006   -31.5335    -1.9995     0.0009    26.0000     4.0000     9.0000    22.0000    26.0000    10.0000     5.0000    20.0000     3.0006     1.0000    -0.4995    20.7739    41.5369     1.4351    14.4503    14.4501     1.7086     0.0000     1.0000     0.1992     0.200
     89     0.6665     0.6665     0.6901     0.0001     30.000   1342.000 226026.000     32.757    41.5367    78.7607   -31.6395    -1.9995     0.0009    26.0000     4.0000     9.0000    22.0000    26.0000    10.0000     5.0000    20.0000     3.0006     1.0000    -0.4996    20.7739    41.5369     1.4398    14.4503    14.4502     1.7085     0.0000     1.0000     0.1992     0.200
     90     0.6665     0.6666     0.6950     0.0001     30.000   1249.000 225384.000     32.664    41.5367    78.9064   -31.7482    -1.9995     0.0009    26.0000     4.0000     9.0000    22.0000    26.0000    10.0000     5.0000    20.0000     3.0006     1.0000    -0.4996    20.7739    41.5369     1.4446    14.4503    14.4501     1.7087     0.0000     1.0000     0.2003     0.200
     91     0.6665     0.6666     0.7000     0.0001     30.000   1240.000 225338.000     32.658    41.5367    79.0572   -31.8572    -1.9995     0.0009    26.0000     4.0000     9.0000    22.0000    26.0000    10.0000     5.0000    20.0000     3.0006     1.0000    -0.4996    20.7739    41.5369     1.4495    14.4503    14.4502     1.7086     0.0000     1.0000     0.2003     0.200
     92     0.6666     0.6666     0.7050     0.0001     30.000   1211.000 225676.000     32.707    41.5367    79.2058   -31.9676    -1.9995     0.0009    26.0000     4.0000     9.0000    22.0000    26.0000    10.0000     5.0000    20.0000     3.0005     1.0000    -0.4995    20.7739    41.5369     1.4543    14.4503    14.4502     1.7087     0.0000     1.0000     0.2002     0.200
     93     0.6665     0.6665     0.7101     0.0001     30.000   1232.000 225497.000     32.681    41.5367    79.3601   -32.0774    -1.9995     0.0009    26.0000     4.0000     9.0000    22.0000    26.0000    10.0000     5.0000    20.0000     3.0006     1.0000    -0.4996    20.7739    41.5369     1.4592    14.4503    14.4501     1.7084     0.0000     1.0000     0.2002     0.200
     94     0.6665     0.6666     0.7150     0.0001     30.000   1196.000 224203.000     32.493    41.5367    79.4986   -32.1859    -1.9995     0.0009    26.0000     4.0000     9.0000    22.0000    26.0000    10.0000     5.0000    20.0000     3.0006     1.0000    -0.4995    20.7739    41.5369     1.4640    14.4503    14.4502     1.7084     0.0000     1.0000     0.1991     0.200
     95     0.6665     0.6665     0.7201     0.0001     30.000   1299.000 225262.000     32.647    41.5367    79.6465   -32.2978    -1.9995     0.0009    26.0000     4.0000     9.0000    22.0000    26.0000    10.0000     5.0000    20.0000     3.0006     1.0000    -0.4995    20.7739    41.5369     1.4690    14.4503    14.4501     1.7084     0.0000     1.0000     0.1991     0.200
     96     0.6666     0.6666     0.7250     0.0001     30.000   1265.000 224985.000     32.607    41.5367    79.7852   -32.4090    -1.9995     0.0009    26.0000     4.0000     9.0000    22.0000    26.0000    10.0000     5.0000    20.0000     3.0006     1.0000    -0.4996    20.7739    41.5369     1.4739    14.4503    14.4501     1.7082     0.0000     1.0000     0.2004     0.200
     97     0.6666     0.6666     0.7300     0.0001     30.000   1257.000 225618.000     32.698    41.5367    79.9263   -32.5208    -1.9995     0.0009    26.0000     4.0000     9.0000    22.0000    26.0000    10.0000     5.0000    20.0000     3.0006     1.0000    -0.4996    20.7739    41.5369     1.4788    14.4503    14.4502     1.7081     0.0000     1.0000     0.2004     0.200
     98     0.6666     0.6666     0.7351     0.0001     30.000   1234.000 225255.000     32.646    41.5367    80.0662   -32.6338    -1.9995     0.0009    26.0000     4.0000     9.0000    22.0000    26.0000    10.0000     5.0000    20.0000     3.0006     1.0000    -0.4995    20.7739    41.5369     1.4838    14.4503    14.4501     1.7082     0.0000     1.0000     0.2003     0.200
     99     0.6666     0.6666     0.7401     0.0001     30.000   1291.000 224903.000     32.595    41.5367    80.2043   -32.7461    -1.9995     0.0009    26.0000     4.0000     9.0000    22.0000    26.0000    10.0000     5.0000    20.0000     3.0006     1.0000    -0.4996    20.7739    41.5369     1.4888    14.4503    14.4501     1.7080     0.0000     1.0000     0.2003     0.200
    100     0.6665     0.6666     0.7450     0.0001     30.000   1270.000 225547.000     32.688    41.5367    80.3403   -32.8552    -1.9995     0.0009    26.0000     4.0000     9.0000    22.0000    26.0000    10.0000     5.0000    20.0000     3.0006     1.0000    -0.4995    20.7739    41.5369     1.4936    14.4503    14.4501     1.7082     0.0000     1.0000     0.2004     0.200
    101     0.6666     0.6666     0.7500     0.0001     30.000   1259.000 225930.000     32.743    41.5367    80.4756   -32.9691    -1.9995     0.0009    26.0000     4.0000     9.0000    22.0000    26.0000    10.0000     5.0000    20.0000     3.0006     1.0000    -0.4995    20.7739    41.5369     1.4987    14.4503    14.4501     1.7082     0.0000     1.0000     0.2004     0.200
    102     0.6665     0.6666     0.7550     0.0002     30.000   1267.000 225951.000     32.747    41.5367    80.6093   -33.0819    -1.9995     0.0009    26.0000     4.0000     9.0000    22.0000    26.0000    10.0000     5.0000    20.0000     3.0005     1.0000    -0.4995    20.7739    41.5369     1.5037    14.4503    14.4501     1.7080     0.0000     1.0000     0.2002     0.200
    103     0.6665     0.6666     0.7599     0.0001     30.000   1212.000 225810.000     32.726    41.5367    80.7410   -33.1943    -1.9995     0.0009    26.0000     4.0000     9.0000    22.0000    26.0000    10.0000     5.0000    20.0000     3.0006     1.0000    -0.4995    20.7739    41.5369     1.5086    14.4503    14.4501     1.7081     0.0000     1.0000     0.2002     0.200
    104     0.6666     0.6666     0.7650     0.0001     30.000   1266.000 225399.000     32.667    41.5367    80.8721   -33.3110    -1.9995     0.0009    26.0000     4.0000     9.0000    22.0000    26.0000    10.0000     5.0000    20.0000     3.0006     1.0000    -0.4996    20.7739    41.5369     1.5138    14.4503    14.4501     1.7080     0.0000     1.0000     0.2002     0.200
    105     0.6665     0.6666     0.7700     0.0001     30.000   1196.000 225169.000     32.633    41.5367    81.0012   -33.4235    -1.9995     0.0009    26.0000     4.0000     9.0000    22.0000    26.0000    10.0000     5.0000    20.0000     3.0006     1.0000    -0.4995    20.7739    41.5369     1.5187    14.4503    14.4501     1.7070     0.0000     1.0000     0.1998     0.200
    106     0.6666     0.6666     0.7750     0.0001     30.000   1293.000 225122.000     32.626    41.5367    81.1298   -33.5408    -1.9995     0.0009    26.0000     4.0000     9.0000    22.0000    26.0000    10.0000     5.0000    20.0000     3.0006     1.0000    -0.4995    20.7739    41.5369     1.5239    14.4503    14.4501     1.7067     0.0000     1.0000     0.1998     0.200
    107     0.6666     0.6666     0.7800     0.0001     30.000   1241.000 225958.000     32.748    41.5367    81.2551   -33.6558    -1.9995     0.0009    26.0000     4.0000     9.0000    22.0000    26.0000    10.0000     5.0000    20.0000     3.0005     1.0000    -0.4995    20.7739    41.5369     1.5290    14.4503    14.4501     1.7069     0.0000     1.0000     0.2003     0.200
    108     0.6666     0.6666     0.7850     0.0001     30.000   1277.000 225101.000     32.623    41.5367    81.3801   -33.7716    -1.9995     0.0009    26.0000     4.0000     9.0000    22.0000    26.0000    10.0000     5.0000    20.0000     3.0006     1.0000    -0.4996    20.7739    41.5369     1.5341    14.4503    14.4501     1.7063     0.0000     1.0000     0.2003     0.200
    109     0.6666     0.6666     0.7900     0.0001     30.000   1271.000 225223.000     32.641    41.5367    81.5037   -33.8888    -1.9995     0.0009    26.0000     4.0000     9.0000    22.0000    26.0000    10.0000     5.0000    20.0000     3.0005     1.0000    -0.4995    20.7739    41.5369     1.5393    14.4503    14.4501     1.7059     0.0000     1.0000     0.1999     0.200
    110     0.6666     0.6666     0.7951     0.0002     30.000   1211.000 226106.000     32.769    41.5367    81.6258   -34.0062    -1.9995     0.0009    26.0000     4.0000     9.0000    22.0000    26.0000    10.0000     5.0000    20.0000     3.0006     1.0000    -0.4995    20.7739    41.5369     1.5444    14.4503    14.4501     1.7056     0.0000     1.0000     0.1999     0.200
    111     0.6666     0.6666     0.8001     0.0001     30.000   1269.000 224784.000     32.577    41.5367    81.7470   -34.1234    -1.9995     0.0009    26.0000     4.0000     9.0000    22.0000    26.0000    10.0000     5.0000    20.0000     3.0006     1.0000    -0.4995    20.7739    41.5369     1.5496    14.4503    14.4501     1.7056     0.0000     1.0000     0.1996     0.200
    112     0.6666     0.6666     0.8050     0.0001     30.000   1234.000 225011.000     32.610    41.5367    81.8660   -34.2405    -1.9995     0.0009    26.0000     4.0000     9.0000    22.0000    26.0000    10.0000     5.0000    20.0000     3.0006     1.0000    -0.4995    20.7739    41.5369     1.5548    14.4503    14.4501     1.7054     0.0000     1.0000     0.1996     0.200
    113     0.6666     0.6666     0.8101     0.0002     30.000   1241.000 225459.000     32.675    41.5367    81.9848   -34.3584    -1.9995     0.0009    26.0000     4.0000     9.0000    22.0000    26.0000    10.0000     5.0000    20.0000     3.0005     1.0000    -0.4994    20.7739    41.5369     1.5600    14.4503    14.4501     1.7053     0.0000     1.0000     0.2001     0.200
    114     0.6666     0.6666     0.8150     0.0002     30.000   1226.000 225189.000     32.636    41.5367    82.1009   -34.4762    -1.9995     0.0009    26.0000     4.0000     9.0000    22.0000    26.0000    10.0000     5.0000    20.0000     3.0005     1.0000    -0.4993    20.7739    41.5369     1.5651    14.4503    14.4501     1.7052     0.0000     1.0000     0.2001     0.200
    115     0.6666     0.6666     0.8200     0.0001     30.000   1224.000 224146.000     32.485    41.5367    82.2164   -34.5940    -1.9995     0.0009    26.0000     4.0000     9.0000    22.0000    26.0000    10.0000     5.0000    20.0000     3.0005     1.0000    -0.4995    20.7739    41.5369     1.5703    14.4503    14.4501     1.7052     0.0000     1.0000     0.2002     0.200
    116     0.6666     0.6666     0.8250     0.0001     30.000   1213.000 224947.000     32.601    41.5367    82.3299   -34.7115    -1.9995     0.0009    26.0000     4.0000     9.0000    22.0000    26.0000    10.0000     5.0000    20.0000     3.0005     1.0000    -0.4995    20.7739    41.5369     1.5755    14.4503    14.4501     1.7054     0.0000     1.0000     0.2002     0.200
    117     0.6665     0.6666     0.8300     0.0001     30.000   1215.000 224555.000     32.544    41.5367    82.4434   -34.8304    -1.9995     0.0009    26.0000     4.0000     9.0000    22.0000    26.0000    10.0000     5.0000    20.0000     3.0005     1.0000    -0.4994    20.7739    41.5369     1.5807    14.4503    14.4502     1.7053     0.0000     1.0000     0.1999     0.200
    118     0.6665     0.6666     0.8349     0.0001     30.000   1224.000 225468.000     32.677    41.5367    82.5534   -34.9493    -1.9995     0.0009    26.0000     4.0000     9.0000    22.0000    26.0000    10.0000     5.0000    20.0000     3.0006     1.0000    -0.4994    20.7739    41.5369     1.5860    14.4503    14.4501     1.7051     0.0000     1.0000     0.1999     0.200
    119     0.6666     0.6666     0.8400     0.0001     30.000   1156.000 225079.000     32.620    41.5367    82.6635   -35.0704    -1.9995     0.0009    26.0000     4.0000     9.0000    22.0000    26.0000    10.0000     5.0000    20.0000     3.0006     1.0000    -0.4994    20.7739    41.5369     1.5913    14.4503    14.4502     1.7053     0.0000     1.0000     0.1999     0.200
    120     0.6666     0.6666     0.8450     0.0001     30.000   1210.000 224865.000     32.589    41.5367    82.7730   -35.1911    -1.9995     0.0009    26.0000     4.0000     9.0000    22.0000    26.0000    10.0000     5.0000    20.0000     3.0005     1.0000    -0.4994    20.7739    41.5369     1.5966    14.4503    14.4502     1.7055     0.0000     1.0000     0.1988     0.200
    121     0.6665     0.6666     0.8500     0.0001     30.000   1175.000 224349.000     32.514    41.5367    82.8802   -35.3108    -1.9995     0.0009    26.0000     4.0000     9.0000    22.0000    26.0000    10.0000     5.0000    20.0000     3.0006     1.0000    -0.4995    20.7739    41.5369     1.6018    14.4503    14.4502     1.7054     0.0000     1.0000     0.1988     0.200
    122     0.6666     0.6666     0.8551     0.0001     30.000   1221.000 225169.000     32.633    41.5367    82.9860   -35.4349    -1.9995     0.0009    26.0000     4.0000     9.0000    22.0000    26.0000    10.0000     5.0000    20.0000     3.0005     1.0000    -0.4995    20.7738    41.5369     1.6073    14.4503    14.4502     1.7055     0.0000     1.0000     0.2003     0.200
    123     0.6666     0.6666     0.8601     0.0001     30.000   1198.000 224734.000     32.570    41.5367    83.0913   -35.5563    -1.9995     0.0009    26.0000     4.0000     9.0000    22.0000    26.0000    10.0000     5.0000    20.0000     3.0006     1.0000    -0.4995    20.7739    41.5369     1.6126    14.4503    14.4501     1.7055     0.0000     1.0000     0.2003     0.200
    124     0.6666     0.6666     0.8651     0.0001     30.000   1186.000 225078.000     32.620    41.5367    83.1945   -35.6793    -1.9995     0.0009    26.0000     4.0000     9.0000    22.0000    26.0000    10.0000     5.0000    20.0000     3.0005     1.0000    -0.4995    20.7739    41.5369     1.6180    14.4503    14.4501     1.7054     0.0000     1.0000     0.1996     0.200
    125     0.6666     0.6666     0.8701     0.0001     30.000   1209.000 225454.000     32.674    41.5367    83.2978   -35.8008    -1.9995     0.0009    26.0000     4.0000     9.0000    22.0000    26.0000    10.0000     5.0000    20.0000     3.0005     1.0000    -0.4995    20.7738    41.5369     1.6233    14.4503    14.4502     1.7056     0.0000     1.0000     0.1996     0.200
    126     0.6666     0.6666     0.8751     0.0001     30.000   1185.000 224823.000     32.583    41.5367    83.3985   -35.9248    -1.9995     0.0009    26.0000     4.0000     9.0000    22.0000    26.0000    10.0000     5.0000    20.0000     3.0005     1.0000    -0.4994    20.7738    41.5369     1.6288    14.4503    14.4501     1.7057     0.0000     1.0000     0.2000     0.200
    127     0.6666     0.6666     0.8801     0.0001     30.000   1201.000 225553.000     32.689    41.5367    83.4981   -36.0454    -1.9995     0.0009    26.0000     4.0000     9.0000    22.0000    26.0000    10.0000     5.0000    20.0000     3.0005     1.0000    -0.4995    20.7739    41.5369     1.6341    14.4503    14.4502     1.7056     0.0000     1.0000     0.2000     0.200
    128     0.6666     0.6666     0.8851     0.0001     30.000   1146.000 224224.000     32.496    41.5367    83.5966   -36.1680    -1.9995     0.0009    26.0000     4.0000     9.0000    22.0000    26.0000    10.0000     5.0000    20.0000     3.0005     1.0000    -0.4995    20.7739    41.5369     1.6394    14.4503    14.4502     1.7055     0.0000     1.0000     0.1990     0.200
    129     0.6666     0.6666     0.8900     0.0001     30.000   1219.000 225277.000     32.649    41.5367    83.6936   -36.2908    -1.9995     0.0009    26.0000     4.0000     9.0000    22.0000    26.0000    10.0000     5.0000    20.0000     3.0005     1.0000    -0.4994    20.7739    41.5369     1.6448    14.4503    14.4502     1.7057     0.0000     1.0000     0.1990     0.200
    130     0.6666     0.6666     0.8950     0.0001     30.000   1177.000 225519.000     32.684    41.5367    83.7901   -36.4134    -1.9995     0.0009    26.0000     4.0000     9.0000    22.0000    26.0000    10.0000     5.0000    20.0000     3.0005     1.0000    -0.4994    20.7738    41.5369     1.6502    14.4503    14.4502     1.7057     0.0000     1.0000     0.1997     0.200
    131     0.6666     0.6666     0.9000     0.0001     30.000   1176.000 225323.000     32.656    41.5367    83.8849   -36.5368    -1.9995     0.0009    26.0000     4.0000     9.0000    22.0000    26.0000    10.0000     5.0000    20.0000     3.0005     1.0000    -0.4993    20.7738    41.5369     1.6556    14.4503    14.4502     1.7057     0.0000     1.0000     0.1997     0.200
    132     0.6666     0.6666     0.9050     0.0001     30.000   1188.000 224558.000     32.545    41.5367    83.9794   -36.6619    -1.9995     0.0009    26.0000     4.0000     9.0000    22.0000    26.0000    10.0000     5.0000    20.0000     3.0006     1.0000    -0.4994    20.7739    41.5369     1.6611    14.4503    14.4502     1.7057     0.0000     1.0000     0.2002     0.200
    133     0.6666     0.6666     0.9100     0.0001     30.000   1232.000 225239.000     32.643    41.5367    84.0716   -36.7861    -1.9995     0.0009    26.0000     4.0000     9.0000    22.0000    26.0000    10.0000     5.0000    20.0000     3.0005     1.0000    -0.4993    20.7739    41.5369     1.6665    14.4503    14.4502     1.7057     0.0000     1.0000     0.2002     0.200
    134     0.6665     0.6666     0.9150     0.0001     30.000   1207.000 225665.000     32.705    41.5367    84.1634   -36.9100    -1.9995     0.0009    26.0000     4.0000     9.0000    22.0000    26.0000    10.0000     5.0000    20.0000     3.0006     1.0000    -0.4994    20.7739    41.5369     1.6719    14.4503    14.4502     1.7058     0.0000     1.0000     0.1987     0.200
    135     0.6666     0.6666     0.9200     0.0001     30.000   1196.000 225159.000     32.632    41.5367    84.2537   -37.0373    -1.9995     0.0009    26.0000     4.0000     9.0000    22.0000    26.0000    10.0000     5.0000    20.0000     3.0005     1.0000    -0.4994    20.7738    41.5369     1.6775    14.4503    14.4502     1.7057     0.0000     1.0000     0.1987     0.200
    136     0.6665     0.6666     0.9250     0.0001     30.000   1226.000 224532.000     32.541    41.5367    84.3430   -37.1612    -1.9995     0.0009    26.0000     4.0000     9.0000    22.0000    26.0000    10.0000     5.0000    20.0000     3.0005     1.0000    -0.4992    20.7738    41.5369     1.6829    14.4503    14.4502     1.7058     0.0000     1.0000     0.1996     0.200
    137     0.6666     0.6666     0.9300     0.0001     30.000   1169.000 225278.000     32.649    41.5367    84.4304   -37.2895    -1.9995     0.0009    26.0000     4.0000     9.0000    22.0000    26.0000    10.0000     5.0000    20.0000     3.0005     1.0000    -0.4994    20.7738    41.5369     1.6885    14.4503    14.4502     1.7059     0.0000     1.0000     0.1993     0.200
    138     0.6666     0.6666     0.9351     0.0001     30.000   1169.000 225961.000     32.748    41.5367    84.5171   -37.4166    -1.9995     0.0009    26.0000     4.0000     9.0000    22.0000    26.0000    10.0000     5.0000    20.0000     3.0005     1.0000    -0.4992    20.7738    41.5369     1.6941    14.4503    14.4502     1.7059     0.0000     1.0000     0.1993     0.200
    139     0.6666     0.6666     0.9401     0.0001     30.000   1250.000 225269.000     32.648    41.5367    84.6027   -37.5434    -1.9995     0.0009    26.0000     4.0000     9.0000    22.0000    26.0000    10.0000     5.0000    20.0000     3.0006     1.0000    -0.4993    20.7738    41.5369     1.6996    14.4503    14.4502     1.7059     0.0000     1.0000     0.1987     0.200
    140     0.6666     0.6666     0.9451     0.0001     30.000   1160.000 225269.000     32.648    41.5367    84.6876   -37.6709    -1.9995     0.0009    26.0000     4.0000     9.0000    22.0000    26.0000    10.0000     5.0000    20.0000     3.0005     1.0000    -0.4992    20.7738    41.5369     1.7051    14.4503    14.4502     1.7061     0.0000     1.0000     0.1987     0.200
    141     0.6666     0.6666     0.9501     0.0001     30.000   1209.000 224774.000     32.576    41.5367    84.7705   -37.7974    -1.9995     0.0009    26.0000     4.0000     9.0000    22.0000    26.0000    10.0000     5.0000    20.0000     3.0006     1.0000    -0.4992    20.7738    41.5369     1.7107    14.4503    14.4502     1.7063     0.0000     1.0000     0.1996     0.200
    142     0.6666     0.6666     0.9550     0.0001     30.000   1154.000 225691.000     32.709    41.5367    84.8535   -37.9234    -1.9995     0.0009    26.0000     4.0000     9.0000    22.0000    26.0000    10.0000     5.0000    20.0000     3.0005     1.0000    -0.4992    20.7738    41.5369     1.7162    14.4503    14.4502     1.7064     0.0000     1.0000     0.1996     0.200
    143     0.6666     0.6666     0.9600     0.0001     30.000   1221.000 225620.000     32.699    41.5367    84.9346   -38.0505    -1.9995     0.0009    26.0000     4.0000     9.0000    22.0000    26.0000    10.0000     5.0000    20.0000     3.0005     1.0000    -0.4992    20.7738    41.5369     1.7217    14.4503    14.4502     1.7065     0.0000     1.0000     0.1991     0.200
    144     0.6666     0.6666     0.9650     0.0001     30.000   1176.000 225185.000     32.636    41.5367    85.0150   -38.1794    -1.9995     0.0009    26.0000     4.0000     9.0000    22.0000    26.0000    10.0000     5.0000    20.0000     3.0005     1.0000    -0.4992    20.7738    41.5369     1.7273    14.4503    14.4502     1.7065     0.0000     1.0000     0.1991     0.200
    145     0.6665     0.6666     0.9700     0.0001     30.000   1196.000 225603.000     32.696    41.5367    85.0943   -38.3068    -1.9995     0.0009    26.0000     4.0000     9.0000    22.0000    26.0000    10.0000     5.0000    20.0000     3.0005     1.0000    -0.4992    20.7739    41.5369     1.7329    14.4503    14.4502     1.7066     0.0000     1.0000     0.2001     0.200
    146     0.6666     0.6666     0.9750     0.0001     30.000   1208.000 225593.000     32.695    41.5367    85.1722   -38.4364    -1.9995     0.0009    26.0000     4.0000     9.0000    22.0000    26.0000    10.0000     5.0000    20.0000     3.0005     1.0000    -0.4993    20.7738    41.5369     1.7385    14.4503    14.4502     1.7066     0.0000     1.0000     0.2001     0.200
    147     0.6666     0.6666     0.9800     0.0001     30.000   1147.000 225253.000     32.645    41.5367    85.2486   -38.5663    -1.9995     0.0009    26.0000     4.0000     9.0000    22.0000    26.0000    10.0000     5.0000    20.0000     3.0005     1.0000    -0.4992    20.7738    41.5369     1.7442    14.4503    14.4502     1.7068     0.0000     1.0000     0.2000     0.200
    148     0.6666     0.6666     0.9850     0.0001     30.000   1176.000 225437.000     32.672    41.5367    85.3247   -38.6945    -1.9995     0.0009    26.0000     4.0000     9.0000    22.0000    26.0000    10.0000     5.0000    20.0000     3.0005     1.0000    -0.4992    20.7738    41.5369     1.7497    14.4503    14.4502     1.7068     0.0000     1.0000     0.2000     0.200
    149     0.6666     0.6666     0.9900     0.0001     30.000   1214.000 224515.000     32.538    41.5367    85.3991   -38.8244    -1.9995     0.0009    26.0000     4.0000     9.0000    22.0000    26.0000    10.0000     5.0000    20.0000     3.0005     1.0000    -0.4992    20.7738    41.5369     1.7554    14.4503    14.4502     1.7067     0.0000     1.0000     0.1987     0.200
    150     0.6666     0.6666     0.9951     0.0001     30.000   1153.000 225126.000     32.627    41.5367    85.4731   -38.9555    -1.9995     0.0009    26.0000     4.0000     9.0000    22.0000    26.0000    10.0000     5.0000    20.0000     3.0005     1.0000    -0.4993    20.7738    41.5369     1.7611    14.4503    14.4502     1.7069     0.0000     1.0000     0.1987     0.200
    151     0.6666     0.6666     1.0001     0.0001     30.000   1226.000 224338.000     32.513    41.5367    85.5461   -39.0861    -1.9995     0.0009    26.0000     4.0000     9.0000    22.0000    26.0000    10.0000     5.0000    20.0000     3.0005     1.0000    -0.4994    20.7738    41.5369     1.7668    14.4503    14.4502     1.7069     0.0000     1.0000     0.2002     0.200
    152     0.6666     0.6666     1.0051     0.0001     30.000   1145.000 224699.000     32.565    41.5367    85.6178   -39.2168    -1.9995     0.0009    26.0000     4.0000     9.0000    22.0000    26.0000    10.0000     5.0000    20.0000     3.0005     1.0000    -0.4992    20.7739    41.5369     1.7724    14.4503    14.4502     1.7069     0.0000     1.0000     0.2002     0.200
    153     0.6666     0.6666     1.0101     0.0001     30.000   1127.000 224745.000     32.572    41.5367    85.6884   -39.3481    -1.9995     0.0009    26.0000     4.0000     9.0000    22.0000    26.0000    10.0000     5.0000    20.0000     3.0005     1.0000    -0.4992    20.7738    41.5369     1.7781    14.4503    14.4502     1.7074     0.0000     1.0000     0.1992     0.200
    154     0.6665     0.6666     1.0150     0.0001     30.000   1166.000 224820.000     32.583    41.5367    85.7584   -39.4752    -1.9995     0.0009    26.0000     4.0000     9.0000    22.0000    26.0000    10.0000     5.0000    20.0000     3.0005     1.0000    -0.4993    20.7738    41.5369     1.7836    14.4503    14.4502     1.7076     0.0000     1.0000     0.2002     0.200
    155     0.6666     0.6666     1.0200     0.0001     30.000   1201.000 225959.000     32.748    41.5367    85.8275   -39.6074    -1.9995     0.0009    26.0000     4.0000     9.0000    22.0000    26.0000    10.0000     5.0000    20.0000     3.0005     1.0000    -0.4992    20.7738    41.5369     1.7894    14.4503    14.4502     1.7079     0.0000     1.0000     0.2002     0.200
    156     0.6666     0.6666     1.0250     0.0001     30.000   1169.000 225069.000     32.619    41.5367    85.8947   -39.7381    -1.9995     0.0009    26.0000     4.0000     9.0000    22.0000    26.0000    10.0000     5.0000    20.0000     3.0005     1.0000    -0.4992    20.7738    41.5369     1.7950    14.4503    14.4502     1.7079     0.0000     1.0000     0.1993     0.200
    157     0.6666     0.6666     1.0300     0.0001     30.000   1130.000 224739.000     32.571    41.5367    85.9622   -39.8711    -1.9995     0.0009    26.0000     4.0000     9.0000    22.0000    26.0000    10.0000     5.0000    20.0000     3.0005     1.0000    -0.4994    20.7738    41.5369     1.8008    14.4503    14.4502     1.7080     0.0000     1.0000     0.1993     0.200
    158     0.6665     0.6665     1.0350     0.0001     30.000   1206.000 224166.000     32.488    41.5367    86.0283   -40.0016    -1.9995     0.0009    26.0000     4.0000     9.0000    22.0000    26.0000    10.0000     5.0000    20.0000     3.0005     1.0000    -0.4992    20.7738    41.5368     1.8065    14.4503    14.4502     1.7079     0.0000     1.0000     0.2000     0.200
    159     0.6665     0.6666     1.0400     0.0001     30.000   1121.000 224475.000     32.533    41.5367    86.0930   -40.1353    -1.9995     0.0009    26.0000     4.0000     9.0000    22.0000    26.0000    10.0000     5.0000    20.0000     3.0005     1.0000    -0.4993    20.7738    41.5369     1.8122    14.4503    14.4502     1.7080     0.0000     1.0000     0.2000     0.200
    160     0.6665     0.6666     1.0450     0.0001     30.000   1201.000 225560.000     32.690    41.5367    86.1565   -40.2678    -1.9995     0.0009    26.0000     4.0000     9.0000    22.0000    26.0000    10.0000     5.0000    20.0000     3.0005     1.0000    -0.4992    20.7738    41.5369     1.8180    14.4503    14.4502     1.7080     0.0000     1.0000     0.1986     0.200
    161     0.6666     0.6666     1.0500     0.0001     30.000   1201.000 224733.000     32.570    41.5367    86.2186   -40.4028    -1.9995     0.0009    26.0000     4.0000     9.0000    22.0000    26.0000    10.0000     5.0000    20.0000     3.0005     1.0000    -0.4993    20.7738    41.5368     1.8238    14.4503    14.4502     1.7080     0.0000     1.0000     0.1986     0.200
    162     0.6666     0.6666     1.0551     0.0001     30.000   1178.000 225003.000     32.609    41.5367    86.2815   -40.5382    -1.9995     0.0009    26.0000     4.0000     9.0000    22.0000    26.0000    10.0000     5.0000    20.0000     3.0005     1.0000    -0.4991    20.7738    41.5368     1.8297    14.4503    14.4502     1.7078     0.0000     1.0000     0.2005     0.200
    163     0.6665     0.6665     1.0599     0.0001     30.000   1142.000 225357.000     32.660    41.5367    86.3425   -40.6651    -1.9995     0.0009    26.0000     4.0000     9.0000    22.0000    26.0000    10.0000     5.0000    20.0000     3.0005     1.0000    -0.4992    20.7738    41.5368     1.8352    14.4503    14.4502     1.7081     0.0000     1.0000     0.2005     0.200
    164     0.6666     0.6666     1.0651     0.0001     30.000   1076.000 224722.000     32.568    41.5367    86.4024   -40.8053    -1.9995     0.0009    26.0000     4.0000     9.0000    22.0000    26.0000    10.0000     5.0000    20.0000     3.0005     1.0000    -0.4992    20.7738    41.5368     1.8412    14.4503    14.4502     1.7081     0.0000     1.0000     0.2003     0.200
    165     0.6666     0.6666     1.0701     0.0001     30.000   1189.000 225796.000     32.724    41.5367    86.4614   -40.9382    -1.9995     0.0009    26.0000     4.0000     9.0000    22.0000    26.0000    10.0000     5.0000    20.0000     3.0005     1.0000    -0.4992    20.7738    41.5368     1.8470    14.4503    14.4502     1.7080     0.0000     1.0000     0.2003     0.200
    166     0.6666     0.6666     1.0750     0.0001     30.000   1157.000 223443.000     32.383    41.5367    86.5187   -41.0720    -1.9995     0.0009    26.0000     4.0000     9.0000    22.0000    26.0000    10.0000     5.0000    20.0000     3.0005     1.0000    -0.4991    20.7738    41.5368     1.8527    14.4503    14.4502     1.7083     0.0000     1.0000     0.2002     0.200
    167     0.6665     0.6666     1.0800     0.0001     30.000   1162.000 224531.000     32.541    41.5367    86.5769   -41.2042    -1.9995     0.0009    26.0000     4.0000     9.0000    22.0000    26.0000    10.0000     5.0000    20.0000     3.0005     1.0000    -0.4992    20.7738    41.5368     1.8584    14.4503    14.4502     1.7084     0.0000     1.0000     0.2002     0.200
    168     0.6666     0.6666     1.0850     0.0001     30.000   1182.000 224064.000     32.473    41.5367    86.6330   -41.3386    -1.9995     0.0009    26.0000     4.0000     9.0000    22.0000    26.0000    10.0000     5.0000    20.0000     3.0005     1.0000    -0.4992    20.7738    41.5368     1.8642    14.4503    14.4502     1.7083     0.0000     1.0000     0.2000     0.200
    169     0.6665     0.6666     1.0899     0.0001     30.000   1115.000 224562.000     32.545    41.5367    86.6881   -41.4728    -1.9995     0.0009    26.0000     4.0000     9.0000    22.0000    26.0000    10.0000     5.0000    20.0000     3.0005     1.0000    -0.4991    20.7738    41.5368     1.8700    14.4503    14.4502     1.7083     0.0000     1.0000     0.1991     0.200
    170     0.6666     0.6666     1.0950     0.0001     30.000   1130.000 225468.000     32.677    41.5367    86.7430   -41.6096    -1.9995     0.0009    26.0000     4.0000     9.0000    22.0000    26.0000    10.0000     5.0000    20.0000     3.0005     1.0000    -0.4992    20.7738    41.5368     1.8759    14.4503    14.4502     1.7084     0.0000     1.0000     0.1991     0.200
    171     0.6665     0.6666     1.0999     0.0001     30.000   1159.000 224224.000     32.496    41.5367    86.7971   -41.7435    -1.9995     0.0009    26.0000     4.0000     9.0000    22.0000    26.0000    10.0000     5.0000    20.0000     3.0005     1.0000    -0.4991    20.7738    41.5368     1.8817    14.4503    14.4502     1.7084     0.0000     1.0000     0.2003     0.200
    172     0.6666     0.6666     1.1051     0.0001     30.000   1183.000 224846.000     32.586    41.5367    86.8495   -41.8835    -1.9995     0.0009    26.0000     4.0000     9.0000    22.0000    26.0000    10.0000     5.0000    20.0000     3.0005     1.0000    -0.4992    20.7738    41.5368     1.8877    14.4503    14.4502     1.7084     0.0000     1.0000     0.2003     0.200
    173     0.6666     0.6666     1.1101     0.0001     30.000   1164.000 226167.000     32.778    41.5367    86.9019   -42.0199    -1.9995     0.0009    26.0000     4.0000     9.0000    22.0000    26.0000    10.0000     5.0000    20.0000     3.0005     1.0000    -0.4991    20.7738    41.5368     1.8936    14.4503    14.4502     1.7085     0.0000     1.0000     0.2001     0.200
    174     0.6666     0.6666     1.1151     0.0001     30.000   1153.000 225787.000     32.723    41.5367    86.9533   -42.1568    -1.9995     0.0009    26.0000     4.0000     9.0000    22.0000    26.0000    10.0000     5.0000    20.0000     3.0005     1.0000    -0.4991    20.7738    41.5368     1.8995    14.4503    14.4502     1.7086     0.0000     1.0000     0.2001     0.200
    175     0.6666     0.6666     1.1201     0.0001     30.000   1136.000 226405.000     32.812    41.5367    87.0034   -42.2933    -1.9995     0.0009    26.0000     4.0000     9.0000    22.0000    26.0000    10.0000     5.0000    20.0000     3.0005     1.0000    -0.4991    20.7738    41.5368     1.9053    14.4503    14.4502     1.7086     0.0000     1.0000     0.2002     0.200
    176     0.6666     0.6666     1.1252     0.0001     30.000   1194.000 225915.000     32.741    41.5367    87.0532   -42.4323    -1.9995     0.0009    26.0000     4.0000     9.0000    22.0000    26.0000    10.0000     5.0000    20.0000     3.0005     1.0000    -0.4991    20.7738    41.5368     1.9113    14.4503    14.4502     1.7086     0.0000     1.0000     0.2002     0.200
    177     0.6666     0.6666     1.1301     0.0001     30.000   1205.000 224739.000     32.571    41.5367    87.1011   -42.5678    -1.9995     0.0009    26.0000     4.0000     9.0000    22.0000    26.0000    10.0000     5.0000    20.0000     3.0005     1.0000    -0.4992    20.7738    41.5368     1.9171    14.4503    14.4502     1.7086     0.0000     1.0000     0.1999     0.200
    178     0.6666     0.6666     1.1351     0.0001     30.000   1167.000 225909.000     32.740    41.5367    87.1483   -42.7054    -1.9995     0.0009    26.0000     4.0000     9.0000    22.0000    26.0000    10.0000     5.0000    20.0000     3.0005     1.0000    -0.4992    20.7738    41.5369     1.9230    14.4503    14.4502     1.7087     0.0000     1.0000     0.1999     0.200
    179     0.6665     0.6666     1.1399     0.0001     30.000   1182.000 225726.000     32.714    41.5367    87.1957   -42.8380    -1.9995     0.0009    26.0000     4.0000     9.0000    22.0000    26.0000    10.0000     5.0000    20.0000     3.0005     1.0000    -0.4991    20.7738    41.5368     1.9287    14.4503    14.4502     1.7089     0.0000     1.0000     0.2003     0.200
    180     0.6666     0.6666     1.1451     0.0001     30.000   1111.000 225401.000     32.667    41.5367    87.2417   -42.9795    -1.9995     0.0009    26.0000     4.0000     9.0000    22.0000    26.0000    10.0000     5.0000    20.0000     3.0005     1.0000    -0.4991    20.7738    41.5368     1.9348    14.4503    14.4502     1.7088     0.0000     1.0000     0.2003     0.200
    181     0.6665     0.6666     1.1500     0.0001     30.000   1076.000 225083.000     32.621    41.5367    87.2872   -43.1152    -1.9995     0.0009    26.0000     4.0000     9.0000    22.0000    26.0000    10.0000     5.0000    20.0000     3.0005     1.0000    -0.4992    20.7738    41.5368     1.9406    14.4503    14.4502     1.7088     0.0000     1.0000     0.2004     0.200
    182     0.6665     0.6666     1.1550     0.0001     30.000   1194.000 225167.000     32.633    41.5367    87.3315   -43.2530    -1.9995     0.0009    26.0000     4.0000     9.0000    22.0000    26.0000    10.0000     5.0000    20.0000     3.0005     1.0000    -0.4991    20.7738    41.5368     1.9465    14.4503    14.4502     1.7088     0.0000     1.0000     0.2004     0.200
    183     0.6666     0.6666     1.1600     0.0001     30.000   1145.000 226352.000     32.805    41.5367    87.3746   -43.3925    -1.9995     0.0009    26.0000     4.0000     9.0000    22.0000    26.0000    10.0000     5.0000    20.0000     3.0005     1.0000    -0.4991    20.7738    41.5369     1.9525    14.4503    14.4502     1.7090     0.0000     1.0000     0.1995     0.200
    184     0.6665     0.6666     1.1650     0.0001     30.000   1130.000 225275.000     32.649    41.5367    87.4172   -43.5308    -1.9995     0.0009    26.0000     4.0000     9.0000    22.0000    26.0000    10.0000     5.0000    20.0000     3.0005     1.0000    -0.4991    20.7738    41.5369     1.9584    14.4503    14.4502     1.7088     0.0000     1.0000     0.1995     0.200
    185     0.6666     0.6666     1.1700     0.0001     30.000   1137.000 225039.000     32.614    41.5367    87.4588   -43.6716    -1.9995     0.0009    26.0000     4.0000     9.0000    22.0000    26.0000    10.0000     5.0000    20.0000     3.0005     1.0000    -0.4991    20.7738    41.5369     1.9645    14.4503    14.4502     1.7090     0.0000     1.0000     0.2005     0.200
    186     0.6666     0.6666     1.1750     0.0001     30.000   1163.000 225205.000     32.638    41.5367    87.5006   -43.8111    -1.9995     0.0009    26.0000     4.0000     9.0000    22.0000    26.0000    10.0000     5.0000    20.0000     3.0006     1.0000    -0.4991    20.7738    41.5369     1.9704    14.4503    14.4502     1.7088     0.0000     1.0000     0.2003     0.200
    187     0.6666     0.6666     1.1800     0.0001     30.000   1161.000 225375.000     32.663    41.5367    87.5403   -43.9512    -1.9995     0.0009    26.0000     4.0000     9.0000    22.0000    26.0000    10.0000     5.0000    20.0000     3.0005     1.0000    -0.4991    20.7738    41.5369     1.9764    14.4503    14.4502     1.7088     0.0000     1.0000     0.2003     0.200
    188     0.6666     0.6666     1.1851     0.0001     30.000   1201.000 225518.000     32.684    41.5367    87.5803   -44.0936    -1.9995     0.0009    26.0000     4.0000     9.0000    22.0000    26.0000    10.0000     5.0000    20.0000     3.0005     1.0000    -0.4991    20.7738    41.5369     1.9825    14.4503    14.4502     1.7090     0.0000     1.0000     0.1993     0.200
    189     0.6666     0.6666     1.1901     0.0001     30.000   1169.000 226824.000     32.873    41.5367    87.6186   -44.2338    -1.9995     0.0009    26.0000     4.0000     9.0000    22.0000    26.0000    10.0000     5.0000    20.0000     3.0005     1.0000    -0.4991    20.7738    41.5369     1.9885    14.4503    14.4502     1.7089     0.0000     1.0000     0.1993     0.200
    190     0.6666     0.6666     1.1950     0.0001     30.000   1189.000 225878.000     32.736    41.5367    87.6569   -44.3712    -1.9995     0.0009    26.0000     4.0000     9.0000    22.0000    26.0000    10.0000     5.0000    20.0000     3.0005     1.0000    -0.4991    20.7738    41.5369     1.9943    14.4503    14.4502     1.7087     0.0000     1.0000     0.2002     0.200
    191     0.6666     0.6666     1.2000     0.0001     30.000   1201.000 226079.000     32.765    41.5367    87.6938   -44.5109    -1.9995     0.0009    26.0000     4.0000     9.0000    22.0000    26.0000    10.0000     5.0000    20.0000     3.0005     1.0000    -0.4991    20.7738    41.5369     2.0003    14.4503    14.4502     1.7089     0.0000     1.0000     0.2002     0.200
    192     0.6666     0.6666     1.2050     0.0001     30.000   1175.000 223807.000     32.436    41.5367    87.7308   -44.6506    -1.9995     0.0009    26.0000     4.0000     9.0000    22.0000    26.0000    10.0000     5.0000    20.0000     3.0005     1.0000    -0.4991    20.7738    41.5369     2.0063    14.4503    14.4502     1.7089     0.0000     1.0000     0.2003     0.200
    193     0.6665     0.6666     1.2100     0.0001     30.000   1152.000 225240.000     32.643    41.5367    87.7671   -44.7915    -1.9995     0.0009    26.0000     4.0000     9.0000    22.0000    26.0000    10.0000     5.0000    20.0000     3.0005     1.0000    -0.4991    20.7738    41.5369     2.0123    14.4503    14.4502     1.7088     0.0000     1.0000     0.2003     0.200
    194     0.6666     0.6666     1.2150     0.0001     30.000   1151.000 225180.000     32.635    41.5367    87.8017   -44.9344    -1.9995     0.0009    26.0000     4.0000     9.0000    22.0000    26.0000    10.0000     5.0000    20.0000     3.0005     1.0000    -0.4991    20.7738    41.5369     2.0184    14.4503    14.4502     1.7087     0.0000     1.0000     0.2001     0.200
    195     0.6666     0.6666     1.2200     0.0001     30.000   1214.000 225122.000     32.626    41.5367    87.8360   -45.0752    -1.9995     0.0009    26.0000     4.0000     9.0000    22.0000    26.0000    10.0000     5.0000    20.0000     3.0006     1.0000    -0.4991    20.7738    41.5369     2.0244    14.4503    14.4502     1.7085     0.0000     1.0000     0.2001     0.200
    196     0.6666     0.6666     1.2250     0.0001     30.000   1109.000 224812.000     32.581    41.5367    87.8692   -45.2180    -1.9995     0.0009    26.0000     4.0000     9.0000    22.0000    26.0000    10.0000     5.0000    20.0000     3.0005     1.0000    -0.4991    20.7738    41.5369     2.0304    14.4503    14.4502     1.7086     0.0000     1.0000     0.2001     0.200
    197     0.6665     0.6666     1.2300     0.0001     30.000   1093.000 225602.000     32.696    41.5367    87.9026   -45.3587    -1.9995     0.0009    26.0000     4.0000     9.0000    22.0000    26.0000    10.0000     5.0000    20.0000     3.0005     1.0000    -0.4991    20.7738    41.5369     2.0364    14.4503    14.4502     1.7088     0.0000     1.0000     0.2001     0.200
    198     0.6666     0.6666     1.2351     0.0001     30.000   1140.000 225681.000     32.707    41.5367    87.9345   -45.5024    -1.9995     0.0009    26.0000     4.0000     9.0000    22.0000    26.0000    10.0000     5.0000    20.0000     3.0005     1.0000    -0.4991    20.7738    41.5369     2.0425    14.4503    14.4502     1.7088     0.0000     1.0000     0.2001     0.200
    199     0.6666     0.6666     1.2401     0.0001     30.000   1133.000 225519.000     32.684    41.5367    87.9660   -45.6451    -1.9995     0.0009    26.0000     4.0000     9.0000    22.0000    26.0000    10.0000     5.0000    20.0000     3.0005     1.0000    -0.4991    20.7738    41.5369     2.0486    14.4503    14.4502     1.7088     0.0000     1.0000     0.2001     0.200
    200     0.6666     0.6666     1.2451     0.0001     30.000   1115.000 225542.000     32.687    41.5367    87.9969   -45.7888    -1.9995     0.0009    26.0000     4.0000     9.0000    22.0000    26.0000    10.0000     5.0000    20.0000     3.0005     1.0000    -0.4991    20.7738    41.5369     2.0547    14.4503    14.4502     1.7088     0.0000     1.0000     0.2001     0.200
    201     0.6665     0.6666     1.2500     0.0001     30.000   1162.000 225168.000     32.633    41.5367    88.0268   -45.9296    -1.9995     0.0009    26.0000     4.0000     9.0000    22.0000    26.0000    10.0000     5.0000    20.0000     3.0005     1.0000    -0.4991    20.7738    41.5369     2.0607    14.4503    14.4502     1.7091     0.0000     1.0000     0.1995     0.200
    202     0.6665     0.6666     1.2550     0.0001     30.000   1129.000 225894.000     32.738    41.5367    88.0558   -46.0721    -1.9995     0.0009    26.0000     4.0000     9.0000    22.0000    26.0000    10.0000     5.0000    20.0000     3.0005     1.0000    -0.4991    20.7738    41.5369     2.0667    14.4503    14.4502     1.7090     0.0000     1.0000     0.1995     0.200
    203     0.6665     0.6666     1.2600     0.0001     30.000   1118.000 225207.000     32.639    41.5367    88.0838   -46.2136    -1.9995     0.0009    26.0000     4.0000     9.0000    22.0000    26.0000    10.0000     5.0000    20.0000     3.0005     1.0000    -0.4991    20.7738    41.5369     2.0727    14.4503    14.4502     1.7090     0.0000     1.0000     0.1991     0.200
    204     0.6665     0.6666     1.2650     0.0001     30.000   1081.000 225694.000     32.709    41.5367    88.1122   -46.3577    -1.9995     0.0009    26.0000     4.0000     9.0000    22.0000    26.0000    10.0000     5.0000    20.0000     3.0005     1.0000    -0.4991    20.7738    41.5369     2.0788    14.4503    14.4502     1.7088     0.0000     1.0000     0.1991     0.200
    205     0.6665     0.6666     1.2699     0.0001     30.000   1087.000 225052.000     32.616    41.5367    88.1385   -46.4990    -1.9995     0.0009    26.0000     4.0000     9.0000    22.0000    26.0000    10.0000     5.0000    20.0000     3.0005     1.0000    -0.4991    20.7738    41.5369     2.0848    14.4503    14.4502     1.7089     0.0000     1.0000     0.1999     0.200
    206     0.6665     0.6666     1.2750     0.0001     30.000   1149.000 225321.000     32.655    41.5367    88.1658   -46.6469    -1.9995     0.0009    26.0000     4.0000     9.0000    22.0000    26.0000    10.0000     5.0000    20.0000     3.0005     1.0000    -0.4990    20.7738    41.5369     2.0911    14.4503    14.4502     1.7090     0.0000     1.0000     0.1999     0.200
    207     0.6665     0.6666     1.2800     0.0001     30.000   1136.000 226316.000     32.799    41.5367    88.1911   -46.7907    -1.9995     0.0009    26.0000     4.0000     9.0000    22.0000    26.0000    10.0000     5.0000    20.0000     3.0005     1.0000    -0.4991    20.7738    41.5369     2.0972    14.4503    14.4502     1.7089     0.0000     1.0000     0.1985     0.200
    208     0.6665     0.6666     1.2850     0.0001     30.000   1140.000 225151.000     32.631    41.5367    88.2165   -46.9349    -1.9995     0.0009    26.0000     4.0000     9.0000    22.0000    26.0000    10.0000     5.0000    20.0000     3.0005     1.0000    -0.4991    20.7738    41.5369     2.1033    14.4503    14.4502     1.7088     0.0000     1.0000     0.1985     0.200
    209     0.6665     0.6666     1.2900     0.0001     30.000   1198.000 225904.000     32.740    41.5367    88.2404   -47.0787    -1.9995     0.0009    26.0000     4.0000     9.0000    22.0000    26.0000    10.0000     5.0000    20.0000     3.0005     1.0000    -0.4991    20.7738    41.5369     2.1093    14.4503    14.4502     1.7089     0.0000     1.0000     0.2001     0.200
    210     0.6665     0.6666     1.2950     0.0001     30.000   1119.000 225475.000     32.678    41.5367    88.2641   -47.2246    -1.9995     0.0009    26.0000     4.0000     9.0000    22.0000    26.0000    10.0000     5.0000    20.0000     3.0005     1.0000    -0.4991    20.7738    41.5369     2.1155    14.4503    14.4502     1.7088     0.0000     1.0000     0.2001     0.200
    211     0.6665     0.6666     1.3001     0.0001     30.000   1146.000 226199.000     32.782    41.5367    88.2875   -47.3725    -1.9995     0.0009    26.0000     4.0000     9.0000    22.0000    26.0000    10.0000     5.0000    20.0000     3.0005     1.0000    -0.4991    20.7738    41.5369     2.1217    14.4503    14.4502     1.7087     0.0000     1.0000     0.2001     0.200
    212     0.6666     0.6666     1.3051     0.0001     30.000   1131.000 226133.000     32.773    41.5367    88.3097   -47.5170    -1.9995     0.0009    26.0000     4.0000     9.0000    22.0000    26.0000    10.0000     5.0000    20.0000     3.0005     1.0000    -0.4991    20.7738    41.5369     2.1278    14.4503    14.4502     1.7087     0.0000     1.0000     0.2001     0.200
    213     0.6665     0.6665     1.3100     0.0001     30.000   1106.000 226646.000     32.847    41.5367    88.3318   -47.6598    -1.9995     0.0009    26.0000     4.0000     9.0000    22.0000    26.0000    10.0000     5.0000    20.0000     3.0005     1.0000    -0.4991    20.7738    41.5369     2.1339    14.4503    14.4502     1.7088     0.0000     1.0000     0.1991     0.200
    214     0.6665     0.6666     1.3150     0.0001     30.000   1063.000 225468.000     32.677    41.5367    88.3527   -47.8064    -1.9995     0.0009    26.0000     4.0000     9.0000    22.0000    26.0000    10.0000     5.0000    20.0000     3.0005     1.0000    -0.4991    20.7738    41.5369     2.1400    14.4503    14.4502     1.7089     0.0000     1.0000     0.1991     0.200
    215     0.6665     0.6665     1.3199     0.0001     30.000   1134.000 225224.000     32.641    41.5367    88.3730   -47.9491    -1.9995     0.0009    26.0000     4.0000     9.0000    22.0000    26.0000    10.0000     5.0000    20.0000     3.0005     1.0000    -0.4991    20.7738    41.5369     2.1460    14.4503    14.4502     1.7090     0.0000     1.0000     0.1994     0.200
    216     0.6665     0.6666     1.3250     0.0001     30.000   1064.000 225979.000     32.751    41.5367    88.3926   -48.0963    -1.9995     0.0009    26.0000     4.0000     9.0000    22.0000    26.0000    10.0000     5.0000    20.0000     3.0006     1.0000    -0.4991    20.7738    41.5369     2.1522    14.4503    14.4502     1.7089     0.0000     1.0000     0.1994     0.200
    217     0.6665     0.6666     1.3300     0.0001     30.000   1174.000 224436.000     32.527    41.5367    88.4119   -48.2446    -1.9995     0.0009    26.0000     4.0000     9.0000    22.0000    26.0000    10.0000     5.0000    20.0000     3.0005     1.0000    -0.4991    20.7738    41.5369     2.1585    14.4503    14.4502     1.7087     0.0000     1.0000     0.2003     0.200
    218     0.6665     0.6665     1.3350     0.0001     30.000   1126.000 224334.000     32.512    41.5367    88.4307   -48.3896    -1.9995     0.0009    26.0000     4.0000     9.0000    22.0000    26.0000    10.0000     5.0000    20.0000     3.0005     1.0000    -0.4991    20.7738    41.5369     2.1646    14.4503    14.4502     1.7088     0.0000     1.0000     0.1995     0.200
    219     0.6665     0.6666     1.3400     0.0001     30.000   1103.000 226040.000     32.759    41.5367    88.4484   -48.5387    -1.9995     0.0009    26.0000     4.0000     9.0000    22.0000    26.0000    10.0000     5.0000    20.0000     3.0006     1.0000    -0.4991    20.7738    41.5369     2.1708    14.4503    14.4502     1.7090     0.0000     1.0000     0.1995     0.200
    220     0.6665     0.6666     1.3451     0.0001     30.000   1113.000 225770.000     32.720    41.5367    88.4658   -48.6863    -1.9995     0.0009    26.0000     4.0000     9.0000    22.0000    26.0000    10.0000     5.0000    20.0000     3.0006     1.0000    -0.4991    20.7738    41.5369     2.1771    14.4503    14.4502     1.7090     0.0000     1.0000     0.1984     0.200
    221     0.6666     0.6666     1.3501     0.0001     30.000   1122.000 226058.000     32.762    41.5367    88.4820   -48.8358    -1.9995     0.0009    26.0000     4.0000     9.0000    22.0000    26.0000    10.0000     5.0000    20.0000     3.0005     1.0000    -0.4991    20.7738    41.5369     2.1833    14.4503    14.4502     1.7091     0.0000     1.0000     0.1984     0.200
    222     0.6666     0.6666     1.3551     0.0001     30.000   1118.000 225147.000     32.630    41.5367    88.4974   -48.9833    -1.9995     0.0009    26.0000     4.0000     9.0000    22.0000    26.0000    10.0000     5.0000    20.0000     3.0005     1.0000    -0.4991    20.7738    41.5369     2.1895    14.4503    14.4502     1.7090     0.0000     1.0000     0.1989     0.200
    223     0.6666     0.6666     1.3601     0.0001     30.000   1161.000 224449.000     32.529    41.5367    88.5131   -49.1309    -1.9995     0.0009    26.0000     4.0000     9.0000    22.0000    26.0000    10.0000     5.0000    20.0000     3.0005     1.0000    -0.4991    20.7738    41.5369     2.1957    14.4503    14.4502     1.7091     0.0000     1.0000     0.1989     0.200
    224     0.6666     0.6666     1.3651     0.0001     30.000   1164.000 224822.000     32.583    41.5367    88.5279   -49.2776    -1.9995     0.0009    26.0000     4.0000     9.0000    22.0000    26.0000    10.0000     5.0000    20.0000     3.0005     1.0000    -0.4991    20.7738    41.5369     2.2019    14.4503    14.4502     1.7090     0.0000     1.0000     0.1986     0.200
    225     0.6666     0.6666     1.3700     0.0001     30.000   1117.000 226214.000     32.785    41.5367    88.5419   -49.4233    -1.9995     0.0009    26.0000     4.0000     9.0000    22.0000    26.0000    10.0000     5.0000    20.0000     3.0005     1.0000    -0.4991    20.7738    41.5369     2.2080    14.4503    14.4502     1.7091     0.0000     1.0000     0.1986     0.200
    226     0.6665     0.6666     1.3750     0.0001     30.000   1077.000 225134.000     32.628    41.5367    88.5560   -49.5719    -1.9995     0.0009    26.0000     4.0000     9.0000    22.0000    26.0000    10.0000     5.0000    20.0000     3.0005     1.0000    -0.4991    20.7738    41.5369     2.2142    14.4503    14.4502     1.7092     0.0000     1.0000     0.1993     0.200
    227     0.6665     0.6666     1.3799     0.0001     30.000   1106.000 224592.000     32.550    41.5367    88.5687   -49.7183    -1.9995     0.0009    26.0000     4.0000     9.0000    22.0000    26.0000    10.0000     5.0000    20.0000     3.0005     1.0000    -0.4991    20.7738    41.5368     2.2203    14.4503    14.4502     1.7089     0.0000     1.0000     0.1993     0.200
    228     0.6665     0.6665     1.3850     0.0001     30.000   1168.000 226049.000     32.761    41.5367    88.5818   -49.8679    -1.9995     0.0009    26.0000     4.0000     9.0000    22.0000    26.0000    10.0000     5.0000    20.0000     3.0005     1.0000    -0.4991    20.7738    41.5368     2.2266    14.4503    14.4502     1.7089     0.0000     1.0000     0.2000     0.200
    229     0.6665     0.6666     1.3900     0.0001     30.000   1105.000 226109.000     32.769    41.5367    88.5931   -50.0172    -1.9995     0.0009    26.0000     4.0000     9.0000    22.0000    26.0000    10.0000     5.0000    20.0000     3.0005     1.0000    -0.4991    20.7738    41.5369     2.2328    14.4503    14.4502     1.7087     0.0000     1.0000     0.2000     0.200
    230     0.6665     0.6666     1.3950     0.0001     30.000   1085.000 225779.000     32.722    41.5367    88.6042   -50.1677    -1.9995     0.0009    26.0000     4.0000     9.0000    22.0000    26.0000    10.0000     5.0000    20.0000     3.0005     1.0000    -0.4991    20.7738    41.5368     2.2391    14.4503    14.4502     1.7088     0.0000     1.0000     0.1989     0.200
    231     0.6665     0.6666     1.4000     0.0001     30.000   1117.000 225897.000     32.739    41.5367    88.6151   -50.3166    -1.9995     0.0009    26.0000     4.0000     9.0000    22.0000    26.0000    10.0000     5.0000    20.0000     3.0005     1.0000    -0.4991    20.7738    41.5369     2.2453    14.4503    14.4502     1.7087     0.0000     1.0000     0.1989     0.200
    232     0.6665     0.6666     1.4050     0.0001     30.000   1122.000 225373.000     32.663    41.5367    88.6250   -50.4661    -1.9995     0.0009    26.0000     4.0000     9.0000    22.0000    26.0000    10.0000     5.0000    20.0000     3.0006     1.0000    -0.4991    20.7738    41.5369     2.2515    14.4503    14.4502     1.7087     0.0000     1.0000     0.2002     0.200
    233     0.6665     0.6666     1.4101     0.0001     30.000   1174.000 226801.000     32.870    41.5367    88.6344   -50.6175    -1.9995     0.0009    26.0000     4.0000     9.0000    22.0000    26.0000    10.0000     5.0000    20.0000     3.0005     1.0000    -0.4991    20.7738    41.5369     2.2578    14.4503    14.4502     1.7089     0.0000     1.0000     0.1995     0.200
    234     0.6666     0.6666     1.4151     0.0001     30.000   1181.000 224879.000     32.591    41.5367    88.6430   -50.7682    -1.9995     0.0009    26.0000     4.0000     9.0000    22.0000    26.0000    10.0000     5.0000    20.0000     3.0005     1.0000    -0.4990    20.7738    41.5368     2.2641    14.4503    14.4502     1.7088     0.0000     1.0000     0.1995     0.200
    235     0.6665     0.6666     1.4200     0.0001     30.000   1134.000 225090.000     32.622    41.5367    88.6520   -50.9171    -1.9995     0.0009    26.0000     4.0000     9.0000    22.0000    26.0000    10.0000     5.0000    20.0000     3.0005     1.0000    -0.4990    20.7738    41.5368     2.2703    14.4503    14.4502     1.7088     0.0000     1.0000     0.1999     0.200
    236     0.6666     0.6666     1.4250     0.0001     30.000   1106.000 225190.000     32.636    41.5367    88.6593   -51.0671    -1.9995     0.0009    26.0000     4.0000     9.0000    22.0000    26.0000    10.0000     5.0000    20.0000     3.0006     1.0000    -0.4991    20.7739    41.5368     2.2765    14.4503    14.4502     1.7089     0.0000     1.0000     0.1999     0.200
    237     0.6665     0.6666     1.4300     0.0001     30.000   1174.000 224756.000     32.573    41.5367    88.6669   -51.2162    -1.9995     0.0009    26.0000     4.0000     9.0000    22.0000    26.0000    10.0000     5.0000    20.0000     3.0006     1.0000    -0.4991    20.7738    41.5368     2.2827    14.4503    14.4502     1.7087     0.0000     1.0000     0.1996     0.200
    238     0.6666     0.6666     1.4350     0.0001     30.000   1137.000 225995.000     32.753    41.5367    88.6733   -51.3681    -1.9995     0.0009    26.0000     4.0000     9.0000    22.0000    26.0000    10.0000     5.0000    20.0000     3.0005     1.0000    -0.4991    20.7738    41.5368     2.2891    14.4503    14.4502     1.7086     0.0000     1.0000     0.1996     0.200
    239     0.6664     0.6665     1.4401     0.0001     30.000   1092.000 225202.000     32.638    41.5367    88.6840   -51.5188    -1.9995     0.0009    26.0000     4.0000     9.0000    22.0000    26.0000    10.0000     5.0000    20.0000     3.0006     1.0000    -0.4990    20.7738    41.5368     2.2953    14.4503    14.4502     1.7087     0.0000     1.0000     0.1996     0.200
    240     0.6665     0.6665     1.4451     0.0001     30.000   1113.000 224534.000     32.541    41.5367    88.6894   -51.6713    -1.9995     0.0009    26.0000     4.0000     9.0000    22.0000    26.0000    10.0000     5.0000    20.0000     3.0006     1.0000    -0.4991    20.7738    41.5368     2.3016    14.4503    14.4502     1.7089     0.0000     1.0000     0.1996     0.200
    241     0.6664     0.6664     1.4501     0.0001     30.000   1068.000 225341.000     32.658    41.5367    88.6952   -51.8222    -1.9995     0.0009    26.0000     4.0000     9.0000    22.0000    26.0000    10.0000     5.0000    20.0000     3.0006     1.0000    -0.4991    20.7738    41.5368     2.3079    14.4503    14.4502     1.7085     0.0000     1.0000     0.1998     0.200
    242     0.6664     0.6664     1.4551     0.0001     30.000   1128.000 225526.000     32.685    41.5367    88.7007   -51.9730    -1.9995     0.0009    26.0000     4.0000     9.0000    22.0000    26.0000    10.0000     5.0000    20.0000     3.0006     1.0000    -0.4992    20.7738    41.5368     2.3142    14.4503    14.4502     1.7088     0.0000     1.0000     0.1998     0.200
    243     0.6666     0.6666     1.4600     0.0001     30.000   1125.000 225803.000     32.725    41.5367    88.6953   -52.1263    -1.9995     0.0009    26.0000     4.0000     9.0000    22.0000    26.0000    10.0000     5.0000    20.0000     3.0006     1.0000    -0.4991    20.7738    41.5368     2.3205    14.4503    14.4502     1.7087     0.0000     1.0000     0.2001     0.200
    244     0.6664     0.6664     1.4652     0.0001     30.000   1114.000 225885.000     32.737    41.5367    88.7077   -52.2807    -1.9995     0.0009    26.0000     4.0000     9.0000    22.0000    26.0000    10.0000     5.0000    20.0000     3.0006     1.0000    -0.4991    20.7738    41.5368     2.3269    14.4503    14.4502     1.7086     0.0000     1.0000     0.2001     0.200
    245     0.6666     0.6666     1.4701     0.0001     30.000   1159.000 225908.000     32.740    41.5367    88.7039   -52.4324    -1.9995     0.0009    26.0000     4.0000     9.0000    22.0000    26.0000    10.0000     5.0000    20.0000     3.0006     1.0000    -0.4991    20.7738    41.5368     2.3332    14.4503    14.4502     1.7084     0.0000     1.0000     0.2000     0.200
    246     0.6664     0.6664     1.4750     0.0001     30.000   1216.000 225931.000     32.744    41.5367    88.7139   -52.5795    -1.9995     0.0009    26.0000     4.0000     9.0000    22.0000    26.0000    10.0000     5.0000    20.0000     3.0006     1.0000    -0.4992    20.7738    41.5368     2.3392    14.4503    14.4502     1.7084     0.0000     1.0000     0.2004     0.200
    247     0.6665     0.6666     1.4800     0.0001     30.000   1112.000 225757.000     32.718    41.5367    88.7094   -52.7358    -1.9995     0.0009    26.0000     4.0000     9.0000    22.0000    26.0000    10.0000     5.0000    20.0000     3.0006     1.0000    -0.4991    20.7738    41.5368     2.3457    14.4503    14.4502     1.7082     0.0000     1.0000     0.2004     0.200
    248     0.6665     0.6665     1.4850     0.0001     30.000   1174.000 225813.000     32.727    41.5367    88.7115   -52.8861    -1.9995     0.0009    26.0000     4.0000     9.0000    22.0000    26.0000    10.0000     5.0000    20.0000     3.0006     1.0000    -0.4992    20.7738    41.5368     2.3519    14.4503    14.4502     1.7086     0.0000     1.0000     0.2003     0.200
    249     0.6665     0.6665     1.4900     0.0001     30.000   1250.000 225254.000     32.646    41.5367    88.7140   -53.0383    -1.9995     0.0009    26.0000     4.0000     9.0000    22.0000    26.0000    10.0000     5.0000    20.0000     3.0005     1.0000    -0.4991    20.7738    41.5368     2.3582    14.4503    14.4502     1.7085     0.0000     1.0000     0.2003     0.200
    250     0.6665     0.6666     1.4950     0.0001     30.000   1199.000 225138.000     32.629    41.5367    88.7113   -53.1934    -1.9995     0.0009    26.0000     4.0000     9.0000    22.0000    26.0000    10.0000     5.0000    20.0000     3.0006     1.0000    -0.4992    20.7738    41.5368     2.3646    14.4503    14.4502     1.7084     0.0000     1.0000     0.1999     0.200
    251     0.6665     0.6665     1.5000     0.0001     30.000   1144.000 225387.000     32.665    41.5367    88.7131   -53.3471    -1.9995     0.0009    26.0000     4.0000     9.0000    22.0000    26.0000    10.0000     5.0000    20.0000     3.0006     1.0000    -0.4992    20.7738    41.5368     2.3709    14.4503    14.4502     1.7082     0.0000     1.0000     0.1999     0.200
    252     0.6666     0.6666     1.5050     0.0001     30.000   1257.000 225669.000     32.706    41.5367    88.7092   -53.5012    -1.9995     0.0009    26.0000     4.0000     9.0000    22.0000    26.0000    10.0000     5.0000    20.0000     3.0006     1.0000    -0.4991    20.7738    41.5368     2.3773    14.4503    14.4502     1.7082     0.0000     1.0000     0.2005     0.200
    253     0.6666     0.6666     1.5100     0.0001     30.000   1308.000 224908.000     32.595    41.5367    88.7081   -53.6565    -1.9995     0.0009    26.0000     4.0000     9.0000    22.0000    26.0000    10.0000     5.0000    20.0000     3.0005     1.0000    -0.4991    20.7738    41.5368     2.3836    14.4503    14.4502     1.7082     0.0000     1.0000     0.2005     0.200
    254     0.6665     0.6666     1.5151     0.0001     30.000   1335.000 225854.000     32.732    41.5367    88.7075   -53.8117    -1.9995     0.0009    26.0000     4.0000     9.0000    22.0000    26.0000    10.0000     5.0000    20.0000     3.0006     1.0000    -0.4991    20.7738    41.5368     2.3900    14.4503    14.4502     1.7083     0.0000     1.0000     0.2002     0.200
    255     0.6665     0.6665     1.5201     0.0001     30.000   1374.000 225448.000     32.674    41.5367    88.7071   -53.9658    -1.9995     0.0009    26.0000     4.0000     9.0000    22.0000    26.0000    10.0000     5.0000    20.0000     3.0006     1.0000    -0.4991    20.7738    41.5368     2.3964    14.4503    14.4502     1.7082     0.0000     1.0000     0.2002     0.200
    256     0.6664     0.6665     1.5252     0.0001     30.000   1442.000 226068.000     32.763    41.5367    88.7067   -54.1216    -1.9995     0.0009    26.0000     4.0000     9.0000    22.0000    26.0000    10.0000     5.0000    20.0000     3.0006     1.0000    -0.4991    20.7738    41.5368     2.4028    14.4503    14.4502     1.7082     0.0000     1.0000     0.1997     0.200
    257     0.6664     0.6664     1.5300     0.0001     30.000   1430.000 225898.000     32.739    41.5367    88.7065   -54.2707    -1.9995     0.0009    26.0000     4.0000     9.0000    22.0000    26.0000    10.0000     5.0000    20.0000     3.0006     1.0000    -0.4991    20.7738    41.5368     2.4089    14.4503    14.4502     1.7083     0.0000     1.0000     0.1997     0.200
    258     0.6664     0.6664     1.5350     0.0001     30.000   1489.000 225706.000     32.711    41.5367    88.7008   -54.4266    -1.9995     0.0009    26.0000     4.0000     9.0000    22.0000    26.0000    10.0000     5.0000    20.0000     3.0006     1.0000    -0.4991    20.7738    41.5368     2.4153    14.4503    14.4502     1.7081     0.0000     1.0000     0.1986     0.200
    259     0.6666     0.6666     1.5400     0.0001     30.000   1554.000 225000.000     32.609    41.5367    88.6894   -54.5825    -1.9995     0.0009    26.0000     4.0000     9.0000    22.0000    26.0000    10.0000     5.0000    20.0000     3.0006     1.0000    -0.4991    20.7738    41.5368     2.4217    14.4503    14.4502     1.7081     0.0000     1.0000     0.1986     0.200
    260     0.6665     0.6665     1.5450     0.0001     30.000   1466.000 224963.000     32.603    41.5367    88.6893   -54.7364    -1.9995     0.0009    26.0000     4.0000     9.0000    22.0000    26.0000    10.0000     5.0000    20.0000     3.0006     1.0000    -0.4991    20.7738    41.5368     2.4280    14.4503    14.4502     1.7081     0.0000     1.0000     0.1998     0.200
    261     0.6663     0.6664     1.5502     0.0001     30.000   1511.000 224351.000     32.515    41.5367    88.6893   -54.8958    -1.9995     0.0009    26.0000     4.0000     9.0000    22.0000    26.0000    10.0000     5.0000    20.0000     3.0006     1.0000    -0.4991    20.7738    41.5368     2.4345    14.4503    14.4502     1.7081     0.0000     1.0000     0.1998     0.200
    262     0.6666     0.6666     1.5550     0.0001     30.000   1627.000 225429.000     32.671    41.5367    88.6740   -55.0505    -1.9995     0.0009    26.0000     4.0000     9.0000    22.0000    26.0000    10.0000     5.0000    20.0000     3.0006     1.0000    -0.4991    20.7738    41.5368     2.4408    14.4503    14.4502     1.7083     0.0000     1.0000     0.2001     0.200
    263     0.6664     0.6664     1.5601     0.0001     30.000   1518.000 225668.000     32.706    41.5367    88.6740   -55.2083    -1.9995     0.0009    26.0000     4.0000     9.0000    22.0000    26.0000    10.0000     5.0000    20.0000     3.0006     1.0000    -0.4991    20.7738    41.5368     2.4473    14.4503    14.4502     1.7080     0.0000     1.0000     0.2003     0.200
    264     0.6666     0.6666     1.5651     0.0001     30.000   1627.000 226199.000     32.782    41.5367    88.6607   -55.3646    -1.9995     0.0009    26.0000     4.0000     9.0000    22.0000    26.0000    10.0000     5.0000    20.0000     3.0006     1.0000    -0.4991    20.7738    41.5368     2.4536    14.4503    14.4502     1.7081     0.0000     1.0000     0.2003     0.200
    265     0.6664     0.6664     1.5702     0.0001     30.000   1550.000 225687.000     32.708    41.5367    88.6607   -55.5218    -1.9995     0.0009    26.0000     4.0000     9.0000    22.0000    26.0000    10.0000     5.0000    20.0000     3.0006     1.0000    -0.4992    20.7738    41.5368     2.4600    14.4503    14.4502     1.7080     0.0000     1.0000     0.1993     0.200
    266     0.6666     0.6666     1.5750     0.0001     30.000   1587.000 224460.000     32.530    41.5367    88.6463   -55.6765    -1.9995     0.0009    26.0000     4.0000     9.0000    22.0000    26.0000    10.0000     5.0000    20.0000     3.0006     1.0000    -0.4991    20.7738    41.5368     2.4664    14.4503    14.4502     1.7082     0.0000     1.0000     0.1993     0.200
    267     0.6664     0.6664     1.5802     0.0001     30.000   1629.000 226330.000     32.801    41.5367    88.6463   -55.8347    -1.9995     0.0009    26.0000     4.0000     9.0000    22.0000    26.0000    10.0000     5.0000    20.0000     3.0006     1.0000    -0.4991    20.7738    41.5368     2.4728    14.4503    14.4502     1.7081     0.0000     1.0000     0.1996     0.200
    268     0.6666     0.6666     1.5850     0.0001     30.000   1567.000 226340.000     32.803    41.5367    88.6298   -55.9886    -1.9995     0.0009    26.0000     4.0000     9.0000    22.0000    26.0000    10.0000     5.0000    20.0000     3.0006     1.0000    -0.4991    20.7738    41.5368     2.4791    14.4503    14.4502     1.7080     0.0000     1.0000     0.1996     0.200
    269     0.6664     0.6664     1.5900     0.0001     30.000   1550.000 226462.000     32.821    41.5367    88.6298   -56.1444    -1.9995     0.0009    26.0000     4.0000     9.0000    22.0000    26.0000    10.0000     5.0000    20.0000     3.0006     1.0000    -0.4991    20.7738    41.5368     2.4854    14.4503    14.4502     1.7081     0.0000     1.0000     0.2003     0.200
    270     0.6666     0.6666     1.5950     0.0001     30.000   1580.000 225447.000     32.673    41.5367    88.6111   -56.3035    -1.9995     0.0009    26.0000     4.0000     9.0000    22.0000    26.0000    10.0000     5.0000    20.0000     3.0006     1.0000    -0.4992    20.7739    41.5368     2.4919    14.4503    14.4502     1.7079     0.0000     1.0000     0.2003     0.200
    271     0.6663     0.6664     1.6000     0.0001     30.000   1593.000 226335.000     32.802    41.5367    88.6110   -56.4591    -1.9995     0.0009    26.0000     4.0000     9.0000    22.0000    26.0000    10.0000     5.0000    20.0000     3.0006     1.0000    -0.4991    20.7739    41.5368     2.4982    14.4503    14.4502     1.7080     0.0000     1.0000     0.1997     0.200
    272     0.6666     0.6666     1.6050     0.0001     30.000   1598.000 225539.000     32.687    41.5367    88.5908   -56.6181    -1.9995     0.0009    26.0000     4.0000     9.0000    22.0000    26.0000    10.0000     5.0000    20.0000     3.0006     1.0000    -0.4992    20.7738    41.5368     2.5046    14.4503    14.4502     1.7079     0.0000     1.0000     0.1997     0.200
    273     0.6666     0.6666     1.6100     0.0001     30.000   1569.000 225663.000     32.705    41.5367    88.5801   -56.7764    -1.9995     0.0009    26.0000     4.0000     9.0000    22.0000    26.0000    10.0000     5.0000    20.0000     3.0005     1.0000    -0.4992    20.7738    41.5368     2.5111    14.4503    14.4502     1.7077     0.0000     1.0000     0.1998     0.200
    274     0.6666     0.6666     1.6150     0.0001     30.000   1571.000 226390.000     32.810    41.5367    88.5692   -56.9364    -1.9995     0.0009    26.0000     4.0000     9.0000    22.0000    26.0000    10.0000     5.0000    20.0000     3.0006     1.0000    -0.4992    20.7738    41.5368     2.5176    14.4503    14.4502     1.7078     0.0000     1.0000     0.1998     0.200
    275     0.6666     0.6666     1.6201     0.0001     30.000   1516.000 226284.000     32.795    41.5367    88.5566   -57.0966    -1.9995     0.0009    26.0000     4.0000     9.0000    22.0000    26.0000    10.0000     5.0000    20.0000     3.0006     1.0000    -0.4992    20.7739    41.5368     2.5240    14.4503    14.4502     1.7079     0.0000     1.0000     0.2003     0.200
    276     0.6666     0.6666     1.6251     0.0001     30.000   1468.000 225200.000     32.638    41.5367    88.5450   -57.2566    -1.9995     0.0009    26.0000     4.0000     9.0000    22.0000    26.0000    10.0000     5.0000    20.0000     3.0006     1.0000    -0.4992    20.7738    41.5368     2.5305    14.4503    14.4502     1.7077     0.0000     1.0000     0.2003     0.200
    277     0.6666     0.6666     1.6300     0.0001     30.000   1516.000 225630.000     32.700    41.5367    88.5322   -57.4119    -1.9995     0.0009    26.0000     4.0000     9.0000    22.0000    26.0000    10.0000     5.0000    20.0000     3.0006     1.0000    -0.4992    20.7738    41.5368     2.5368    14.4503    14.4502     1.7077     0.0000     1.0000     0.2000     0.200
    278     0.6666     0.6666     1.6350     0.0001     30.000   1530.000 226025.000     32.757    41.5367    88.5190   -57.5719    -1.9995     0.0009    26.0000     4.0000     9.0000    22.0000    26.0000    10.0000     5.0000    20.0000     3.0006     1.0000    -0.4991    20.7738    41.5368     2.5433    14.4503    14.4502     1.7078     0.0000     1.0000     0.2000     0.200
    279     0.6666     0.6666     1.6400     0.0001     30.000   1475.000 225553.000     32.689    41.5367    88.5055   -57.7307    -1.9995     0.0009    26.0000     4.0000     9.0000    22.0000    26.0000    10.0000     5.0000    20.0000     3.0005     1.0000    -0.4992    20.7738    41.5368     2.5497    14.4503    14.4502     1.7078     0.0000     1.0000     0.2004     0.200
    280     0.6666     0.6666     1.6450     0.0001     30.000   1476.000 226226.000     32.786    41.5367    88.4922   -57.8884    -1.9995     0.0009    26.0000     4.0000     9.0000    22.0000    26.0000    10.0000     5.0000    20.0000     3.0006     1.0000    -0.4992    20.7738    41.5368     2.5560    14.4503    14.4502     1.7078     0.0000     1.0000     0.2004     0.200
    281     0.6666     0.6666     1.6500     0.0001     30.000   1398.000 224900.000     32.594    41.5367    88.4772   -58.0493    -1.9995     0.0009    26.0000     4.0000     9.0000    22.0000    26.0000    10.0000     5.0000    20.0000     3.0005     1.0000    -0.4992    20.7738    41.5368     2.5625    14.4503    14.4502     1.7076     0.0000     1.0000     0.2000     0.200
    282     0.6666     0.6666     1.6550     0.0001     30.000   1444.000 225806.000     32.726    41.5367    88.4631   -58.2084    -1.9995     0.0009    26.0000     4.0000     9.0000    22.0000    26.0000    10.0000     5.0000    20.0000     3.0006     1.0000    -0.4992    20.7738    41.5368     2.5689    14.4503    14.4502     1.7074     0.0000     1.0000     0.2005     0.200
    283     0.6666     0.6666     1.6600     0.0001     30.000   1381.000 226078.000     32.765    41.5367    88.4474   -58.3688    -1.9995     0.0009    26.0000     4.0000     9.0000    22.0000    26.0000    10.0000     5.0000    20.0000     3.0005     1.0000    -0.4992    20.7738    41.5368     2.5754    14.4503    14.4502     1.7074     0.0000     1.0000     0.2005     0.200
    284     0.6666     0.6666     1.6650     0.0001     30.000   1387.000 224334.000     32.512    41.5367    88.4318   -58.5298    -1.9995     0.0009    26.0000     4.0000     9.0000    22.0000    26.0000    10.0000     5.0000    20.0000     3.0006     1.0000    -0.4992    20.7738    41.5368     2.5819    14.4503    14.4502     1.7075     0.0000     1.0000     0.1998     0.200
    285     0.6666     0.6666     1.6700     0.0001     30.000   1434.000 225418.000     32.669    41.5367    88.4159   -58.6910    -1.9995     0.0009    26.0000     4.0000     9.0000    22.0000    26.0000    10.0000     5.0000    20.0000     3.0005     1.0000    -0.4992    20.7738    41.5368     2.5883    14.4503    14.4502     1.7073     0.0000     1.0000     0.1998     0.200
    286     0.6666     0.6666     1.6750     0.0001     30.000   1316.000 224254.000     32.501    41.5367    88.4005   -58.8509    -1.9995     0.0009    26.0000     4.0000     9.0000    22.0000    26.0000    10.0000     5.0000    20.0000     3.0006     1.0000    -0.4992    20.7738    41.5368     2.5948    14.4503    14.4502     1.7075     0.0000     1.0000     0.2003     0.200
    287     0.6665     0.6665     1.6801     0.0001     30.000   1451.000 225239.000     32.643    41.5367    88.3845   -59.0142    -1.9995     0.0009    26.0000     4.0000     9.0000    22.0000    26.0000    10.0000     5.0000    20.0000     3.0005     1.0000    -0.4992    20.7738    41.5368     2.6013    14.4503    14.4502     1.7073     0.0000     1.0000     0.2003     0.200
    288     0.6665     0.6665     1.6850     0.0001     30.000   1375.000 225784.000     32.722    41.5367    88.3681   -59.1730    -1.9995     0.0009    26.0000     4.0000     9.0000    22.0000    26.0000    10.0000     5.0000    20.0000     3.0006     1.0000    -0.4992    20.7738    41.5368     2.6077    14.4503    14.4502     1.7075     0.0000     1.0000     0.2004     0.200
    289     0.6665     0.6666     1.6900     0.0001     30.000   1362.000 225937.000     32.744    41.5367    88.3489   -59.3335    -1.9995     0.0009    26.0000     4.0000     9.0000    22.0000    26.0000    10.0000     5.0000    20.0000     3.0006     1.0000    -0.4992    20.7738    41.5368     2.6141    14.4503    14.4502     1.7074     0.0000     1.0000     0.2004     0.200
    290     0.6665     0.6665     1.6950     0.0001     30.000   1374.000 225849.000     32.732    41.5367    88.3328   -59.4944    -1.9995     0.0009    26.0000     4.0000     9.0000    22.0000    26.0000    10.0000     5.0000    20.0000     3.0005     1.0000    -0.4992    20.7738    41.5368     2.6206    14.4503    14.4502     1.7073     0.0000     1.0000     0.2004     0.200
    291     0.6665     0.6666     1.6999     0.0001     30.000   1311.000 223966.000     32.459    41.5367    88.3128   -59.6544    -1.9995     0.0009    26.0000     4.0000     9.0000    22.0000    26.0000    10.0000     5.0000    20.0000     3.0005     1.0000    -0.4993    20.7738    41.5368     2.6270    14.4503    14.4502     1.7073     0.0000     1.0000     0.2004     0.200
    292     0.6666     0.6666     1.7050     0.0001     30.000   1357.000 224556.000     32.544    41.5367    88.2931   -59.8180    -1.9995     0.0009    26.0000     4.0000     9.0000    22.0000    26.0000    10.0000     5.0000    20.0000     3.0005     1.0000    -0.4992    20.7738    41.5368     2.6335    14.4503    14.4502     1.7073     0.0000     1.0000     0.2000     0.200
    293     0.6666     0.6666     1.7099     0.0001     30.000   1344.000 225133.000     32.628    41.5367    88.2728   -59.9796    -1.9995     0.0009    26.0000     4.0000     9.0000    22.0000    26.0000    10.0000     5.0000    20.0000     3.0005     1.0000    -0.4992    20.7738    41.5368     2.6400    14.4503    14.4502     1.7073     0.0000     1.0000     0.2000     0.200
    294     0.6666     0.6666     1.7150     0.0001     30.000   1348.000 226136.000     32.773    41.5367    88.2529   -60.1444    -1.9995     0.0009    26.0000     4.0000     9.0000    22.0000    26.0000    10.0000     5.0000    20.0000     3.0005     1.0000    -0.4992    20.7738    41.5368     2.6465    14.4503    14.4502     1.7070     0.0000     1.0000     0.2003     0.200
    295     0.6666     0.6666     1.7201     0.0001     30.000   1390.000 225395.000     32.666    41.5367    88.2329   -60.3081    -1.9995     0.0009    26.0000     4.0000     9.0000    22.0000    26.0000    10.0000     5.0000    20.0000     3.0005     1.0000    -0.4993    20.7738    41.5368     2.6531    14.4503    14.4502     1.7072     0.0000     1.0000     0.2003     0.200
    296     0.6666     0.6666     1.7251     0.0001     30.000   1330.000 225254.000     32.646    41.5367    88.2122   -60.4722    -1.9995     0.0009    26.0000     4.0000     9.0000    22.0000    26.0000    10.0000     5.0000    20.0000     3.0006     1.0000    -0.4993    20.7738    41.5368     2.6596    14.4503    14.4502     1.7069     0.0000     1.0000     0.2004     0.200
    297     0.6666     0.6666     1.7300     0.0001     30.000   1282.000 226011.000     32.755    41.5367    88.1910   -60.6336    -1.9995     0.0009    26.0000     4.0000     9.0000    22.0000    26.0000    10.0000     5.0000    20.0000     3.0005     1.0000    -0.4992    20.7738    41.5368     2.6660    14.4503    14.4502     1.7064     0.0000     1.0000     0.2004     0.200
    298     0.6666     0.6666     1.7350     0.0001     30.000   1313.000 226106.000     32.769    41.5367    88.1696   -60.7955    -1.9995     0.0009    26.0000     4.0000     9.0000    22.0000    26.0000    10.0000     5.0000    20.0000     3.0005     1.0000    -0.4993    20.7738    41.5368     2.6725    14.4503    14.4502     1.7061     0.0000     1.0000     0.2002     0.200
    299     0.6666     0.6666     1.7400     0.0001     30.000   1286.000 224790.000     32.578    41.5367    88.1483   -60.9574    -1.9995     0.0009    26.0000     4.0000     9.0000    22.0000    26.0000    10.0000     5.0000    20.0000     3.0005     1.0000    -0.4994    20.7738    41.5368     2.6789    14.4503    14.4502     1.7074     0.0000     1.0000     0.2002     0.200
    300     0.6666     0.6666     1.7450     0.0001     30.000   1329.000 225255.000     32.646    41.5367    88.1258   -61.1211    -1.9995     0.0009    26.0000     4.0000     9.0000    22.0000    26.0000    10.0000     5.0000    20.0000     3.0005     1.0000    -0.4993    20.7738    41.5368     2.6854    14.4503    14.4502     1.7072     0.0000     1.0000     0.2001     0.200
    301     0.6666     0.6666     1.7500     0.0001     30.000   1306.000 224787.000     32.578    41.5367    88.1035   -61.2849    -1.9995     0.0009    26.0000     4.0000     9.0000    22.0000    26.0000    10.0000     5.0000    20.0000     3.0005     1.0000    -0.4994    20.7738    41.5368     2.6919    14.4503    14.4502     1.7073     0.0000     1.0000     0.1999     0.200
    302     0.6666     0.6666     1.7550     0.0001     30.000   1311.000 224084.000     32.476    41.5367    88.0802   -61.4501    -1.9995     0.0009    26.0000     4.0000     9.0000    22.0000    26.0000    10.0000     5.0000    20.0000     3.0005     1.0000    -0.4993    20.7738    41.5368     2.6984    14.4503    14.4502     1.7073     0.0000     1.0000     0.1999     0.200
    303     0.6666     0.6666     1.7600     0.0001     30.000   1262.000 224770.000     32.575    41.5367    88.0570   -61.6153    -1.9995     0.0009    26.0000     4.0000     9.0000    22.0000    26.0000    10.0000     5.0000    20.0000     3.0005     1.0000    -0.4993    20.7738    41.5368     2.7050    14.4503    14.4502     1.7071     0.0000     1.0000     0.1998     0.200
    304     0.6665     0.6666     1.7651     0.0001     30.000   1256.000 224089.000     32.477    41.5367    88.0337   -61.7815    -1.9995     0.0009    26.0000     4.0000     9.0000    22.0000    26.0000    10.0000     5.0000    20.0000     3.0005     1.0000    -0.4994    20.7738    41.5368     2.7116    14.4503    14.4502     1.7072     0.0000     1.0000     0.1998     0.200
    305     0.6665     0.6665     1.7701     0.0001     30.000   1258.000 225148.000     32.630    41.5367    88.0102   -61.9473    -1.9995     0.0009    26.0000     4.0000     9.0000    22.0000    26.0000    10.0000     5.0000    20.0000     3.0005     1.0000    -0.4993    20.7738    41.5368     2.7181    14.4503    14.4502     1.7070     0.0000     1.0000     0.2001     0.200
    306     0.6665     0.6665     1.7751     0.0001     30.000   1295.000 225081.000     32.620    41.5367    87.9864   -62.1125    -1.9995     0.0009    26.0000     4.0000     9.0000    22.0000    26.0000    10.0000     5.0000    20.0000     3.0005     1.0000    -0.4994    20.7738    41.5368     2.7246    14.4503    14.4502     1.7071     0.0000     1.0000     0.2001     0.200
    307     0.6665     0.6665     1.7802     0.0001     30.000   1230.000 224144.000     32.485    41.5367    87.9616   -62.2779    -1.9995     0.0009    26.0000     4.0000     9.0000    22.0000    26.0000    10.0000     5.0000    20.0000     3.0005     1.0000    -0.4994    20.7738    41.5368     2.7312    14.4503    14.4502     1.7072     0.0000     1.0000     0.1999     0.200
    308     0.6665     0.6666     1.7850     0.0001     30.000   1242.000 224852.000     32.587    41.5367    87.9350   -62.4392    -1.9995     0.0009    26.0000     4.0000     9.0000    22.0000    26.0000    10.0000     5.0000    20.0000     3.0005     1.0000    -0.4994    20.7738    41.5368     2.7375    14.4503    14.4502     1.7074     0.0000     1.0000     0.1999     0.200
    309     0.6665     0.6665     1.7900     0.0001     30.000   1297.000 225161.000     32.632    41.5367    87.9111   -62.6047    -1.9995     0.0009    26.0000     4.0000     9.0000    22.0000    26.0000    10.0000     5.0000    20.0000     3.0005     1.0000    -0.4994    20.7738    41.5368     2.7440    14.4503    14.4502     1.7073     0.0000     1.0000     0.1999     0.200
    310     0.6666     0.6666     1.7950     0.0001     30.000   1306.000 224066.000     32.473    41.5367    87.8833   -62.7702    -1.9995     0.0009    26.0000     4.0000     9.0000    22.0000    26.0000    10.0000     5.0000    20.0000     3.0005     1.0000    -0.4994    20.7738    41.5368     2.7506    14.4503    14.4502     1.7072     0.0000     1.0000     0.1999     0.200
    311     0.6665     0.6666     1.8000     0.0001     30.000   1319.000 224880.000     32.591    41.5367    87.8572   -62.9349    -1.9995     0.0009    26.0000     4.0000     9.0000    22.0000    26.0000    10.0000     5.0000    20.0000     3.0005     1.0000    -0.4993    20.7738    41.5368     2.7570    14.4503    14.4502     1.7071     0.0000     1.0000     0.2002     0.200
    312     0.6666     0.6666     1.8049     0.0001     30.000   1282.000 225299.000     32.652    41.5367    87.8297   -63.1003    -1.9995     0.0009    26.0000     4.0000     9.0000    22.0000    26.0000    10.0000     5.0000    20.0000     3.0005     1.0000    -0.4994    20.7738    41.5368     2.7635    14.4503    14.4502     1.7073     0.0000     1.0000     0.2002     0.200
    313     0.6666     0.6666     1.8099     0.0001     30.000   1259.000 225837.000     32.730    41.5367    87.8028   -63.2668    -1.9995     0.0009    26.0000     4.0000     9.0000    22.0000    26.0000    10.0000     5.0000    20.0000     3.0005     1.0000    -0.4994    20.7738    41.5368     2.7701    14.4503    14.4502     1.7067     0.0000     1.0000     0.2004     0.200
    314     0.6666     0.6666     1.8150     0.0001     30.000   1306.000 225063.000     32.618    41.5367    87.7742   -63.4346    -1.9995     0.0009    26.0000     4.0000     9.0000    22.0000    26.0000    10.0000     5.0000    20.0000     3.0005     1.0000    -0.4994    20.7738    41.5368     2.7767    14.4503    14.4502     1.7072     0.0000     1.0000     0.2004     0.200
    315     0.6665     0.6666     1.8200     0.0001     30.000   1283.000 224661.000     32.560    41.5367    87.7473   -63.6037    -1.9995     0.0009    26.0000     4.0000     9.0000    22.0000    26.0000    10.0000     5.0000    20.0000     3.0005     1.0000    -0.4994    20.7738    41.5368     2.7833    14.4503    14.4502     1.7070     0.0000     1.0000     0.1993     0.200
    316     0.6666     0.6666     1.8251     0.0001     30.000   1269.000 224448.000     32.529    41.5367    87.7183   -63.7719    -1.9995     0.0009    26.0000     4.0000     9.0000    22.0000    26.0000    10.0000     5.0000    20.0000     3.0005     1.0000    -0.4994    20.7738    41.5368     2.7899    14.4503    14.4502     1.7070     0.0000     1.0000     0.1993     0.200
    317     0.6665     0.6666     1.8301     0.0001     30.000   1270.000 225553.000     32.689    41.5367    87.6904   -63.9391    -1.9995     0.0009    26.0000     4.0000     9.0000    22.0000    26.0000    10.0000     5.0000    20.0000     3.0005     1.0000    -0.4994    20.7738    41.5368     2.7964    14.4503    14.4502     1.7071     0.0000     1.0000     0.2004     0.200
    318     0.6666     0.6666     1.8350     0.0001     30.000   1254.000 223762.000     32.429    41.5367    87.6608   -64.1058    -1.9995     0.0009    26.0000     4.0000     9.0000    22.0000    26.0000    10.0000     5.0000    20.0000     3.0005     1.0000    -0.4994    20.7738    41.5368     2.8029    14.4503    14.4502     1.7071     0.0000     1.0000     0.2004     0.200
    319     0.6666     0.6666     1.8400     0.0001     30.000   1279.000 224734.000     32.570    41.5367    87.6319   -64.2715    -1.9995     0.0009    26.0000     4.0000     9.0000    22.0000    26.0000    10.0000     5.0000    20.0000     3.0005     1.0000    -0.4994    20.7738    41.5368     2.8094    14.4503    14.4502     1.7070     0.0000     1.0000     0.2001     0.200
    320     0.6666     0.6666     1.8449     0.0001     30.000   1241.000 224218.000     32.495    41.5367    87.6020   -64.4383    -1.9995     0.0009    26.0000     4.0000     9.0000    22.0000    26.0000    10.0000     5.0000    20.0000     3.0005     1.0000    -0.4994    20.7738    41.5368     2.8159    14.4503    14.4502     1.7068     0.0000     1.0000     0.2001     0.200
    321     0.6665     0.6665     1.8500     0.0001     30.000   1335.000 224643.000     32.557    41.5367    87.5728   -64.6086    -1.9995     0.0009    26.0000     4.0000     9.0000    22.0000    26.0000    10.0000     5.0000    20.0000     3.0005     1.0000    -0.4994    20.7738    41.5368     2.8225    14.4503    14.4502     1.7072     0.0000     1.0000     0.2004     0.200
    322     0.6666     0.6666     1.8550     0.0001     30.000   1341.000 224461.000     32.531    41.5367    87.5411   -64.7775    -1.9995     0.0009    26.0000     4.0000     9.0000    22.0000    26.0000    10.0000     5.0000    20.0000     3.0005     1.0000    -0.4994    20.7738    41.5368     2.8291    14.4503    14.4502     1.7069     0.0000     1.0000     0.1992     0.200
    323     0.6666     0.6666     1.8600     0.0001     30.000   1225.000 224309.000     32.509    41.5367    87.5106   -64.9441    -1.9995     0.0009    26.0000     4.0000     9.0000    22.0000    26.0000    10.0000     5.0000    20.0000     3.0005     1.0000    -0.4994    20.7738    41.5368     2.8356    14.4503    14.4502     1.7066     0.0000     1.0000     0.1992     0.200
    324     0.6666     0.6666     1.8650     0.0001     30.000   1333.000 223277.000     32.359    41.5367    87.4795   -65.1142    -1.9995     0.0009    26.0000     4.0000     9.0000    22.0000    26.0000    10.0000     5.0000    20.0000     3.0005     1.0000    -0.4994    20.7738    41.5368     2.8422    14.4503    14.4502     1.7075     0.0000     1.0000     0.2000     0.200
    325     0.6666     0.6666     1.8700     0.0001     30.000   1364.000 223905.000     32.450    41.5367    87.4474   -65.2845    -1.9995     0.0009    26.0000     4.0000     9.0000    22.0000    26.0000    10.0000     5.0000    20.0000     3.0005     1.0000    -0.4995    20.7738    41.5368     2.8488    14.4503    14.4502     1.7070     0.0000     1.0000     0.2000     0.200
    326     0.6666     0.6666     1.8751     0.0001     30.000   1287.000 224671.000     32.561    41.5367    87.4149   -65.4550    -1.9995     0.0009    26.0000     4.0000     9.0000    22.0000    26.0000    10.0000     5.0000    20.0000     3.0005     1.0000    -0.4995    20.7738    41.5368     2.8554    14.4503    14.4502     1.7065     0.0000     1.0000     0.2003     0.200
    327     0.6666     0.6666     1.8800     0.0001     30.000   1397.000 223797.000     32.434    41.5367    87.3836   -65.6223    -1.9995     0.0009    26.0000     4.0000     9.0000    22.0000    26.0000    10.0000     5.0000    20.0000     3.0005     1.0000    -0.4994    20.7738    41.5368     2.8619    14.4503    14.4502     1.7069     0.0000     1.0000     0.2003     0.200
    328     0.6666     0.6666     1.8849     0.0001     30.000   1342.000 224042.000     32.470    41.5367    87.3499   -65.7899    -1.9995     0.0009    26.0000     4.0000     9.0000    22.0000    26.0000    10.0000     5.0000    20.0000     3.0005     1.0000    -0.4995    20.7738    41.5368     2.8684    14.4503    14.4502     1.7068     0.0000     1.0000     0.1996     0.200
    329     0.6666     0.6666     1.8899     0.0001     30.000   1390.000 224691.000     32.564    41.5367    87.3174   -65.9589    -1.9995     0.0009    26.0000     4.0000     9.0000    22.0000    26.0000    10.0000     5.0000    20.0000     3.0005     1.0000    -0.4995    20.7737    41.5368     2.8749    14.4503    14.4502     1.7068     0.0000     1.0000     0.1996     0.200
    330     0.6666     0.6666     1.8949     0.0001     30.000   1389.000 224423.000     32.525    41.5367    87.2839   -66.1296    -1.9995     0.0009    26.0000     4.0000     9.0000    22.0000    26.0000    10.0000     5.0000    20.0000     3.0005     1.0000    -0.4994    20.7737    41.5368     2.8815    14.4503    14.4502     1.7068     0.0000     1.0000     0.2000     0.200
    331     0.6666     0.6666     1.9000     0.0001     30.000   1456.000 224207.000     32.494    41.5367    87.2507   -66.3006    -1.9995     0.0009    26.0000     4.0000     9.0000    22.0000    26.0000    10.0000     5.0000    20.0000     3.0005     1.0000    -0.4995    20.7737    41.5368     2.8881    14.4503    14.4502     1.7065     0.0000     1.0000     0.2000     0.200
    332     0.6666     0.6666     1.9050     0.0001     30.000   1494.000 224375.000     32.518    41.5367    87.2165   -66.4716    -1.9995     0.0009    26.0000     4.0000     9.0000    22.0000    26.0000    10.0000     5.0000    20.0000     3.0005     1.0000    -0.4995    20.7737    41.5368     2.8947    14.4503    14.4502     1.7067     0.0000     1.0000     0.1985     0.200
    333     0.6666     0.6666     1.9099     0.0001     30.000   1525.000 223830.000     32.439    41.5367    87.1827   -66.6414    -1.9995     0.0009    26.0000     4.0000     9.0000    22.0000    26.0000    10.0000     5.0000    20.0000     3.0005     1.0000    -0.4995    20.7737    41.5368     2.9013    14.4503    14.4502     1.7067     0.0000     1.0000     0.1985     0.200
    334     0.6666     0.6666     1.9151     0.0001     30.000   1559.000 224557.000     32.544    41.5367    87.1476   -66.8164    -1.9995     0.0009    26.0000     4.0000     9.0000    22.0000    26.0000    10.0000     5.0000    20.0000     3.0005     1.0000    -0.4995    20.7737    41.5368     2.9080    14.4503    14.4502     1.7066     0.0000     1.0000     0.1999     0.200
    335     0.6666     0.6666     1.9200     0.0001     30.000   1505.000 223050.000     32.326    41.5367    87.1125   -66.9869    -1.9995     0.0009    26.0000     4.0000     9.0000    22.0000    26.0000    10.0000     5.0000    20.0000     3.0005     1.0000    -0.4995    20.7737    41.5368     2.9146    14.4503    14.4502     1.7067     0.0000     1.0000     0.1999     0.200
    336     0.6666     0.6666     1.9251     0.0001     30.000   1605.000 223330.000     32.367    41.5367    87.0769   -67.1596    -1.9995     0.0009    26.0000     4.0000     9.0000    22.0000    26.0000    10.0000     5.0000    20.0000     3.0005     1.0000    -0.4995    20.7737    41.5368     2.9212    14.4503    14.4502     1.7067     0.0000     1.0000     0.1994     0.200
    337     0.6666     0.6666     1.9300     0.0001     30.000   1597.000 224729.000     32.569    41.5367    87.0414   -67.3290    -1.9995     0.0009    26.0000     4.0000     9.0000    22.0000    26.0000    10.0000     5.0000    20.0000     3.0005     1.0000    -0.4995    20.7737    41.5368     2.9277    14.4503    14.4502     1.7066     0.0000     1.0000     0.1994     0.200
    338     0.6666     0.6666     1.9349     0.0001     30.000   1615.000 224378.000     32.519    41.5367    87.0053   -67.4986    -1.9995     0.0009    26.0000     4.0000     9.0000    22.0000    26.0000    10.0000     5.0000    20.0000     3.0005     1.0000    -0.4995    20.7737    41.5368     2.9342    14.4503    14.4502     1.7067     0.0000     1.0000     0.2001     0.200
    339     0.6666     0.6666     1.9399     0.0001     30.000   1772.000 223503.000     32.392    41.5367    86.9690   -67.6703    -1.9995     0.0009    26.0000     4.0000     9.0000    22.0000    26.0000    10.0000     5.0000    20.0000     3.0005     1.0000    -0.4995    20.7737    41.5368     2.9408    14.4503    14.4502     1.7066     0.0000     1.0000     0.2001     0.200
    340     0.6666     0.6666     1.9449     0.0001     30.000   1781.000 223463.000     32.386    41.5367    86.9323   -67.8433    -1.9995     0.0009    26.0000     4.0000     9.0000    22.0000    26.0000    10.0000     5.0000    20.0000     3.0005     1.0000    -0.4995    20.7737    41.5368     2.9474    14.4503    14.4502     1.7067     0.0000     1.0000     0.1999     0.200
    341     0.6666     0.6666     1.9500     0.0001     30.000   1875.000 224414.000     32.524    41.5367    86.8948   -68.0191    -1.9995     0.0009    26.0000     4.0000     9.0000    22.0000    26.0000    10.0000     5.0000    20.0000     3.0005     1.0000    -0.4995    20.7737    41.5368     2.9541    14.4503    14.4502     1.7066     0.0000     1.0000     0.2000     0.200
    342     0.6666     0.6666     1.9550     0.0001     30.000   2174.000 224317.000     32.510    41.5367    86.8580   -68.1908    -1.9995     0.0009    26.0000     4.0000     9.0000    22.0000    26.0000    10.0000     5.0000    20.0000     3.0005     1.0000    -0.4995    20.7737    41.5368     2.9607    14.4503    14.4502     1.7066     0.0000     1.0000     0.2000     0.200
    343     0.6666     0.6666     1.9601     0.0001     30.000   3201.000 223505.000     32.392    41.5367    86.8198   -68.3672    -1.9995     0.0009    26.0000     4.0000     9.0000    22.0000    26.0000    10.0000     5.0000    20.0000     3.0005     1.0000    -0.4995    20.7737    41.5368     2.9674    14.4503    14.4502     1.7065     0.0000     1.0000     0.2000     0.200
    344     0.6665     0.6665     1.9651     0.0001     30.000   5969.000 223970.000     32.459    41.5367    86.7829   -68.5404    -1.9995     0.0009    26.0000     4.0000     9.0000    22.0000    26.0000    10.0000     5.0000    20.0000     3.0005     1.0000    -0.4995    20.7737    41.5368     2.9740    14.4503    14.4502     1.7065     0.0000     1.0000     0.2000     0.200
    345     0.6666     0.6666     1.9700     0.0001     30.000  12836.000 224530.000     32.541    41.5367    86.7436   -68.7118    -1.9995     0.0009    26.0000     4.0000     9.0000    22.0000    26.0000    10.0000     5.0000    20.0000     3.0005     1.0000    -0.4995    20.7737    41.5368     2.9805    14.4503    14.4502     1.7065     0.0000     1.0000     0.1996     0.200
    346     0.6666     0.6666     1.9751     0.0001     30.000  24049.000 224274.000     32.503    41.5367    86.7048   -68.8875    -1.9995     0.0009    26.0000     4.0000     9.0000    22.0000    26.0000    10.0000     5.0000    20.0000     3.0005     1.0000    -0.4995    20.7737    41.5368     2.9872    14.4503    14.4502     1.7064     0.0000     1.0000     0.1996     0.200
    347     0.6666     0.6666     1.9800     0.0001     30.000  38521.000 223814.000     32.437    41.5367    86.6658   -69.0590    -1.9995     0.0009    26.0000     4.0000     9.0000    22.0000    26.0000    10.0000     5.0000    20.0000     3.0005     1.0000    -0.4995    20.7737    41.5368     2.9937    14.4503    14.4502     1.7062     0.0000     1.0000     0.1990     0.200
    348     0.6666     0.6666     1.9850     0.0001     30.000  55093.000 223092.000     32.332    41.5367    86.6267   -69.2327    -1.9995     0.0009    26.0000     4.0000     9.0000    22.0000    26.0000    10.0000     5.0000    20.0000     3.0005     1.0000    -0.4995    20.7737    41.5368     3.0003    14.4503    14.4502     1.7065     0.0000     1.0000     0.1990     0.200
    349     0.6666     0.6666     1.9899     0.0001     30.000  69988.000 224945.000     32.601    41.5367    86.5867   -69.4063    -1.9995     0.0009    26.0000     4.0000     9.0000    22.0000    26.0000    10.0000     5.0000    20.0000     3.0005     1.0000    -0.4995    20.7737    41.5368     3.0069    14.4503    14.4502     1.7063     0.0000     1.0000     0.1994     0.200
    350     0.6666     0.6666     1.9949     0.0001     30.000  78136.000 223857.000     32.443    41.5367    86.5465   -69.5812    -1.9995     0.0009    26.0000     4.0000     9.0000    22.0000    26.0000    10.0000     5.0000    20.0000     3.0005     1.0000    -0.4995    20.7737    41.5368     3.0135    14.4503    14.4502     1.7065     0.0000     1.0000     0.1994     0.200
    351     0.6666     0.6666     1.9999     0.0001     30.000  77270.000 223611.000     32.407    41.5367    86.5059   -69.7565    -1.9995     0.0009    26.0000     4.0000     9.0000    22.0000    26.0000    10.0000     5.0000    20.0000     3.0005     1.0000    -0.4995    20.7737    41.5368     3.0202    14.4503    14.4502     1.7063     0.0000     1.0000     0.2002     0.200
    352     0.6666     0.6666     2.0049     0.0001     30.000  69819.000 224879.000     32.591    41.5367    86.4655   -69.9317    -1.9995     0.0009    26.0000     4.0000     9.0000    22.0000    26.0000    10.0000     5.0000    20.0000     3.0005     1.0000    -0.4995    20.7737    41.5368     3.0268    14.4503    14.4502     1.7064     0.0000     1.0000     0.2002     0.200
    353     0.6666     0.6666     2.0101     0.0001     30.000  56693.000 223307.000     32.363    41.5367    86.4243   -70.1110    -1.9995     0.0009    26.0000     4.0000     9.0000    22.0000    26.0000    10.0000     5.0000    20.0000     3.0005     1.0000    -0.4995    20.7737    41.5368     3.0336    14.4503    14.4502     1.7063     0.0000     1.0000     0.2003     0.200
    354     0.6666     0.6666     2.0151     0.0001     30.000  41449.000 223957.000     32.458    41.5367    86.3827   -70.2876    -1.9995     0.0009    26.0000     4.0000     9.0000    22.0000    26.0000    10.0000     5.0000    20.0000     3.0005     1.0000    -0.4995    20.7737    41.5368     3.0402    14.4503    14.4502     1.7066     0.0000     1.0000     0.2003     0.200
    355     0.6666     0.6666     2.0201     0.0001     30.000  26006.000 223940.000     32.455    41.5367    86.3407   -70.4640    -1.9995     0.0009    26.0000     4.0000     9.0000    22.0000    26.0000    10.0000     5.0000    20.0000     3.0005     1.0000    -0.4995    20.7736    41.5368     3.0469    14.4503    14.4502     1.7065     0.0000     1.0000     0.1993     0.200
    356     0.6666     0.6666     2.0251     0.0001     30.000  13971.000 224190.000     32.491    41.5367    86.2992   -70.6390    -1.9995     0.0009    26.0000     4.0000     9.0000    22.0000    26.0000    10.0000     5.0000    20.0000     3.0005     1.0000    -0.4995    20.7736    41.5368     3.0534    14.4503    14.4502     1.7064     0.0000     1.0000     0.1993     0.200
    357     0.6666     0.6666     2.0300     0.0001     30.000   7044.000 223130.000     32.338    41.5367    86.2564   -70.8130    -1.9995     0.0009    26.0000     4.0000     9.0000    22.0000    26.0000    10.0000     5.0000    20.0000     3.0005     1.0000    -0.4995    20.7736    41.5368     3.0600    14.4503    14.4502     1.7066     0.0000     1.0000     0.1991     0.200
    358     0.6666     0.6666     2.0350     0.0001     30.000   3795.000 223165.000     32.343    41.5367    86.2144   -70.9899    -1.9995     0.0009    26.0000     4.0000     9.0000    22.0000    26.0000    10.0000     5.0000    20.0000     3.0005     1.0000    -0.4995    20.7736    41.5368     3.0666    14.4503    14.4502     1.7063     0.0000     1.0000     0.1991     0.200
    359     0.6666     0.6666     2.0400     0.0001     30.000   2601.000 223487.000     32.389    41.5367    86.1708   -71.1686    -1.9995     0.0009    26.0000     4.0000     9.0000    22.0000    26.0000    10.0000     5.0000    20.0000     3.0005     1.0000    -0.4995    20.7736    41.5368     3.0733    14.4503    14.4502     1.7063     0.0000     1.0000     0.2000     0.200
    360     0.6666     0.6666     2.0450     0.0001     30.000   2069.000 223755.000     32.428    41.5367    86.1279   -71.3454    -1.9995     0.0009    26.0000     4.0000     9.0000    22.0000    26.0000    10.0000     5.0000    20.0000     3.0005     1.0000    -0.4995    20.7736    41.5368     3.0799    14.4503    14.4502     1.7063     0.0000     1.0000     0.1998     0.200
    361     0.6666     0.6666     2.0500     0.0001     30.000   1801.000 222792.000     32.289    41.5367    86.0843   -71.5220    -1.9995     0.0009    26.0000     4.0000     9.0000    22.0000    26.0000    10.0000     5.0000    20.0000     3.0005     1.0000    -0.4995    20.7736    41.5368     3.0866    14.4503    14.4502     1.7063     0.0000     1.0000     0.1998     0.200
    362     0.6666     0.6666     2.0550     0.0001     30.000   1790.000 223162.000     32.342    41.5367    86.0398   -71.7005    -1.9995     0.0009    26.0000     4.0000     9.0000    22.0000    26.0000    10.0000     5.0000    20.0000     3.0005     1.0000    -0.4995    20.7736    41.5368     3.0932    14.4503    14.4502     1.7064     0.0000     1.0000     0.2000     0.200
    363     0.6666     0.6666     2.0601     0.0001     30.000   1758.000 223698.000     32.420    41.5367    85.9962   -71.8805    -1.9995     0.0009    26.0000     4.0000     9.0000    22.0000    26.0000    10.0000     5.0000    20.0000     3.0005     1.0000    -0.4995    20.7736    41.5368     3.0999    14.4503    14.4502     1.7066     0.0000     1.0000     0.2000     0.200
    364     0.6666     0.6666     2.0651     0.0001     30.000   1644.000 223014.000     32.321    41.5367    85.9518   -72.0578    -1.9995     0.0009    26.0000     4.0000     9.0000    22.0000    26.0000    10.0000     5.0000    20.0000     3.0005     1.0000    -0.4995    20.7736    41.5368     3.1066    14.4503    14.4502     1.7067     0.0000     1.0000     0.2001     0.200
    365     0.6666     0.6666     2.0700     0.0001     30.000   1614.000 223906.000     32.450    41.5367    85.9064   -72.2353    -1.9995     0.0009    26.0000     4.0000     9.0000    22.0000    26.0000    10.0000     5.0000    20.0000     3.0005     1.0000    -0.4995    20.7736    41.5368     3.1132    14.4503    14.4502     1.7067     0.0000     1.0000     0.2001     0.200
    366     0.6666     0.6666     2.0749     0.0001     30.000   1500.000 222987.000     32.317    41.5367    85.8617   -72.4106    -1.9995     0.0009    26.0000     4.0000     9.0000    22.0000    26.0000    10.0000     5.0000    20.0000     3.0005     1.0000    -0.4995    20.7736    41.5368     3.1197    14.4503    14.4502     1.7066     0.0000     1.0000     0.1995     0.200
    367     0.6666     0.6666     2.0800     0.0001     30.000   1591.000 225236.000     32.643    41.5367    85.8158   -72.5907    -1.9995     0.0009    26.0000     4.0000     9.0000    22.0000    26.0000    10.0000     5.0000    20.0000     3.0005     1.0000    -0.4995    20.7736    41.5368     3.1264    14.4503    14.4502     1.7066     0.0000     1.0000     0.1995     0.200
    368     0.6666     0.6666     2.0850     0.0001     30.000   1563.000 224428.000     32.526    41.5367    85.7703   -72.7704    -1.9995     0.0009    26.0000     4.0000     9.0000    22.0000    26.0000    10.0000     5.0000    20.0000     3.0005     1.0000    -0.4996    20.7736    41.5368     3.1331    14.4503    14.4502     1.7065     0.0000     1.0000     0.1994     0.200
    369     0.6666     0.6666     2.0900     0.0001     30.000   1554.000 223520.000     32.394    41.5367    85.7244   -72.9495    -1.9995     0.0009    26.0000     4.0000     9.0000    22.0000    26.0000    10.0000     5.0000    20.0000     3.0005     1.0000    -0.4996    20.7736    41.5368     3.1397    14.4503    14.4502     1.7066     0.0000     1.0000     0.1994     0.200
    370     0.6666     0.6666     2.0950     0.0001     30.000   1515.000 224443.000     32.528    41.5367    85.6773   -73.1301    -1.9995     0.0009    26.0000     4.0000     9.0000    22.0000    26.0000    10.0000     5.0000    20.0000     3.0005     1.0000    -0.4996    20.7736    41.5368     3.1464    14.4503    14.4502     1.7066     0.0000     1.0000     0.2000     0.200
    371     0.6666     0.6666     2.1000     0.0001     30.000   1595.000 222951.000     32.312    41.5367    85.6309   -73.3105    -1.9995     0.0009    26.0000     4.0000     9.0000    22.0000    26.0000    10.0000     5.0000    20.0000     3.0005     1.0000    -0.4995    20.7735    41.5368     3.1531    14.4503    14.4502     1.7064     0.0000     1.0000     0.2000     0.200
    372     0.6666     0.6666     2.1050     0.0001     30.000   1545.000 223157.000     32.342    41.5367    85.5840   -73.4922    -1.9995     0.0009    26.0000     4.0000     9.0000    22.0000    26.0000    10.0000     5.0000    20.0000     3.0005     1.0000    -0.4995    20.7735    41.5368     3.1598    14.4503    14.4502     1.7062     0.0000     1.0000     0.1989     0.200
    373     0.6666     0.6666     2.1100     0.0001     30.000   1472.000 222421.000     32.235    41.5367    85.5360   -73.6731    -1.9995     0.0009    26.0000     4.0000     9.0000    22.0000    26.0000    10.0000     5.0000    20.0000     3.0005     1.0000    -0.4996    20.7735    41.5368     3.1665    14.4503    14.4502     1.7062     0.0000     1.0000     0.1989     0.200
    374     0.6666     0.6666     2.1150     0.0001     30.000   1490.000 222876.000     32.301    41.5367    85.4888   -73.8519    -1.9995     0.0009    26.0000     4.0000     9.0000    22.0000    26.0000    10.0000     5.0000    20.0000     3.0005     1.0000    -0.4995    20.7735    41.5368     3.1731    14.4503    14.4502     1.7061     0.0000     1.0000     0.2002     0.200
    375     0.6666     0.6666     2.1199     0.0001     30.000   1540.000 222787.000     32.288    41.5367    85.4403   -74.0309    -1.9995     0.0009    26.0000     4.0000     9.0000    22.0000    26.0000    10.0000     5.0000    20.0000     3.0005     1.0000    -0.4995    20.7735    41.5368     3.1796    14.4503    14.4502     1.7060     0.0000     1.0000     0.2002     0.200
    376     0.6666     0.6666     2.1249     0.0001     30.000   1453.000 223301.000     32.362    41.5367    85.3921   -74.2117    -1.9995     0.0009    26.0000     4.0000     9.0000    22.0000    26.0000    10.0000     5.0000    20.0000     3.0005     1.0000    -0.4995    20.7735    41.5368     3.1863    14.4503    14.4502     1.7062     0.0000     1.0000     0.2005     0.200
    377     0.6666     0.6666     2.1300     0.0001     30.000   1506.000 222476.000     32.243    41.5367    85.3437   -74.3946    -1.9995     0.0009    26.0000     4.0000     9.0000    22.0000    26.0000    10.0000     5.0000    20.0000     3.0005     1.0000    -0.4996    20.7735    41.5368     3.1930    14.4503    14.4502     1.7062     0.0000     1.0000     0.2005     0.200
    378     0.6666     0.6666     2.1350     0.0001     30.000   1495.000 223063.000     32.328    41.5367    85.2943   -74.5766    -1.9995     0.0009    26.0000     4.0000     9.0000    22.0000    26.0000    10.0000     5.0000    20.0000     3.0005     1.0000    -0.4996    20.7735    41.5368     3.1997    14.4503    14.4502     1.7062     0.0000     1.0000     0.2003     0.200
    379     0.6666     0.6666     2.1400     0.0001     30.000   1543.000 223419.000     32.380    41.5367    85.2449   -74.7602    -1.9995     0.0009    26.0000     4.0000     9.0000    22.0000    26.0000    10.0000     5.0000    20.0000     3.0005     1.0000    -0.4996    20.7735    41.5368     3.2064    14.4503    14.4502     1.7062     0.0000     1.0000     0.1982     0.200
    380     0.6666     0.6666     2.1451     0.0001     30.000   1526.000 222647.000     32.268    41.5367    85.1955   -74.9451    -1.9995     0.0009    26.0000     4.0000     9.0000    22.0000    26.0000    10.0000     5.0000    20.0000     3.0005     1.0000    -0.4996    20.7735    41.5368     3.2132    14.4503    14.4502     1.7064     0.0000     1.0000     0.1982     0.200
    381     0.6666     0.6666     2.1501     0.0001     30.000   1510.000 223323.000     32.366    41.5367    85.1458   -75.1285    -1.9995     0.0009    26.0000     4.0000     9.0000    22.0000    26.0000    10.0000     5.0000    20.0000     3.0005     1.0000    -0.4996    20.7735    41.5368     3.2199    14.4503    14.4502     1.7062     0.0000     1.0000     0.1994     0.200
    382     0.6666     0.6666     2.1550     0.0001     30.000   1481.000 223046.000     32.326    41.5367    85.0954   -75.3081    -1.9995     0.0009    26.0000     4.0000     9.0000    22.0000    26.0000    10.0000     5.0000    20.0000     3.0005     1.0000    -0.4996    20.7735    41.5368     3.2264    14.4503    14.4502     1.7062     0.0000     1.0000     0.1994     0.200
    383     0.6666     0.6666     2.1600     0.0001     30.000   1546.000 222661.000     32.270    41.5367    85.0454   -75.4924    -1.9995     0.0009    26.0000     4.0000     9.0000    22.0000    26.0000    10.0000     5.0000    20.0000     3.0005     1.0000    -0.4996    20.7735    41.5368     3.2332    14.4503    14.4502     1.7062     0.0000     1.0000     0.1990     0.200
    384     0.6666     0.6666     2.1650     0.0001     30.000   1495.000 223838.000     32.440    41.5367    84.9948   -75.6739    -1.9995     0.0009    26.0000     4.0000     9.0000    22.0000    26.0000    10.0000     5.0000    20.0000     3.0005     1.0000    -0.4996    20.7735    41.5368     3.2398    14.4503    14.4502     1.7063     0.0000     1.0000     0.1990     0.200
    385     0.6666     0.6666     2.1699     0.0001     30.000   1471.000 222260.000     32.212    41.5367    84.9435   -75.8566    -1.9995     0.0009    26.0000     4.0000     9.0000    22.0000    26.0000    10.0000     5.0000    20.0000     3.0005     1.0000    -0.4996    20.7735    41.5368     3.2464    14.4503    14.4502     1.7062     0.0000     1.0000     0.1997     0.200
    386     0.6666     0.6666     2.1749     0.0001     30.000   1489.000 223182.000     32.345    41.5367    84.8917   -76.0410    -1.9995     0.0009    26.0000     4.0000     9.0000    22.0000    26.0000    10.0000     5.0000    20.0000     3.0005     1.0000    -0.4996    20.7734    41.5368     3.2531    14.4503    14.4502     1.7061     0.0000     1.0000     0.1997     0.200
    387     0.6666     0.6666     2.1799     0.0001     30.000   1507.000 222959.000     32.313    41.5367    84.8403   -76.2248    -1.9995     0.0009    26.0000     4.0000     9.0000    22.0000    26.0000    10.0000     5.0000    20.0000     3.0005     1.0000    -0.4996    20.7734    41.5368     3.2598    14.4503    14.4502     1.7061     0.0000     1.0000     0.2000     0.200
    388     0.6666     0.6666     2.1850     0.0001     30.000   1559.000 223288.000     32.361    41.5367    84.7887   -76.4105    -1.9995     0.0009    26.0000     4.0000     9.0000    22.0000    26.0000    10.0000     5.0000    20.0000     3.0005     1.0000    -0.4996    20.7734    41.5368     3.2665    14.4503    14.4502     1.7059     0.0000     1.0000     0.2000     0.200
    389     0.6666     0.6666     2.1900     0.0001     30.000   1600.000 223275.000     32.359    41.5367    84.7357   -76.5959    -1.9995     0.0009    26.0000     4.0000     9.0000    22.0000    26.0000    10.0000     5.0000    20.0000     3.0005     1.0000    -0.4996    20.7734    41.5368     3.2732    14.4503    14.4502     1.7061     0.0000     1.0000     0.2001     0.200
    390     0.6666     0.6666     2.1950     0.0001     30.000   1481.000 222670.000     32.271    41.5367    84.6842   -76.7803    -1.9995     0.0009    26.0000     4.0000     9.0000    22.0000    26.0000    10.0000     5.0000    20.0000     3.0005     1.0000    -0.4996    20.7734    41.5368     3.2799    14.4503    14.4502     1.7061     0.0000     1.0000     0.2001     0.200
    391     0.6666     0.6666     2.2000     0.0001     30.000   1576.000 222541.000     32.252    41.5367    84.6304   -76.9653    -1.9995     0.0009    26.0000     4.0000     9.0000    22.0000    26.0000    10.0000     5.0000    20.0000     3.0005     1.0000    -0.4996    20.7734    41.5368     3.2866    14.4503    14.4502     1.7063     0.0000     1.0000     0.2004     0.200
    392     0.6666     0.6666     2.2050     0.0001     30.000   1510.000 223667.000     32.416    41.5367    84.5772   -77.1533    -1.9995     0.0009    26.0000     4.0000     9.0000    22.0000    26.0000    10.0000     5.0000    20.0000     3.0005     1.0000    -0.4996    20.7734    41.5368     3.2934    14.4503    14.4502     1.7064     0.0000     1.0000     0.2004     0.200
    393     0.6666     0.6666     2.2100     0.0001     30.000   1538.000 222740.000     32.281    41.5367    84.5242   -77.3367    -1.9995     0.0009    26.0000     4.0000     9.0000    22.0000    26.0000    10.0000     5.0000    20.0000     3.0005     1.0000    -0.4996    20.7734    41.5368     3.3000    14.4503    14.4502     1.7063     0.0000     1.0000     0.1999     0.200
    394     0.6666     0.6666     2.2150     0.0001     30.000   1574.000 223425.000     32.380    41.5367    84.4701   -77.5240    -1.9995     0.0009    26.0000     4.0000     9.0000    22.0000    26.0000    10.0000     5.0000    20.0000     3.0005     1.0000    -0.4996    20.7734    41.5368     3.3067    14.4503    14.4502     1.7062     0.0000     1.0000     0.1999     0.200
    395     0.6666     0.6666     2.2201     0.0001     30.000   1536.000 224047.000     32.471    41.5367    84.4158   -77.7135    -1.9995     0.0009    26.0000     4.0000     9.0000    22.0000    26.0000    10.0000     5.0000    20.0000     3.0005     1.0000    -0.4996    20.7734    41.5368     3.3135    14.4503    14.4502     1.7063     0.0000     1.0000     0.2002     0.200
    396     0.6666     0.6666     2.2250     0.0001     30.000   1555.000 222600.000     32.261    41.5367    84.3611   -77.8972    -1.9995     0.0009    26.0000     4.0000     9.0000    22.0000    26.0000    10.0000     5.0000    20.0000     3.0005     1.0000    -0.4996    20.7734    41.5368     3.3201    14.4503    14.4502     1.7063     0.0000     1.0000     0.2002     0.200
    397     0.6666     0.6666     2.2300     0.0001     30.000   1592.000 223369.000     32.372    41.5367    84.3063   -78.0853    -1.9995     0.0009    26.0000     4.0000     9.0000    22.0000    26.0000    10.0000     5.0000    20.0000     3.0005     1.0000    -0.4996    20.7733    41.5368     3.3268    14.4503    14.4502     1.7061     0.0000     1.0000     0.2002     0.200
    398     0.6666     0.6666     2.2350     0.0001     30.000   1514.000 222877.000     32.301    41.5367    84.2513   -78.2740    -1.9995     0.0009    26.0000     4.0000     9.0000    22.0000    26.0000    10.0000     5.0000    20.0000     3.0005     1.0000    -0.4996    20.7734    41.5368     3.3336    14.4503    14.4502     1.7060     0.0000     1.0000     0.2000     0.200
    399     0.6666     0.6666     2.2401     0.0001     30.000   1556.000 222155.000     32.196    41.5367    84.1962   -78.4625    -1.9995     0.0009    26.0000     4.0000     9.0000    22.0000    26.0000    10.0000     5.0000    20.0000     3.0005     1.0000    -0.4996    20.7734    41.5368     3.3403    14.4503    14.4502     1.7060     0.0000     1.0000     0.2000     0.200
    400     0.6666     0.6666     2.2450     0.0001     30.000   1593.000 224135.000     32.483    41.5367    84.1405   -78.6495    -1.9995     0.0009    26.0000     4.0000     9.0000    22.0000    26.0000    10.0000     5.0000    20.0000     3.0005     1.0000    -0.4996    20.7733    41.5368     3.3470    14.4503    14.4502     1.7061     0.0000     1.0000     0.2003     0.200
    401     0.6666     0.6666     2.2500     0.0001     30.000   1619.000 223543.000     32.398    41.5367    84.0849   -78.8351    -1.9995     0.0009    26.0000     4.0000     9.0000    22.0000    26.0000    10.0000     5.0000    20.0000     3.0005     1.0000    -0.4996    20.7733    41.5368     3.3536    14.4503    14.4502     1.7062     0.0000     1.0000     0.2003     0.200
# Sum of Counts = 1097941
# Center of Mass = 1.642032+/-0.002279
# Full Width Half-Maximum = 1.113576+/-0.001171
# 8:29:59 AM  9/22/2023   scan completed.
