# scan = 36
# date = 9/20/2023
# time = 4:36:20 AM
# proposal = 30730
# experiment = Low Temperature Magnetic Structure of CeCl3
# experiment_number = 998
# command = scan h 1.33333 k 1.33333 l 0.25 1.75 0.005 e 0 preset time 30 
# builtin_command = scan h 1.33333 k 1.33333 l 0.25 1.75 0.005 e 0 preset time 30
# users = Adam Aczel, David Mandrus, Matthew Cothrine, Stephen Nagler
# local_contact = A. Aczel
# scan_title = CeBr3, (4/3 4/3 L) scan, T = 0.04 K
# monochromator = PG002
# analyzer = Pg002
# sense = +-+
# collimation = 40-40-40-80
# samplename = CeBr3
# sampletype = crystal
# samplemosaic = 30.000000
# latticeconstants = 7.911813,7.911813,4.442653,90.000000,90.000000,120.000000
# ubmatrix = 0.075384,0.080477,-0.177039,-0.099473,-0.099471,-0.138870,-0.075649,0.070209,0.006183
# mode = 0
# plane_normal = 0.034896,0.000010,0.999390
# ubconf = UB19Sep2023_24416PM.ini
# preset_type = normal 
# preset_channel = time
# preset_value = 30.000000
# def_x = l
# def_y = detector
# col_headers = 
#   Pt.          h          k          l          e       time   detector    monitor        mcu         m2         s1         s2        sgl        sgu   slitb_bt   slitb_lf   slitb_rt   slitb_tp   slita_bt   slita_lf   slita_rt   slita_tp        stl        stu         sz         a1         a2          q         ei         ef        vti     sample       temp dr_tsample    dr_temp
      1     1.3334     1.3334     0.2500     0.0001     30.000    815.000 224476.000     32.533    41.5367    37.3977   -47.9761    -1.9995     0.0009    26.0000     4.0000     9.0000    22.0000    26.0000    10.0000     5.0000    20.0000     3.0007     1.0000    -0.4983    20.7740    41.5368     2.1472    14.4503    14.4502     1.7091     0.0000     1.0000     0.0388     0.000
      2     1.3333     1.3333     0.2550     0.0001     30.000    809.000 224581.000     32.548    41.5367    37.5711   -47.9989    -1.9995     0.0009    26.0000     4.0000     9.0000    22.0000    26.0000    10.0000     5.0000    20.0000     3.0007     1.0000    -0.4985    20.7740    41.5368     2.1481    14.4503    14.4502     1.7092     0.0000     1.0000     0.0388     0.000
      3     1.3333     1.3333     0.2600     0.0001     30.000    863.000 224192.000     32.492    41.5367    37.7423   -48.0286    -1.9995     0.0009    26.0000     4.0000     9.0000    22.0000    26.0000    10.0000     5.0000    20.0000     3.0007     1.0000    -0.4985    20.7740    41.5368     2.1494    14.4503    14.4502     1.7092     0.0000     1.0000     0.0388     0.000
      4     1.3333     1.3333     0.2650     0.0001     30.000    844.000 225521.000     32.684    41.5367    37.9127   -48.0575    -1.9995     0.0009    26.0000     4.0000     9.0000    22.0000    26.0000    10.0000     5.0000    20.0000     3.0007     1.0000    -0.4984    20.7740    41.5368     2.1506    14.4503    14.4502     1.7092     0.0000     1.0000     0.0388     0.000
      5     1.3333     1.3333     0.2700     0.0001     30.000    815.000 226191.000     32.781    41.5367    38.0836   -48.0870    -1.9995     0.0009    26.0000     4.0000     9.0000    22.0000    26.0000    10.0000     5.0000    20.0000     3.0007     1.0000    -0.4985    20.7740    41.5368     2.1519    14.4503    14.4502     1.7094     0.0000     1.0000     0.0390     0.000
      6     1.3333     1.3333     0.2750     0.0001     30.000    842.000 225223.000     32.641    41.5367    38.2539   -48.1178    -1.9995     0.0009    26.0000     4.0000     9.0000    22.0000    26.0000    10.0000     5.0000    20.0000     3.0007     1.0000    -0.4984    20.7740    41.5368     2.1532    14.4503    14.4502     1.7098     0.0000     1.0000     0.0387     0.000
      7     1.3333     1.3333     0.2800     0.0001     30.000    850.000 224959.000     32.603    41.5367    38.4233   -48.1479    -1.9995     0.0009    26.0000     4.0000     9.0000    22.0000    26.0000    10.0000     5.0000    20.0000     3.0007     1.0000    -0.4985    20.7740    41.5368     2.1544    14.4503    14.4502     1.7102     0.0000     1.0000     0.0387     0.000
      8     1.3333     1.3333     0.2850     0.0001     30.000    796.000 226096.000     32.768    41.5367    38.5923   -48.1793    -1.9995     0.0009    26.0000     4.0000     9.0000    22.0000    26.0000    10.0000     5.0000    20.0000     3.0007     1.0000    -0.4985    20.7740    41.5368     2.1557    14.4503    14.4502     1.7104     0.0000     1.0000     0.0385     0.000
      9     1.3333     1.3334     0.2900     0.0001     30.000    824.000 225118.000     32.626    41.5367    38.7618   -48.2116    -1.9995     0.0009    26.0000     4.0000     9.0000    22.0000    26.0000    10.0000     5.0000    20.0000     3.0007     1.0000    -0.4985    20.7740    41.5368     2.1571    14.4503    14.4502     1.7104     0.0000     1.0000     0.0385     0.000
     10     1.3333     1.3333     0.2950     0.0001     30.000    813.000 225020.000     32.612    41.5367    38.9299   -48.2431    -1.9995     0.0009    26.0000     4.0000     9.0000    22.0000    26.0000    10.0000     5.0000    20.0000     3.0007     1.0000    -0.4985    20.7740    41.5368     2.1584    14.4503    14.4502     1.7104     0.0000     1.0000     0.0386     0.000
     11     1.3333     1.3333     0.3000     0.0001     30.000    809.000 225045.000     32.615    41.5367    39.0973   -48.2751    -1.9995     0.0009    26.0000     4.0000     9.0000    22.0000    26.0000    10.0000     5.0000    20.0000     3.0008     1.0000    -0.4983    20.7740    41.5368     2.1598    14.4503    14.4502     1.7090     0.0000     1.0000     0.0386     0.000
     12     1.3333     1.3333     0.3050     0.0001     30.000    819.000 224701.000     32.565    41.5367    39.2647   -48.3094    -1.9995     0.0009    26.0000     4.0000     9.0000    22.0000    26.0000    10.0000     5.0000    20.0000     3.0007     1.0000    -0.4985    20.7740    41.5368     2.1612    14.4503    14.4502     1.7079     0.0000     1.0000     0.0388     0.000
     13     1.3333     1.3333     0.3100     0.0001     30.000    853.000 225202.000     32.638    41.5367    39.4313   -48.3431    -1.9995     0.0009    26.0000     4.0000     9.0000    22.0000    26.0000    10.0000     5.0000    20.0000     3.0007     1.0000    -0.4986    20.7740    41.5368     2.1626    14.4503    14.4502     1.7069     0.0000     1.0000     0.0388     0.000
     14     1.3333     1.3333     0.3150     0.0001     30.000    778.000 225201.000     32.638    41.5367    39.5972   -48.3779    -1.9995     0.0009    26.0000     4.0000     9.0000    22.0000    26.0000    10.0000     5.0000    20.0000     3.0007     1.0000    -0.4985    20.7740    41.5368     2.1641    14.4503    14.4502     1.7061     0.0000     1.0000     0.0387     0.000
     15     1.3333     1.3333     0.3200     0.0001     30.000    803.000 225210.000     32.639    41.5367    39.7626   -48.4115    -1.9995     0.0009    26.0000     4.0000     9.0000    22.0000    26.0000    10.0000     5.0000    20.0000     3.0007     1.0000    -0.4986    20.7740    41.5368     2.1655    14.4503    14.4502     1.7056     0.0000     1.0000     0.0386     0.000
     16     1.3333     1.3333     0.3250     0.0001     30.000    831.000 225144.000     32.630    41.5367    39.9282   -48.4481    -1.9995     0.0009    26.0000     4.0000     9.0000    22.0000    26.0000    10.0000     5.0000    20.0000     3.0007     1.0000    -0.4984    20.7740    41.5368     2.1670    14.4503    14.4502     1.7052     0.0000     1.0000     0.0386     0.000
     17     1.3333     1.3333     0.3300     0.0001     30.000    811.000 225371.000     32.662    41.5367    40.0924   -48.4830    -1.9995     0.0009    26.0000     4.0000     9.0000    22.0000    26.0000    10.0000     5.0000    20.0000     3.0007     1.0000    -0.4986    20.7740    41.5368     2.1685    14.4503    14.4502     1.7049     0.0000     1.0000     0.0386     0.000
     18     1.3333     1.3333     0.3350     0.0001     30.000    853.000 225565.000     32.691    41.5367    40.2565   -48.5205    -1.9995     0.0009    26.0000     4.0000     9.0000    22.0000    26.0000    10.0000     5.0000    20.0000     3.0007     1.0000    -0.4982    20.7740    41.5368     2.1701    14.4503    14.4502     1.7047     0.0000     1.0000     0.0386     0.000
     19     1.3333     1.3333     0.3400     0.0001     30.000    828.000 224970.000     32.604    41.5367    40.4207   -48.5575    -1.9995     0.0009    26.0000     4.0000     9.0000    22.0000    26.0000    10.0000     5.0000    20.0000     3.0008     1.0000    -0.4984    20.7740    41.5368     2.1716    14.4503    14.4502     1.7046     0.0000     1.0000     0.0388     0.000
     20     1.3333     1.3333     0.3450     0.0001     30.000    843.000 225029.000     32.613    41.5367    40.5834   -48.5950    -1.9995     0.0009    26.0000     4.0000     9.0000    22.0000    26.0000    10.0000     5.0000    20.0000     3.0008     1.0000    -0.4985    20.7740    41.5368     2.1732    14.4503    14.4502     1.7044     0.0000     1.0000     0.0388     0.000
     21     1.3333     1.3334     0.3500     0.0001     30.000    824.000 224900.000     32.594    41.5367    40.7461   -48.6344    -1.9995     0.0009    26.0000     4.0000     9.0000    22.0000    26.0000    10.0000     5.0000    20.0000     3.0007     1.0000    -0.4985    20.7740    41.5368     2.1749    14.4503    14.4502     1.7042     0.0000     1.0000     0.0387     0.000
     22     1.3333     1.3333     0.3550     0.0001     30.000    829.000 224507.000     32.537    41.5367    40.9080   -48.6705    -1.9995     0.0009    26.0000     4.0000     9.0000    22.0000    26.0000    10.0000     5.0000    20.0000     3.0007     1.0000    -0.4985    20.7740    41.5368     2.1764    14.4503    14.4502     1.7041     0.0000     1.0000     0.0387     0.000
     23     1.3333     1.3333     0.3600     0.0001     30.000    848.000 225625.000     32.699    41.5367    41.0695   -48.7109    -1.9995     0.0009    26.0000     4.0000     9.0000    22.0000    26.0000    10.0000     5.0000    20.0000     3.0007     1.0000    -0.4986    20.7739    41.5368     2.1781    14.4503    14.4502     1.7040     0.0000     1.0000     0.0387     0.000
     24     1.3333     1.3334     0.3650     0.0001     30.000    833.000 223917.000     32.452    41.5367    41.2302   -48.7510    -1.9995     0.0009    26.0000     4.0000     9.0000    22.0000    26.0000    10.0000     5.0000    20.0000     3.0008     1.0000    -0.4985    20.7740    41.5368     2.1798    14.4503    14.4502     1.7039     0.0000     1.0000     0.0392     0.000
     25     1.3333     1.3334     0.3700     0.0001     30.000    811.000 225424.000     32.670    41.5367    41.3906   -48.7910    -1.9995     0.0009    26.0000     4.0000     9.0000    22.0000    26.0000    10.0000     5.0000    20.0000     3.0008     1.0000    -0.4986    20.7740    41.5368     2.1814    14.4503    14.4502     1.7038     0.0000     1.0000     0.0392     0.000
     26     1.3333     1.3334     0.3750     0.0001     30.000    829.000 224772.000     32.576    41.5367    41.5507   -48.8316    -1.9995     0.0009    26.0000     4.0000     9.0000    22.0000    26.0000    10.0000     5.0000    20.0000     3.0008     1.0000    -0.4984    20.7740    41.5368     2.1831    14.4503    14.4502     1.7038     0.0000     1.0000     0.0392     0.000
     27     1.3333     1.3333     0.3800     0.0001     30.000    819.000 225003.000     32.609    41.5367    41.7101   -48.8725    -1.9995     0.0009    26.0000     4.0000     9.0000    22.0000    26.0000    10.0000     5.0000    20.0000     3.0008     1.0000    -0.4985    20.7740    41.5368     2.1849    14.4503    14.4502     1.7038     0.0000     1.0000     0.0392     0.000
     28     1.3333     1.3333     0.3850     0.0001     30.000    884.000 224431.000     32.526    41.5367    41.8687   -48.9142    -1.9995     0.0009    26.0000     4.0000     9.0000    22.0000    26.0000    10.0000     5.0000    20.0000     3.0008     1.0000    -0.4985    20.7740    41.5368     2.1866    14.4503    14.4502     1.7037     0.0000     1.0000     0.0392     0.000
     29     1.3333     1.3334     0.3900     0.0001     30.000    846.000 224248.000     32.500    41.5367    42.0270   -48.9578    -1.9995     0.0009    26.0000     4.0000     9.0000    22.0000    26.0000    10.0000     5.0000    20.0000     3.0007     1.0000    -0.4985    20.7740    41.5368     2.1884    14.4503    14.4502     1.7037     0.0000     1.0000     0.0392     0.000
     30     1.3333     1.3334     0.3950     0.0001     30.000    840.000 225125.000     32.627    41.5367    42.1846   -48.9996    -1.9995     0.0009    26.0000     4.0000     9.0000    22.0000    26.0000    10.0000     5.0000    20.0000     3.0008     1.0000    -0.4984    20.7739    41.5368     2.1902    14.4503    14.4502     1.7036     0.0000     1.0000     0.0389     0.000
     31     1.3333     1.3334     0.4000     0.0001     30.000    827.000 224875.000     32.591    41.5367    42.3411   -49.0427    -1.9995     0.0009    26.0000     4.0000     9.0000    22.0000    26.0000    10.0000     5.0000    20.0000     3.0007     1.0000    -0.4985    20.7740    41.5368     2.1920    14.4503    14.4502     1.7036     0.0000     1.0000     0.0392     0.000
     32     1.3333     1.3334     0.4050     0.0001     30.000    879.000 224588.000     32.549    41.5367    42.4983   -49.0871    -1.9995     0.0009    26.0000     4.0000     9.0000    22.0000    26.0000    10.0000     5.0000    20.0000     3.0008     1.0000    -0.4984    20.7740    41.5368     2.1939    14.4503    14.4502     1.7035     0.0000     1.0000     0.0392     0.000
     33     1.3333     1.3334     0.4100     0.0001     30.000    880.000 225849.000     32.732    41.5367    42.6540   -49.1317    -1.9995     0.0009    26.0000     4.0000     9.0000    22.0000    26.0000    10.0000     5.0000    20.0000     3.0008     1.0000    -0.4986    20.7740    41.5368     2.1957    14.4503    14.4502     1.7035     0.0000     1.0000     0.0390     0.000
     34     1.3333     1.3333     0.4150     0.0001     30.000    903.000 225027.000     32.613    41.5367    42.8095   -49.1754    -1.9995     0.0009    26.0000     4.0000     9.0000    22.0000    26.0000    10.0000     5.0000    20.0000     3.0008     1.0000    -0.4984    20.7740    41.5368     2.1976    14.4503    14.4502     1.7034     0.0000     1.0000     0.0390     0.000
     35     1.3333     1.3334     0.4200     0.0001     30.000    884.000 224720.000     32.568    41.5367    42.9642   -49.2218    -1.9995     0.0009    26.0000     4.0000     9.0000    22.0000    26.0000    10.0000     5.0000    20.0000     3.0008     1.0000    -0.4985    20.7739    41.5368     2.1995    14.4503    14.4502     1.7034     0.0000     1.0000     0.0393     0.000
     36     1.3333     1.3333     0.4250     0.0001     30.000    903.000 225032.000     32.613    41.5367    43.1189   -49.2666    -1.9995     0.0009    26.0000     4.0000     9.0000    22.0000    26.0000    10.0000     5.0000    20.0000     3.0008     1.0000    -0.4986    20.7740    41.5368     2.2014    14.4503    14.4502     1.7035     0.0000     1.0000     0.0393     0.000
     37     1.3333     1.3333     0.4300     0.0001     30.000    835.000 224945.000     32.601    41.5367    43.2720   -49.3120    -1.9995     0.0009    26.0000     4.0000     9.0000    22.0000    26.0000    10.0000     5.0000    20.0000     3.0008     1.0000    -0.4985    20.7740    41.5368     2.2033    14.4503    14.4502     1.7035     0.0000     1.0000     0.0389     0.000
     38     1.3333     1.3333     0.4350     0.0001     30.000    898.000 224755.000     32.573    41.5367    43.4254   -49.3592    -1.9995     0.0009    26.0000     4.0000     9.0000    22.0000    26.0000    10.0000     5.0000    20.0000     3.0009     1.0000    -0.4985    20.7739    41.5368     2.2053    14.4503    14.4502     1.7033     0.0000     1.0000     0.0389     0.000
     39     1.3333     1.3333     0.4400     0.0001     30.000    896.000 224017.000     32.466    41.5367    43.5785   -49.4072    -1.9995     0.0009    26.0000     4.0000     9.0000    22.0000    26.0000    10.0000     5.0000    20.0000     3.0008     1.0000    -0.4985    20.7739    41.5368     2.2073    14.4503    14.4502     1.7033     0.0000     1.0000     0.0388     0.000
     40     1.3333     1.3333     0.4450     0.0001     30.000    852.000 224578.000     32.548    41.5367    43.7300   -49.4542    -1.9995     0.0009    26.0000     4.0000     9.0000    22.0000    26.0000    10.0000     5.0000    20.0000     3.0008     1.0000    -0.4986    20.7739    41.5368     2.2092    14.4503    14.4502     1.7032     0.0000     1.0000     0.0389     0.000
     41     1.3333     1.3333     0.4500     0.0001     30.000    945.000 224121.000     32.481    41.5367    43.8814   -49.5027    -1.9995     0.0009    26.0000     4.0000     9.0000    22.0000    26.0000    10.0000     5.0000    20.0000     3.0008     1.0000    -0.4984    20.7739    41.5368     2.2113    14.4503    14.4502     1.7031     0.0000     1.0000     0.0389     0.000
     42     1.3333     1.3333     0.4550     0.0001     30.000    903.000 224453.000     32.529    41.5367    44.0322   -49.5515    -1.9995     0.0009    26.0000     4.0000     9.0000    22.0000    26.0000    10.0000     5.0000    20.0000     3.0007     1.0000    -0.4985    20.7739    41.5368     2.2133    14.4503    14.4502     1.7030     0.0000     1.0000     0.0388     0.000
     43     1.3333     1.3333     0.4600     0.0001     30.000    936.000 224916.000     32.597    41.5367    44.1827   -49.6007    -1.9995     0.0009    26.0000     4.0000     9.0000    22.0000    26.0000    10.0000     5.0000    20.0000     3.0008     1.0000    -0.4986    20.7739    41.5368     2.2154    14.4503    14.4502     1.7030     0.0000     1.0000     0.0388     0.000
     44     1.3333     1.3333     0.4650     0.0001     30.000    899.000 224621.000     32.554    41.5367    44.3322   -49.6509    -1.9995     0.0009    26.0000     4.0000     9.0000    22.0000    26.0000    10.0000     5.0000    20.0000     3.0008     1.0000    -0.4986    20.7739    41.5368     2.2175    14.4503    14.4502     1.7030     0.0000     1.0000     0.0388     0.000
     45     1.3333     1.3333     0.4700     0.0001     30.000    975.000 225981.000     32.751    41.5367    44.4812   -49.7010    -1.9995     0.0009    26.0000     4.0000     9.0000    22.0000    26.0000    10.0000     5.0000    20.0000     3.0008     1.0000    -0.4987    20.7739    41.5368     2.2196    14.4503    14.4502     1.7030     0.0000     1.0000     0.0388     0.000
     46     1.3333     1.3333     0.4750     0.0001     30.000    905.000 225196.000     32.637    41.5367    44.6298   -49.7518    -1.9995     0.0009    26.0000     4.0000     9.0000    22.0000    26.0000    10.0000     5.0000    20.0000     3.0008     1.0000    -0.4986    20.7739    41.5368     2.2217    14.4503    14.4502     1.7029     0.0000     1.0000     0.0388     0.000
     47     1.3333     1.3333     0.4800     0.0000     30.000   1018.000 224223.000     32.496    41.5367    44.7782   -49.8037    -1.9995     0.0009    26.0000     4.0000     9.0000    22.0000    26.0000    10.0000     5.0000    20.0000     3.0008     1.0000    -0.4985    20.7740    41.5368     2.2239    14.4503    14.4502     1.7029     0.0000     1.0000     0.0386     0.000
     48     1.3333     1.3333     0.4850     0.0001     30.000   1240.000 225610.000     32.697    41.5367    44.9258   -49.8561    -1.9995     0.0009    26.0000     4.0000     9.0000    22.0000    26.0000    10.0000     5.0000    20.0000     3.0008     1.0000    -0.4987    20.7739    41.5368     2.2261    14.4503    14.4502     1.7029     0.0000     1.0000     0.0386     0.000
     49     1.3333     1.3333     0.4900     0.0001     30.000   1837.000 225197.000     32.637    41.5367    45.0719   -49.9070    -1.9995     0.0009    26.0000     4.0000     9.0000    22.0000    26.0000    10.0000     5.0000    20.0000     3.0008     1.0000    -0.4985    20.7739    41.5368     2.2282    14.4503    14.4502     1.7029     0.0000     1.0000     0.0386     0.000
     50     1.3333     1.3333     0.4950     0.0001     30.000   5647.000 224448.000     32.529    41.5367    45.2187   -49.9606    -1.9995     0.0009    26.0000     4.0000     9.0000    22.0000    26.0000    10.0000     5.0000    20.0000     3.0008     1.0000    -0.4986    20.7739    41.5368     2.2304    14.4503    14.4502     1.7028     0.0000     1.0000     0.0386     0.000
     51     1.3333     1.3333     0.5000     0.0001     30.000  15569.000 225567.000     32.691    41.5367    45.3641   -50.0145    -1.9995     0.0009    26.0000     4.0000     9.0000    22.0000    26.0000    10.0000     5.0000    20.0000     3.0008     1.0000    -0.4986    20.7739    41.5368     2.2327    14.4503    14.4502     1.7026     0.0000     1.0000     0.0390     0.000
     52     1.3333     1.3333     0.5050     0.0001     30.000  15088.000 225125.000     32.627    41.5367    45.5090   -50.0674    -1.9995     0.0009    26.0000     4.0000     9.0000    22.0000    26.0000    10.0000     5.0000    20.0000     3.0008     1.0000    -0.4986    20.7739    41.5368     2.2349    14.4503    14.4502     1.7026     0.0000     1.0000     0.0390     0.000
     53     1.3333     1.3333     0.5100     0.0001     30.000   4104.000 225178.000     32.634    41.5367    45.6534   -50.1224    -1.9995     0.0009    26.0000     4.0000     9.0000    22.0000    26.0000    10.0000     5.0000    20.0000     3.0009     1.0000    -0.4987    20.7739    41.5368     2.2372    14.4503    14.4502     1.7026     0.0000     1.0000     0.0392     0.000
     54     1.3333     1.3333     0.5150     0.0001     30.000   1306.000 226200.000     32.783    41.5367    45.7975   -50.1765    -1.9995     0.0009    26.0000     4.0000     9.0000    22.0000    26.0000    10.0000     5.0000    20.0000     3.0008     1.0000    -0.4986    20.7739    41.5368     2.2394    14.4503    14.4502     1.7026     0.0000     1.0000     0.0392     0.000
     55     1.3333     1.3334     0.5200     0.0001     30.000   1087.000 225582.000     32.693    41.5367    45.9404   -50.2336    -1.9995     0.0009    26.0000     4.0000     9.0000    22.0000    26.0000    10.0000     5.0000    20.0000     3.0008     1.0000    -0.4986    20.7739    41.5368     2.2418    14.4503    14.4502     1.7025     0.0000     1.0000     0.0387     0.000
     56     1.3333     1.3333     0.5250     0.0001     30.000   1026.000 224346.000     32.514    41.5367    46.0832   -50.2888    -1.9995     0.0009    26.0000     4.0000     9.0000    22.0000    26.0000    10.0000     5.0000    20.0000     3.0008     1.0000    -0.4986    20.7739    41.5368     2.2441    14.4503    14.4502     1.7025     0.0000     1.0000     0.0388     0.000
     57     1.3333     1.3333     0.5300     0.0001     30.000   1003.000 225388.000     32.665    41.5367    46.2253   -50.3450    -1.9995     0.0009    26.0000     4.0000     9.0000    22.0000    26.0000    10.0000     5.0000    20.0000     3.0008     1.0000    -0.4987    20.7739    41.5368     2.2465    14.4503    14.4502     1.7025     0.0000     1.0000     0.0388     0.000
     58     1.3333     1.3334     0.5350     0.0001     30.000    880.000 225152.000     32.631    41.5367    46.3668   -50.4024    -1.9995     0.0009    26.0000     4.0000     9.0000    22.0000    26.0000    10.0000     5.0000    20.0000     3.0008     1.0000    -0.4988    20.7739    41.5368     2.2489    14.4503    14.4502     1.7025     0.0000     1.0000     0.0387     0.000
     59     1.3333     1.3333     0.5400     0.0000     30.000    929.000 225245.000     32.644    41.5367    46.5076   -50.4591    -1.9995     0.0009    26.0000     4.0000     9.0000    22.0000    26.0000    10.0000     5.0000    20.0000     3.0008     1.0000    -0.4987    20.7739    41.5368     2.2512    14.4503    14.4502     1.7024     0.0000     1.0000     0.0387     0.000
     60     1.3333     1.3333     0.5450     0.0001     30.000    917.000 224321.000     32.510    41.5367    46.6480   -50.5173    -1.9995     0.0009    26.0000     4.0000     9.0000    22.0000    26.0000    10.0000     5.0000    20.0000     3.0007     1.0000    -0.4988    20.7739    41.5368     2.2537    14.4503    14.4502     1.7024     0.0000     1.0000     0.0387     0.000
     61     1.3333     1.3334     0.5500     0.0000     30.000    935.000 224535.000     32.541    41.5367    46.7874   -50.5769    -1.9995     0.0009    26.0000     4.0000     9.0000    22.0000    26.0000    10.0000     5.0000    20.0000     3.0008     1.0000    -0.4986    20.7739    41.5368     2.2561    14.4503    14.4502     1.7024     0.0000     1.0000     0.0387     0.000
     62     1.3333     1.3333     0.5550     0.0001     30.000    963.000 225120.000     32.626    41.5367    46.9265   -50.6342    -1.9995     0.0009    26.0000     4.0000     9.0000    22.0000    26.0000    10.0000     5.0000    20.0000     3.0007     1.0000    -0.4986    20.7739    41.5368     2.2585    14.4503    14.4502     1.7023     0.0000     1.0000     0.0388     0.000
     63     1.3333     1.3334     0.5600     0.0001     30.000    926.000 225143.000     32.629    41.5367    47.0648   -50.6947    -1.9995     0.0009    26.0000     4.0000     9.0000    22.0000    26.0000    10.0000     5.0000    20.0000     3.0007     1.0000    -0.4987    20.7739    41.5368     2.2610    14.4503    14.4502     1.7023     0.0000     1.0000     0.0388     0.000
     64     1.3333     1.3334     0.5650     0.0000     30.000    910.000 224930.000     32.599    41.5367    47.2026   -50.7536    -1.9995     0.0009    26.0000     4.0000     9.0000    22.0000    26.0000    10.0000     5.0000    20.0000     3.0007     1.0000    -0.4987    20.7739    41.5367     2.2635    14.4503    14.4503     1.7022     0.0000     1.0000     0.0388     0.000
     65     1.3333     1.3334     0.5700     0.0001     30.000    920.000 226772.000     32.866    41.5367    47.3394   -50.8143    -1.9995     0.0009    26.0000     4.0000     9.0000    22.0000    26.0000    10.0000     5.0000    20.0000     3.0007     1.0000    -0.4988    20.7739    41.5368     2.2660    14.4503    14.4502     1.7022     0.0000     1.0000     0.0389     0.000
     66     1.3333     1.3333     0.5750     0.0000     30.000    892.000 224542.000     32.542    41.5367    47.4767   -50.8735    -1.9995     0.0009    26.0000     4.0000     9.0000    22.0000    26.0000    10.0000     5.0000    20.0000     3.0008     1.0000    -0.4987    20.7739    41.5368     2.2685    14.4503    14.4502     1.7021     0.0000     1.0000     0.0389     0.000
     67     1.3333     1.3334     0.5800     0.0000     30.000    965.000 224660.000     32.559    41.5367    47.6123   -50.9355    -1.9995     0.0009    26.0000     4.0000     9.0000    22.0000    26.0000    10.0000     5.0000    20.0000     3.0007     1.0000    -0.4987    20.7739    41.5368     2.2711    14.4503    14.4502     1.7021     0.0000     1.0000     0.0386     0.000
     68     1.3333     1.3334     0.5850     0.0000     30.000    867.000 224762.000     32.574    41.5367    47.7478   -50.9977    -1.9995     0.0009    26.0000     4.0000     9.0000    22.0000    26.0000    10.0000     5.0000    20.0000     3.0007     1.0000    -0.4988    20.7739    41.5368     2.2737    14.4503    14.4502     1.7020     0.0000     1.0000     0.0386     0.000
     69     1.3333     1.3333     0.5900     0.0001     30.000    925.000 225049.000     32.616    41.5367    47.8821   -51.0573    -1.9995     0.0009    26.0000     4.0000     9.0000    22.0000    26.0000    10.0000     5.0000    20.0000     3.0007     1.0000    -0.4987    20.7739    41.5368     2.2761    14.4503    14.4502     1.7020     0.0000     1.0000     0.0389     0.000
     70     1.3333     1.3333     0.5950     0.0000     30.000    950.000 225851.000     32.732    41.5367    48.0167   -51.1209    -1.9995     0.0009    26.0000     4.0000     9.0000    22.0000    26.0000    10.0000     5.0000    20.0000     3.0007     1.0000    -0.4987    20.7739    41.5368     2.2788    14.4503    14.4502     1.7018     0.0000     1.0000     0.0389     0.000
     71     1.3333     1.3333     0.6000     0.0000     30.000    927.000 225077.000     32.620    41.5367    48.1497   -51.1837    -1.9995     0.0009    26.0000     4.0000     9.0000    22.0000    26.0000    10.0000     5.0000    20.0000     3.0008     1.0000    -0.4987    20.7739    41.5367     2.2814    14.4503    14.4503     1.7018     0.0000     1.0000     0.0387     0.000
     72     1.3333     1.3333     0.6050     0.0000     30.000    892.000 224529.000     32.540    41.5367    48.2829   -51.2460    -1.9995     0.0009    26.0000     4.0000     9.0000    22.0000    26.0000    10.0000     5.0000    20.0000     3.0008     1.0000    -0.4986    20.7739    41.5368     2.2840    14.4503    14.4502     1.7018     0.0000     1.0000     0.0383     0.000
     73     1.3333     1.3333     0.6100     0.0001     30.000    928.000 226134.000     32.773    41.5367    48.4157   -51.3119    -1.9995     0.0009    26.0000     4.0000     9.0000    22.0000    26.0000    10.0000     5.0000    20.0000     3.0007     1.0000    -0.4987    20.7739    41.5368     2.2867    14.4503    14.4502     1.7017     0.0000     1.0000     0.0383     0.000
     74     1.3333     1.3333     0.6150     0.0000     30.000    879.000 225286.000     32.650    41.5367    48.5473   -51.3760    -1.9995     0.0009    26.0000     4.0000     9.0000    22.0000    26.0000    10.0000     5.0000    20.0000     3.0007     1.0000    -0.4988    20.7739    41.5367     2.2894    14.4503    14.4503     1.7013     0.0000     1.0000     0.0385     0.000
     75     1.3333     1.3333     0.6200     0.0000     30.000    923.000 225469.000     32.677    41.5367    48.6783   -51.4415    -1.9995     0.0009    26.0000     4.0000     9.0000    22.0000    26.0000    10.0000     5.0000    20.0000     3.0007     1.0000    -0.4987    20.7739    41.5367     2.2921    14.4503    14.4503     1.7012     0.0000     1.0000     0.0385     0.000
     76     1.3333     1.3333     0.6250     0.0000     30.000    896.000 224474.000     32.532    41.5367    48.8082   -51.5060    -1.9995     0.0009    26.0000     4.0000     9.0000    22.0000    26.0000    10.0000     5.0000    20.0000     3.0008     1.0000    -0.4988    20.7739    41.5368     2.2948    14.4503    14.4502     1.7019     0.0000     1.0000     0.0385     0.000
     77     1.3333     1.3333     0.6300     0.0000     30.000    880.000 224745.000     32.572    41.5367    48.9384   -51.5726    -1.9995     0.0009    26.0000     4.0000     9.0000    22.0000    26.0000    10.0000     5.0000    20.0000     3.0008     1.0000    -0.4987    20.7739    41.5368     2.2975    14.4503    14.4502     1.7027     0.0000     1.0000     0.0385     0.000
     78     1.3333     1.3333     0.6350     0.0000     30.000    906.000 224825.000     32.583    41.5367    49.0674   -51.6385    -1.9995     0.0009    26.0000     4.0000     9.0000    22.0000    26.0000    10.0000     5.0000    20.0000     3.0007     1.0000    -0.4989    20.7739    41.5367     2.3003    14.4503    14.4503     1.7032     0.0000     1.0000     0.0386     0.000
     79     1.3333     1.3333     0.6400     0.0000     30.000    923.000 225140.000     32.629    41.5367    49.1964   -51.7044    -1.9995     0.0009    26.0000     4.0000     9.0000    22.0000    26.0000    10.0000     5.0000    20.0000     3.0008     1.0000    -0.4987    20.7739    41.5367     2.3030    14.4503    14.4503     1.7035     0.0000     1.0000     0.0386     0.000
     80     1.3333     1.3333     0.6450     0.0000     30.000    921.000 225476.000     32.678    41.5367    49.3239   -51.7725    -1.9995     0.0009    26.0000     4.0000     9.0000    22.0000    26.0000    10.0000     5.0000    20.0000     3.0007     1.0000    -0.4988    20.7739    41.5367     2.3058    14.4503    14.4503     1.7038     0.0000     1.0000     0.0386     0.000
     81     1.3333     1.3333     0.6500     0.0000     30.000    870.000 224778.000     32.577    41.5367    49.4512   -51.8394    -1.9995     0.0009    26.0000     4.0000     9.0000    22.0000    26.0000    10.0000     5.0000    20.0000     3.0008     1.0000    -0.4988    20.7739    41.5367     2.3086    14.4503    14.4503     1.7040     0.0000     1.0000     0.0385     0.000
     82     1.3333     1.3334     0.6550     0.0000     30.000    898.000 224824.000     32.583    41.5367    49.5781   -51.9091    -1.9995     0.0009    26.0000     4.0000     9.0000    22.0000    26.0000    10.0000     5.0000    20.0000     3.0007     1.0000    -0.4989    20.7739    41.5367     2.3115    14.4503    14.4503     1.7042     0.0000     1.0000     0.0385     0.000
     83     1.3333     1.3333     0.6600     0.0000     30.000    934.000 227146.000     32.920    41.5367    49.7042   -51.9769    -1.9995     0.0009    26.0000     4.0000     9.0000    22.0000    26.0000    10.0000     5.0000    20.0000     3.0007     1.0000    -0.4988    20.7739    41.5367     2.3143    14.4503    14.4503     1.7043     0.0000     1.0000     0.0390     0.000
     84     1.3333     1.3333     0.6650     0.0000     30.000    918.000 225470.000     32.677    41.5367    49.8292   -52.0462    -1.9995     0.0009    26.0000     4.0000     9.0000    22.0000    26.0000    10.0000     5.0000    20.0000     3.0008     1.0000    -0.4988    20.7739    41.5368     2.3172    14.4503    14.4502     1.7045     0.0000     1.0000     0.0390     0.000
     85     1.3333     1.3333     0.6700     0.0000     30.000    904.000 225979.000     32.751    41.5367    49.9548   -52.1159    -1.9995     0.0009    26.0000     4.0000     9.0000    22.0000    26.0000    10.0000     5.0000    20.0000     3.0007     1.0000    -0.4987    20.7739    41.5367     2.3201    14.4503    14.4503     1.7046     0.0000     1.0000     0.0384     0.000
     86     1.3333     1.3334     0.6750     0.0000     30.000    905.000 224778.000     32.577    41.5367    50.0784   -52.1861    -1.9995     0.0009    26.0000     4.0000     9.0000    22.0000    26.0000    10.0000     5.0000    20.0000     3.0007     1.0000    -0.4988    20.7739    41.5367     2.3230    14.4503    14.4503     1.7047     0.0000     1.0000     0.0384     0.000
     87     1.3333     1.3334     0.6800     0.0000     30.000    909.000 225465.000     32.676    41.5367    50.2024   -52.2568    -1.9995     0.0009    26.0000     4.0000     9.0000    22.0000    26.0000    10.0000     5.0000    20.0000     3.0007     1.0000    -0.4988    20.7739    41.5367     2.3259    14.4503    14.4503     1.7048     0.0000     1.0000     0.0388     0.000
     88     1.3333     1.3334     0.6850     0.0000     30.000    896.000 225293.000     32.651    41.5367    50.3253   -52.3278    -1.9995     0.0009    26.0000     4.0000     9.0000    22.0000    26.0000    10.0000     5.0000    20.0000     3.0007     1.0000    -0.4988    20.7739    41.5367     2.3288    14.4503    14.4503     1.7048     0.0000     1.0000     0.0386     0.000
     89     1.3333     1.3333     0.6900     0.0000     30.000    928.000 225462.000     32.676    41.5367    50.4476   -52.3983    -1.9995     0.0009    26.0000     4.0000     9.0000    22.0000    26.0000    10.0000     5.0000    20.0000     3.0007     1.0000    -0.4989    20.7739    41.5367     2.3318    14.4503    14.4503     1.7048     0.0000     1.0000     0.0386     0.000
     90     1.3333     1.3334     0.6950     0.0000     30.000    918.000 225012.000     32.610    41.5367    50.5688   -52.4715    -1.9995     0.0009    26.0000     4.0000     9.0000    22.0000    26.0000    10.0000     5.0000    20.0000     3.0007     1.0000    -0.4987    20.7739    41.5367     2.3348    14.4503    14.4503     1.7047     0.0000     1.0000     0.0387     0.000
     91     1.3333     1.3334     0.7000     0.0000     30.000    915.000 224639.000     32.556    41.5367    50.6900   -52.5427    -1.9995     0.0009    26.0000     4.0000     9.0000    22.0000    26.0000    10.0000     5.0000    20.0000     3.0007     1.0000    -0.4988    20.7739    41.5367     2.3377    14.4503    14.4503     1.7047     0.0000     1.0000     0.0387     0.000
     92     1.3333     1.3333     0.7050     0.0000     30.000    920.000 224833.000     32.584    41.5367    50.8106   -52.6145    -1.9995     0.0009    26.0000     4.0000     9.0000    22.0000    26.0000    10.0000     5.0000    20.0000     3.0007     1.0000    -0.4987    20.7739    41.5367     2.3407    14.4503    14.4503     1.7048     0.0000     1.0000     0.0384     0.000
     93     1.3333     1.3333     0.7099     0.0000     30.000    957.000 224947.000     32.601    41.5367    50.9302   -52.6864    -1.9995     0.0009    26.0000     4.0000     9.0000    22.0000    26.0000    10.0000     5.0000    20.0000     3.0007     1.0000    -0.4988    20.7739    41.5367     2.3437    14.4503    14.4503     1.7048     0.0000     1.0000     0.0384     0.000
     94     1.3333     1.3333     0.7150     0.0000     30.000    941.000 225638.000     32.701    41.5367    51.0496   -52.7618    -1.9995     0.0009    26.0000     4.0000     9.0000    22.0000    26.0000    10.0000     5.0000    20.0000     3.0007     1.0000    -0.4990    20.7739    41.5368     2.3468    14.4503    14.4502     1.7049     0.0000     1.0000     0.0387     0.000
     95     1.3333     1.3333     0.7200     0.0000     30.000    887.000 224842.000     32.586    41.5367    51.1680   -52.8341    -1.9995     0.0009    26.0000     4.0000     9.0000    22.0000    26.0000    10.0000     5.0000    20.0000     3.0007     1.0000    -0.4987    20.7739    41.5367     2.3498    14.4503    14.4503     1.7049     0.0000     1.0000     0.0387     0.000
     96     1.3333     1.3333     0.7250     0.0000     30.000    934.000 224986.000     32.607    41.5367    51.2867   -52.9094    -1.9995     0.0009    26.0000     4.0000     9.0000    22.0000    26.0000    10.0000     5.0000    20.0000     3.0007     1.0000    -0.4988    20.7739    41.5367     2.3529    14.4503    14.4503     1.7049     0.0000     1.0000     0.0385     0.000
     97     1.3333     1.3333     0.7299     0.0000     30.000    934.000 225618.000     32.698    41.5367    51.4036   -52.9829    -1.9995     0.0009    26.0000     4.0000     9.0000    22.0000    26.0000    10.0000     5.0000    20.0000     3.0007     1.0000    -0.4988    20.7739    41.5368     2.3559    14.4503    14.4502     1.7050     0.0000     1.0000     0.0384     0.000
     98     1.3333     1.3333     0.7350     0.0000     30.000    921.000 226418.000     32.814    41.5367    51.5207   -53.0602    -1.9995     0.0009    26.0000     4.0000     9.0000    22.0000    26.0000    10.0000     5.0000    20.0000     3.0007     1.0000    -0.4988    20.7739    41.5367     2.3591    14.4503    14.4503     1.7050     0.0000     1.0000     0.0384     0.000
     99     1.3333     1.3333     0.7400     0.0000     30.000    963.000 226678.000     32.852    41.5367    51.6371   -53.1360    -1.9995     0.0009    26.0000     4.0000     9.0000    22.0000    26.0000    10.0000     5.0000    20.0000     3.0007     1.0000    -0.4988    20.7739    41.5367     2.3622    14.4503    14.4503     1.7049     0.0000     1.0000     0.0384     0.000
    100     1.3333     1.3333     0.7450     0.0000     30.000    927.000 225186.000     32.636    41.5367    51.7520   -53.2121    -1.9995     0.0009    26.0000     4.0000     9.0000    22.0000    26.0000    10.0000     5.0000    20.0000     3.0007     1.0000    -0.4988    20.7739    41.5367     2.3654    14.4503    14.4503     1.7049     0.0000     1.0000     0.0384     0.000
    101     1.3333     1.3333     0.7500     0.0000     30.000    975.000 225527.000     32.685    41.5367    51.8671   -53.2893    -1.9995     0.0009    26.0000     4.0000     9.0000    22.0000    26.0000    10.0000     5.0000    20.0000     3.0007     1.0000    -0.4988    20.7739    41.5367     2.3685    14.4503    14.4503     1.7049     0.0000     1.0000     0.0389     0.000
    102     1.3333     1.3333     0.7550     0.0000     30.000   1007.000 224774.000     32.576    41.5367    51.9811   -53.3654    -1.9995     0.0009    26.0000     4.0000     9.0000    22.0000    26.0000    10.0000     5.0000    20.0000     3.0008     1.0000    -0.4990    20.7739    41.5367     2.3717    14.4503    14.4503     1.7049     0.0000     1.0000     0.0389     0.000
    103     1.3333     1.3333     0.7600     0.0000     30.000   1008.000 225611.000     32.697    41.5367    52.0949   -53.4431    -1.9995     0.0009    26.0000     4.0000     9.0000    22.0000    26.0000    10.0000     5.0000    20.0000     3.0007     1.0000    -0.4987    20.7739    41.5367     2.3749    14.4503    14.4503     1.7050     0.0000     1.0000     0.0383     0.000
    104     1.3333     1.3333     0.7650     0.0000     30.000   1010.000 224761.000     32.574    41.5367    52.2072   -53.5205    -1.9995     0.0009    26.0000     4.0000     9.0000    22.0000    26.0000    10.0000     5.0000    20.0000     3.0007     1.0000    -0.4987    20.7739    41.5367     2.3781    14.4503    14.4503     1.7050     0.0000     1.0000     0.0385     0.000
    105     1.3333     1.3334     0.7700     0.0000     30.000   1066.000 225503.000     32.682    41.5367    52.3199   -53.6015    -1.9995     0.0009    26.0000     4.0000     9.0000    22.0000    26.0000    10.0000     5.0000    20.0000     3.0007     1.0000    -0.4987    20.7739    41.5367     2.3814    14.4503    14.4503     1.7050     0.0000     1.0000     0.0385     0.000
    106     1.3333     1.3333     0.7750     0.0000     30.000   1023.000 225025.000     32.612    41.5367    52.4316   -53.6792    -1.9995     0.0009    26.0000     4.0000     9.0000    22.0000    26.0000    10.0000     5.0000    20.0000     3.0007     1.0000    -0.4987    20.7739    41.5367     2.3846    14.4503    14.4503     1.7051     0.0000     1.0000     0.0385     0.000
    107     1.3333     1.3334     0.7800     0.0000     30.000   1057.000 224672.000     32.561    41.5367    52.5425   -53.7589    -1.9995     0.0009    26.0000     4.0000     9.0000    22.0000    26.0000    10.0000     5.0000    20.0000     3.0007     1.0000    -0.4990    20.7739    41.5367     2.3879    14.4503    14.4503     1.7051     0.0000     1.0000     0.0385     0.000
    108     1.3333     1.3334     0.7850     0.0000     30.000   1054.000 225656.000     32.704    41.5367    52.6530   -53.8382    -1.9995     0.0009    26.0000     4.0000     9.0000    22.0000    26.0000    10.0000     5.0000    20.0000     3.0008     1.0000    -0.4988    20.7739    41.5367     2.3911    14.4503    14.4503     1.7050     0.0000     1.0000     0.0385     0.000
    109     1.3333     1.3334     0.7900     0.0000     30.000   1069.000 224506.000     32.537    41.5367    52.7629   -53.9189    -1.9995     0.0009    26.0000     4.0000     9.0000    22.0000    26.0000    10.0000     5.0000    20.0000     3.0007     1.0000    -0.4988    20.7739    41.5367     2.3944    14.4503    14.4503     1.7050     0.0000     1.0000     0.0385     0.000
    110     1.3333     1.3333     0.7950     0.0000     30.000   1098.000 224832.000     32.584    41.5367    52.8722   -53.9987    -1.9995     0.0009    26.0000     4.0000     9.0000    22.0000    26.0000    10.0000     5.0000    20.0000     3.0007     1.0000    -0.4988    20.7739    41.5367     2.3977    14.4503    14.4503     1.7050     0.0000     1.0000     0.0384     0.000
    111     1.3333     1.3334     0.8000     0.0000     30.000   1087.000 225536.000     32.686    41.5367    52.9808   -54.0805    -1.9995     0.0009    26.0000     4.0000     9.0000    22.0000    26.0000    10.0000     5.0000    20.0000     3.0007     1.0000    -0.4989    20.7739    41.5367     2.4011    14.4503    14.4503     1.7050     0.0000     1.0000     0.0384     0.000
    112     1.3333     1.3333     0.8050     0.0000     30.000   1145.000 224835.000     32.585    41.5367    53.0882   -54.1604    -1.9995     0.0009    26.0000     4.0000     9.0000    22.0000    26.0000    10.0000     5.0000    20.0000     3.0007     1.0000    -0.4989    20.7739    41.5367     2.4044    14.4503    14.4503     1.7050     0.0000     1.0000     0.0384     0.000
    113     1.3333     1.3333     0.8100     0.0000     30.000   1108.000 225112.000     32.625    41.5367    53.1962   -54.2429    -1.9995     0.0009    26.0000     4.0000     9.0000    22.0000    26.0000    10.0000     5.0000    20.0000     3.0007     1.0000    -0.4988    20.7739    41.5367     2.4077    14.4503    14.4503     1.7050     0.0000     1.0000     0.0384     0.000
    114     1.3333     1.3333     0.8150     0.0000     30.000   1174.000 224846.000     32.586    41.5367    53.3023   -54.3239    -1.9995     0.0009    26.0000     4.0000     9.0000    22.0000    26.0000    10.0000     5.0000    20.0000     3.0007     1.0000    -0.4988    20.7739    41.5367     2.4111    14.4503    14.4503     1.7051     0.0000     1.0000     0.0384     0.000
    115     1.3333     1.3333     0.8200     0.0000     30.000   1202.000 225891.000     32.738    41.5367    53.4086   -54.4059    -1.9995     0.0009    26.0000     4.0000     9.0000    22.0000    26.0000    10.0000     5.0000    20.0000     3.0007     1.0000    -0.4991    20.7739    41.5367     2.4144    14.4503    14.4503     1.7051     0.0000     1.0000     0.0386     0.000
    116     1.3333     1.3333     0.8250     0.0000     30.000   1178.000 224953.000     32.602    41.5367    53.5142   -54.4892    -1.9995     0.0009    26.0000     4.0000     9.0000    22.0000    26.0000    10.0000     5.0000    20.0000     3.0007     1.0000    -0.4988    20.7739    41.5367     2.4178    14.4503    14.4503     1.7051     0.0000     1.0000     0.0386     0.000
    117     1.3333     1.3333     0.8300     0.0000     30.000   1244.000 224851.000     32.587    41.5367    53.6187   -54.5723    -1.9995     0.0009    26.0000     4.0000     9.0000    22.0000    26.0000    10.0000     5.0000    20.0000     3.0007     1.0000    -0.4989    20.7739    41.5367     2.4212    14.4503    14.4503     1.7051     0.0000     1.0000     0.0385     0.000
    118     1.3333     1.3333     0.8350     0.0000     30.000   1177.000 225318.000     32.655    41.5367    53.7231   -54.6572    -1.9995     0.0009    26.0000     4.0000     9.0000    22.0000    26.0000    10.0000     5.0000    20.0000     3.0007     1.0000    -0.4989    20.7739    41.5367     2.4247    14.4503    14.4503     1.7050     0.0000     1.0000     0.0385     0.000
    119     1.3333     1.3333     0.8400     0.0000     30.000   1254.000 224420.000     32.525    41.5367    53.8270   -54.7415    -1.9995     0.0009    26.0000     4.0000     9.0000    22.0000    26.0000    10.0000     5.0000    20.0000     3.0007     1.0000    -0.4989    20.7739    41.5367     2.4282    14.4503    14.4503     1.7050     0.0000     1.0000     0.0384     0.000
    120     1.3333     1.3333     0.8450     0.0000     30.000   1189.000 224359.000     32.516    41.5367    53.9295   -54.8264    -1.9995     0.0009    26.0000     4.0000     9.0000    22.0000    26.0000    10.0000     5.0000    20.0000     3.0007     1.0000    -0.4990    20.7739    41.5367     2.4316    14.4503    14.4503     1.7050     0.0000     1.0000     0.0384     0.000
    121     1.3333     1.3333     0.8500     0.0000     30.000   1298.000 225433.000     32.671    41.5367    54.0319   -54.9122    -1.9995     0.0009    26.0000     4.0000     9.0000    22.0000    26.0000    10.0000     5.0000    20.0000     3.0007     1.0000    -0.4988    20.7739    41.5367     2.4352    14.4503    14.4503     1.7050     0.0000     1.0000     0.0386     0.000
    122     1.3333     1.3333     0.8550     0.0000     30.000   1291.000 224228.000     32.497    41.5367    54.1337   -54.9976    -1.9995     0.0009    26.0000     4.0000     9.0000    22.0000    26.0000    10.0000     5.0000    20.0000     3.0007     1.0000    -0.4989    20.7739    41.5367     2.4386    14.4503    14.4503     1.7050     0.0000     1.0000     0.0389     0.000
    123     1.3333     1.3333     0.8600     0.0000     30.000   1209.000 224580.000     32.548    41.5367    54.2351   -55.0842    -1.9995     0.0009    26.0000     4.0000     9.0000    22.0000    26.0000    10.0000     5.0000    20.0000     3.0007     1.0000    -0.4989    20.7739    41.5367     2.4422    14.4503    14.4503     1.7050     0.0000     1.0000     0.0389     0.000
    124     1.3333     1.3334     0.8650     0.0000     30.000   1273.000 224415.000     32.524    41.5367    54.3356   -55.1712    -1.9995     0.0009    26.0000     4.0000     9.0000    22.0000    26.0000    10.0000     5.0000    20.0000     3.0007     1.0000    -0.4988    20.7739    41.5367     2.4457    14.4503    14.4503     1.7051     0.0000     1.0000     0.0384     0.000
    125     1.3333     1.3334     0.8700     0.0000     30.000   1177.000 225570.000     32.691    41.5367    54.4353   -55.2575    -1.9995     0.0009    26.0000     4.0000     9.0000    22.0000    26.0000    10.0000     5.0000    20.0000     3.0007     1.0000    -0.4991    20.7739    41.5367     2.4493    14.4503    14.4503     1.7050     0.0000     1.0000     0.0384     0.000
    126     1.3333     1.3334     0.8751     0.0000     30.000   1277.000 225024.000     32.612    41.5367    54.5345   -55.3460    -1.9995     0.0009    26.0000     4.0000     9.0000    22.0000    26.0000    10.0000     5.0000    20.0000     3.0007     1.0000    -0.4989    20.7739    41.5367     2.4529    14.4503    14.4503     1.7050     0.0000     1.0000     0.0386     0.000
    127     1.3333     1.3334     0.8800     0.0000     30.000   1253.000 225358.000     32.661    41.5367    54.6328   -55.4328    -1.9995     0.0009    26.0000     4.0000     9.0000    22.0000    26.0000    10.0000     5.0000    20.0000     3.0007     1.0000    -0.4988    20.7739    41.5368     2.4564    14.4503    14.4502     1.7050     0.0000     1.0000     0.0386     0.000
    128     1.3333     1.3334     0.8851     0.0000     30.000   1259.000 225282.000     32.650    41.5367    54.7309   -55.5215    -1.9995     0.0009    26.0000     4.0000     9.0000    22.0000    26.0000    10.0000     5.0000    20.0000     3.0007     1.0000    -0.4989    20.7739    41.5367     2.4600    14.4503    14.4503     1.7049     0.0000     1.0000     0.0388     0.000
    129     1.3333     1.3334     0.8900     0.0000     30.000   1281.000 225467.000     32.676    41.5367    54.8278   -55.6090    -1.9995     0.0009    26.0000     4.0000     9.0000    22.0000    26.0000    10.0000     5.0000    20.0000     3.0007     1.0000    -0.4988    20.7739    41.5367     2.4636    14.4503    14.4503     1.7049     0.0000     1.0000     0.0383     0.000
    130     1.3333     1.3334     0.8951     0.0000     30.000   1324.000 224540.000     32.542    41.5367    54.9254   -55.6997    -1.9995     0.0009    26.0000     4.0000     9.0000    22.0000    26.0000    10.0000     5.0000    20.0000     3.0007     1.0000    -0.4990    20.7739    41.5367     2.4673    14.4503    14.4503     1.7049     0.0000     1.0000     0.0383     0.000
    131     1.3333     1.3333     0.9000     0.0000     30.000   1267.000 224899.000     32.594    41.5367    55.0213   -55.7865    -1.9995     0.0009    26.0000     4.0000     9.0000    22.0000    26.0000    10.0000     5.0000    20.0000     3.0007     1.0000    -0.4989    20.7739    41.5367     2.4708    14.4503    14.4503     1.7049     0.0000     1.0000     0.0385     0.000
    132     1.3333     1.3334     0.9050     0.0000     30.000   1234.000 225656.000     32.704    41.5367    55.1166   -55.8764    -1.9995     0.0009    26.0000     4.0000     9.0000    22.0000    26.0000    10.0000     5.0000    20.0000     3.0007     1.0000    -0.4989    20.7739    41.5367     2.4745    14.4503    14.4503     1.7048     0.0000     1.0000     0.0385     0.000
    133     1.3333     1.3333     0.9100     0.0000     30.000   1286.000 225978.000     32.750    41.5367    55.2113   -55.9655    -1.9995     0.0009    26.0000     4.0000     9.0000    22.0000    26.0000    10.0000     5.0000    20.0000     3.0007     1.0000    -0.4989    20.7739    41.5367     2.4781    14.4503    14.4503     1.7049     0.0000     1.0000     0.0388     0.000
    134     1.3333     1.3333     0.9150     0.0000     30.000   1288.000 224701.000     32.565    41.5367    55.3058   -56.0548    -1.9995     0.0009    26.0000     4.0000     9.0000    22.0000    26.0000    10.0000     5.0000    20.0000     3.0007     1.0000    -0.4989    20.7739    41.5367     2.4818    14.4503    14.4503     1.7048     0.0000     1.0000     0.0388     0.000
    135     1.3333     1.3333     0.9200     0.0000     30.000   1315.000 224523.000     32.540    41.5367    55.3997   -56.1467    -1.9995     0.0009    26.0000     4.0000     9.0000    22.0000    26.0000    10.0000     5.0000    20.0000     3.0007     1.0000    -0.4989    20.7739    41.5367     2.4855    14.4503    14.4503     1.7049     0.0000     1.0000     0.0388     0.000
    136     1.3333     1.3333     0.9249     0.0000     30.000   1300.000 223937.000     32.455    41.5367    55.4926   -56.2362    -1.9995     0.0009    26.0000     4.0000     9.0000    22.0000    26.0000    10.0000     5.0000    20.0000     3.0007     1.0000    -0.4989    20.7739    41.5368     2.4891    14.4503    14.4502     1.7048     0.0000     1.0000     0.0388     0.000
    137     1.3333     1.3333     0.9300     0.0000     30.000   1244.000 225541.000     32.687    41.5367    55.5856   -56.3293    -1.9995     0.0009    26.0000     4.0000     9.0000    22.0000    26.0000    10.0000     5.0000    20.0000     3.0007     1.0000    -0.4988    20.7739    41.5367     2.4929    14.4503    14.4503     1.7048     0.0000     1.0000     0.0387     0.000
    138     1.3333     1.3333     0.9350     0.0000     30.000   1301.000 225077.000     32.620    41.5367    55.6771   -56.4209    -1.9995     0.0009    26.0000     4.0000     9.0000    22.0000    26.0000    10.0000     5.0000    20.0000     3.0007     1.0000    -0.4989    20.7739    41.5367     2.4966    14.4503    14.4503     1.7048     0.0000     1.0000     0.0387     0.000
    139     1.3333     1.3333     0.9400     0.0000     30.000   1264.000 224823.000     32.583    41.5367    55.7679   -56.5134    -1.9995     0.0009    26.0000     4.0000     9.0000    22.0000    26.0000    10.0000     5.0000    20.0000     3.0007     1.0000    -0.4990    20.7739    41.5367     2.5004    14.4503    14.4503     1.7048     0.0000     1.0000     0.0387     0.000
    140     1.3333     1.3333     0.9450     0.0000     30.000   1279.000 226034.000     32.759    41.5367    55.8587   -56.6063    -1.9995     0.0009    26.0000     4.0000     9.0000    22.0000    26.0000    10.0000     5.0000    20.0000     3.0007     1.0000    -0.4989    20.7739    41.5367     2.5042    14.4503    14.4503     1.7048     0.0000     1.0000     0.0387     0.000
    141     1.3333     1.3333     0.9500     0.0000     30.000   1222.000 224559.000     32.545    41.5367    55.9488   -56.6989    -1.9995     0.0009    26.0000     4.0000     9.0000    22.0000    26.0000    10.0000     5.0000    20.0000     3.0007     1.0000    -0.4989    20.7739    41.5367     2.5079    14.4503    14.4503     1.7048     0.0000     1.0000     0.0387     0.000
    142     1.3333     1.3333     0.9550     0.0000     30.000   1280.000 225747.000     32.717    41.5367    56.0381   -56.7935    -1.9995     0.0009    26.0000     4.0000     9.0000    22.0000    26.0000    10.0000     5.0000    20.0000     3.0007     1.0000    -0.4990    20.7739    41.5367     2.5118    14.4503    14.4503     1.7047     0.0000     1.0000     0.0384     0.000
    143     1.3333     1.3334     0.9600     0.0000     30.000   1238.000 226081.000     32.765    41.5367    56.1266   -56.8885    -1.9995     0.0009    26.0000     4.0000     9.0000    22.0000    26.0000    10.0000     5.0000    20.0000     3.0007     1.0000    -0.4989    20.7739    41.5367     2.5156    14.4503    14.4503     1.7047     0.0000     1.0000     0.0384     0.000
    144     1.3333     1.3334     0.9651     0.0000     30.000   1289.000 225399.000     32.667    41.5367    56.2154   -56.9840    -1.9995     0.0009    26.0000     4.0000     9.0000    22.0000    26.0000    10.0000     5.0000    20.0000     3.0007     1.0000    -0.4990    20.7739    41.5367     2.5195    14.4503    14.4503     1.7047     0.0000     1.0000     0.0384     0.000
    145     1.3333     1.3334     0.9700     0.0000     30.000   1253.000 224605.000     32.551    41.5367    56.3027   -57.0774    -1.9995     0.0009    26.0000     4.0000     9.0000    22.0000    26.0000    10.0000     5.0000    20.0000     3.0007     1.0000    -0.4990    20.7739    41.5367     2.5233    14.4503    14.4503     1.7046     0.0000     1.0000     0.0384     0.000
    146     1.3333     1.3334     0.9751     0.0000     30.000   1257.000 225356.000     32.660    41.5367    56.3898   -57.1742    -1.9995     0.0009    26.0000     4.0000     9.0000    22.0000    26.0000    10.0000     5.0000    20.0000     3.0007     1.0000    -0.4989    20.7739    41.5368     2.5272    14.4503    14.4502     1.7046     0.0000     1.0000     0.0384     0.000
    147     1.3333     1.3334     0.9801     0.0000     30.000   1230.000 225738.000     32.716    41.5367    56.4762   -57.2696    -1.9995     0.0009    26.0000     4.0000     9.0000    22.0000    26.0000    10.0000     5.0000    20.0000     3.0007     1.0000    -0.4988    20.7739    41.5367     2.5310    14.4503    14.4503     1.7046     0.0000     1.0000     0.0386     0.000
    148     1.3333     1.3334     0.9850     0.0000     30.000   1179.000 225242.000     32.644    41.5367    56.5620   -57.3649    -1.9995     0.0009    26.0000     4.0000     9.0000    22.0000    26.0000    10.0000     5.0000    20.0000     3.0007     1.0000    -0.4989    20.7739    41.5367     2.5349    14.4503    14.4503     1.7046     0.0000     1.0000     0.0386     0.000
    149     1.3333     1.3334     0.9900     0.0000     30.000   1208.000 226548.000     32.833    41.5367    56.6469   -57.4603    -1.9995     0.0009    26.0000     4.0000     9.0000    22.0000    26.0000    10.0000     5.0000    20.0000     3.0007     1.0000    -0.4989    20.7739    41.5367     2.5388    14.4503    14.4503     1.7045     0.0000     1.0000     0.0388     0.000
    150     1.3333     1.3334     0.9950     0.0000     30.000   1204.000 225588.000     32.694    41.5367    56.7315   -57.5574    -1.9995     0.0009    26.0000     4.0000     9.0000    22.0000    26.0000    10.0000     5.0000    20.0000     3.0007     1.0000    -0.4989    20.7738    41.5367     2.5427    14.4503    14.4503     1.7046     0.0000     1.0000     0.0388     0.000
    151     1.3333     1.3333     1.0000     0.0000     30.000   1178.000 225791.000     32.723    41.5367    56.8159   -57.6525    -1.9995     0.0009    26.0000     4.0000     9.0000    22.0000    26.0000    10.0000     5.0000    20.0000     3.0007     1.0000    -0.4990    20.7739    41.5367     2.5465    14.4503    14.4503     1.7046     0.0000     1.0000     0.0383     0.000
    152     1.3333     1.3334     1.0050     0.0000     30.000   1213.000 224828.000     32.584    41.5367    56.8992   -57.7522    -1.9995     0.0009    26.0000     4.0000     9.0000    22.0000    26.0000    10.0000     5.0000    20.0000     3.0007     1.0000    -0.4989    20.7739    41.5368     2.5505    14.4503    14.4502     1.7047     0.0000     1.0000     0.0383     0.000
    153     1.3333     1.3333     1.0100     0.0001     30.000   1220.000 224563.000     32.545    41.5367    56.9818   -57.8485    -1.9995     0.0009    26.0000     4.0000     9.0000    22.0000    26.0000    10.0000     5.0000    20.0000     3.0007     1.0000    -0.4990    20.7739    41.5368     2.5544    14.4503    14.4502     1.7047     0.0000     1.0000     0.0384     0.000
    154     1.3333     1.3333     1.0150     0.0000     30.000   1152.000 224412.000     32.523    41.5367    57.0646   -57.9466    -1.9995     0.0009    26.0000     4.0000     9.0000    22.0000    26.0000    10.0000     5.0000    20.0000     3.0007     1.0000    -0.4990    20.7739    41.5367     2.5584    14.4503    14.4503     1.7047     0.0000     1.0000     0.0384     0.000
    155     1.3333     1.3334     1.0200     0.0000     30.000   1160.000 225014.000     32.611    41.5367    57.1454   -58.0465    -1.9995     0.0009    26.0000     4.0000     9.0000    22.0000    26.0000    10.0000     5.0000    20.0000     3.0007     1.0000    -0.4989    20.7739    41.5367     2.5624    14.4503    14.4503     1.7046     0.0000     1.0000     0.0383     0.000
    156     1.3333     1.3333     1.0250     0.0000     30.000   1159.000 224745.000     32.572    41.5367    57.2263   -58.1443    -1.9995     0.0009    26.0000     4.0000     9.0000    22.0000    26.0000    10.0000     5.0000    20.0000     3.0007     1.0000    -0.4988    20.7739    41.5367     2.5664    14.4503    14.4503     1.7046     0.0000     1.0000     0.0386     0.000
    157     1.3333     1.3333     1.0300     0.0000     30.000   1165.000 226669.000     32.851    41.5367    57.3069   -58.2436    -1.9995     0.0009    26.0000     4.0000     9.0000    22.0000    26.0000    10.0000     5.0000    20.0000     3.0007     1.0000    -0.4990    20.7739    41.5367     2.5704    14.4503    14.4503     1.7046     0.0000     1.0000     0.0386     0.000
    158     1.3333     1.3333     1.0350     0.0000     30.000   1182.000 225549.000     32.688    41.5367    57.3868   -58.3431    -1.9995     0.0009    26.0000     4.0000     9.0000    22.0000    26.0000    10.0000     5.0000    20.0000     3.0007     1.0000    -0.4989    20.7739    41.5367     2.5744    14.4503    14.4503     1.7045     0.0000     1.0000     0.0383     0.000
    159     1.3333     1.3333     1.0400     0.0000     30.000   1157.000 224551.000     32.544    41.5367    57.4659   -58.4441    -1.9995     0.0009    26.0000     4.0000     9.0000    22.0000    26.0000    10.0000     5.0000    20.0000     3.0007     1.0000    -0.4991    20.7739    41.5368     2.5784    14.4503    14.4502     1.7045     0.0000     1.0000     0.0383     0.000
    160     1.3333     1.3333     1.0450     0.0000     30.000   1132.000 226500.000     32.826    41.5367    57.5452   -58.5442    -1.9995     0.0009    26.0000     4.0000     9.0000    22.0000    26.0000    10.0000     5.0000    20.0000     3.0007     1.0000    -0.4990    20.7739    41.5367     2.5824    14.4503    14.4503     1.7045     0.0000     1.0000     0.0383     0.000
    161     1.3333     1.3333     1.0500     0.0000     30.000   1128.000 225805.000     32.725    41.5367    57.6226   -58.6452    -1.9995     0.0009    26.0000     4.0000     9.0000    22.0000    26.0000    10.0000     5.0000    20.0000     3.0007     1.0000    -0.4990    20.7739    41.5367     2.5865    14.4503    14.4503     1.7045     0.0000     1.0000     0.0383     0.000
    162     1.3333     1.3334     1.0551     0.0000     30.000   1110.000 226100.000     32.768    41.5367    57.7006   -58.7479    -1.9995     0.0009    26.0000     4.0000     9.0000    22.0000    26.0000    10.0000     5.0000    20.0000     3.0007     1.0000    -0.4989    20.7739    41.5368     2.5906    14.4503    14.4502     1.7044     0.0000     1.0000     0.0385     0.000
    163     1.3333     1.3334     1.0600     0.0000     30.000   1116.000 226937.000     32.889    41.5367    57.7768   -58.8483    -1.9995     0.0009    26.0000     4.0000     9.0000    22.0000    26.0000    10.0000     5.0000    20.0000     3.0007     1.0000    -0.4991    20.7739    41.5367     2.5947    14.4503    14.4503     1.7044     0.0000     1.0000     0.0385     0.000
    164     1.3333     1.3333     1.0650     0.0000     30.000   1137.000 225695.000     32.709    41.5367    57.8540   -58.9508    -1.9995     0.0009    26.0000     4.0000     9.0000    22.0000    26.0000    10.0000     5.0000    20.0000     3.0007     1.0000    -0.4990    20.7739    41.5367     2.5988    14.4503    14.4503     1.7044     0.0000     1.0000     0.0385     0.000
    165     1.3333     1.3334     1.0700     0.0000     30.000   1153.000 226015.000     32.756    41.5367    57.9291   -59.0533    -1.9995     0.0009    26.0000     4.0000     9.0000    22.0000    26.0000    10.0000     5.0000    20.0000     3.0007     1.0000    -0.4989    20.7739    41.5367     2.6029    14.4503    14.4503     1.7043     0.0000     1.0000     0.0386     0.000
    166     1.3333     1.3333     1.0750     0.0000     30.000   1171.000 225433.000     32.671    41.5367    58.0048   -59.1541    -1.9995     0.0009    26.0000     4.0000     9.0000    22.0000    26.0000    10.0000     5.0000    20.0000     3.0007     1.0000    -0.4991    20.7739    41.5367     2.6069    14.4503    14.4503     1.7043     0.0000     1.0000     0.0386     0.000
    167     1.3333     1.3333     1.0800     0.0000     30.000   1186.000 226594.000     32.840    41.5367    58.0789   -59.2563    -1.9995     0.0009    26.0000     4.0000     9.0000    22.0000    26.0000    10.0000     5.0000    20.0000     3.0007     1.0000    -0.4990    20.7739    41.5367     2.6110    14.4503    14.4503     1.7043     0.0000     1.0000     0.0382     0.000
    168     1.3333     1.3333     1.0850     0.0000     30.000   1150.000 225722.000     32.713    41.5367    58.1531   -59.3611    -1.9995     0.0009    26.0000     4.0000     9.0000    22.0000    26.0000    10.0000     5.0000    20.0000     3.0007     1.0000    -0.4990    20.7739    41.5367     2.6152    14.4503    14.4503     1.7042     0.0000     1.0000     0.0382     0.000
    169     1.3333     1.3333     1.0899     0.0000     30.000   1182.000 225716.000     32.712    41.5367    58.2257   -59.4618    -1.9995     0.0009    26.0000     4.0000     9.0000    22.0000    26.0000    10.0000     5.0000    20.0000     3.0007     1.0000    -0.4989    20.7739    41.5367     2.6193    14.4503    14.4503     1.7042     0.0000     1.0000     0.0384     0.000
    170     1.3333     1.3333     1.0950     0.0000     30.000   1121.000 226035.000     32.759    41.5367    58.2991   -59.5680    -1.9995     0.0009    26.0000     4.0000     9.0000    22.0000    26.0000    10.0000     5.0000    20.0000     3.0006     1.0000    -0.4990    20.7739    41.5367     2.6235    14.4503    14.4503     1.7043     0.0000     1.0000     0.0384     0.000
    171     1.3333     1.3333     1.1000     0.0000     30.000   1151.000 225256.000     32.646    41.5367    58.3708   -59.6728    -1.9995     0.0009    26.0000     4.0000     9.0000    22.0000    26.0000    10.0000     5.0000    20.0000     3.0007     1.0000    -0.4991    20.7739    41.5367     2.6277    14.4503    14.4503     1.7043     0.0000     1.0000     0.0384     0.000
    172     1.3333     1.3333     1.1050     0.0000     30.000   1105.000 224980.000     32.606    41.5367    58.4432   -59.7780    -1.9995     0.0009    26.0000     4.0000     9.0000    22.0000    26.0000    10.0000     5.0000    20.0000     3.0007     1.0000    -0.4991    20.7738    41.5367     2.6319    14.4503    14.4503     1.7042     0.0000     1.0000     0.0385     0.000
    173     1.3333     1.3333     1.1100     0.0000     30.000   1175.000 226098.000     32.768    41.5367    58.5140   -59.8837    -1.9995     0.0009    26.0000     4.0000     9.0000    22.0000    26.0000    10.0000     5.0000    20.0000     3.0007     1.0000    -0.4990    20.7739    41.5367     2.6361    14.4503    14.4503     1.7043     0.0000     1.0000     0.0385     0.000
    174     1.3333     1.3333     1.1150     0.0000     30.000   1139.000 225315.000     32.654    41.5367    58.5849   -59.9884    -1.9995     0.0009    26.0000     4.0000     9.0000    22.0000    26.0000    10.0000     5.0000    20.0000     3.0007     1.0000    -0.4991    20.7739    41.5367     2.6403    14.4503    14.4503     1.7043     0.0000     1.0000     0.0382     0.000
    175     1.3333     1.3333     1.1200     0.0000     30.000   1183.000 226238.000     32.788    41.5367    58.6545   -60.0961    -1.9995     0.0009    26.0000     4.0000     9.0000    22.0000    26.0000    10.0000     5.0000    20.0000     3.0007     1.0000    -0.4988    20.7739    41.5367     2.6446    14.4503    14.4503     1.7042     0.0000     1.0000     0.0382     0.000
    176     1.3333     1.3333     1.1250     0.0000     30.000   1172.000 225980.000     32.751    41.5367    58.7236   -60.2031    -1.9995     0.0009    26.0000     4.0000     9.0000    22.0000    26.0000    10.0000     5.0000    20.0000     3.0007     1.0000    -0.4990    20.7739    41.5367     2.6489    14.4503    14.4503     1.7042     0.0000     1.0000     0.0385     0.000
    177     1.3333     1.3333     1.1300     0.0000     30.000   1074.000 225763.000     32.719    41.5367    58.7920   -60.3094    -1.9995     0.0009    26.0000     4.0000     9.0000    22.0000    26.0000    10.0000     5.0000    20.0000     3.0007     1.0000    -0.4989    20.7738    41.5367     2.6531    14.4503    14.4503     1.7042     0.0000     1.0000     0.0385     0.000
    178     1.3333     1.3334     1.1350     0.0000     30.000   1112.000 224682.000     32.563    41.5367    58.8601   -60.4174    -1.9995     0.0009    26.0000     4.0000     9.0000    22.0000    26.0000    10.0000     5.0000    20.0000     3.0007     1.0000    -0.4990    20.7739    41.5367     2.6574    14.4503    14.4503     1.7043     0.0000     1.0000     0.0384     0.000
    179     1.3333     1.3334     1.1401     0.0000     30.000   1136.000 225391.000     32.665    41.5367    58.9279   -60.5248    -1.9995     0.0009    26.0000     4.0000     9.0000    22.0000    26.0000    10.0000     5.0000    20.0000     3.0007     1.0000    -0.4991    20.7738    41.5367     2.6617    14.4503    14.4503     1.7043     0.0000     1.0000     0.0384     0.000
    180     1.3333     1.3333     1.1450     0.0000     30.000   1094.000 226260.000     32.791    41.5367    58.9951   -60.6316    -1.9995     0.0009    26.0000     4.0000     9.0000    22.0000    26.0000    10.0000     5.0000    20.0000     3.0007     1.0000    -0.4990    20.7739    41.5367     2.6659    14.4503    14.4503     1.7043     0.0000     1.0000     0.0377     0.000
    181     1.3333     1.3333     1.1500     0.0000     30.000   1164.000 225653.000     32.703    41.5367    59.0615   -60.7398    -1.9995     0.0009    26.0000     4.0000     9.0000    22.0000    26.0000    10.0000     5.0000    20.0000     3.0007     1.0000    -0.4990    20.7738    41.5367     2.6702    14.4503    14.4503     1.7043     0.0000     1.0000     0.0378     0.000
    182     1.3333     1.3333     1.1550     0.0000     30.000   1171.000 225443.000     32.673    41.5367    59.1279   -60.8460    -1.9995     0.0009    26.0000     4.0000     9.0000    22.0000    26.0000    10.0000     5.0000    20.0000     3.0007     1.0000    -0.4991    20.7739    41.5367     2.6745    14.4503    14.4503     1.7043     0.0000     1.0000     0.0378     0.000
    183     1.3333     1.3333     1.1600     0.0000     30.000   1055.000 225741.000     32.716    41.5367    59.1929   -60.9563    -1.9995     0.0009    26.0000     4.0000     9.0000    22.0000    26.0000    10.0000     5.0000    20.0000     3.0007     1.0000    -0.4990    20.7739    41.5367     2.6788    14.4503    14.4503     1.7043     0.0000     1.0000     0.0379     0.000
    184     1.3333     1.3333     1.1650     0.0000     30.000   1130.000 225814.000     32.727    41.5367    59.2574   -61.0644    -1.9995     0.0009    26.0000     4.0000     9.0000    22.0000    26.0000    10.0000     5.0000    20.0000     3.0007     1.0000    -0.4990    20.7738    41.5367     2.6831    14.4503    14.4503     1.7042     0.0000     1.0000     0.0379     0.000
    185     1.3333     1.3333     1.1700     0.0000     30.000   1157.000 226573.000     32.837    41.5367    59.3229   -61.1727    -1.9995     0.0009    26.0000     4.0000     9.0000    22.0000    26.0000    10.0000     5.0000    20.0000     3.0007     1.0000    -0.4990    20.7739    41.5367     2.6874    14.4503    14.4503     1.7042     0.0000     1.0000     0.0382     0.000
    186     1.3333     1.3333     1.1750     0.0000     30.000   1180.000 225903.000     32.740    41.5367    59.3851   -61.2846    -1.9995     0.0009    26.0000     4.0000     9.0000    22.0000    26.0000    10.0000     5.0000    20.0000     3.0007     1.0000    -0.4991    20.7738    41.5367     2.6919    14.4503    14.4503     1.7042     0.0000     1.0000     0.0382     0.000
    187     1.3333     1.3333     1.1800     0.0000     30.000   1110.000 225441.000     32.673    41.5367    59.4483   -61.3939    -1.9995     0.0009    26.0000     4.0000     9.0000    22.0000    26.0000    10.0000     5.0000    20.0000     3.0007     1.0000    -0.4989    20.7739    41.5367     2.6962    14.4503    14.4503     1.7041     0.0000     1.0000     0.0376     0.000
    188     1.3333     1.3334     1.1850     0.0000     30.000   1082.000 225985.000     32.751    41.5367    59.5107   -61.5073    -1.9995     0.0009    26.0000     4.0000     9.0000    22.0000    26.0000    10.0000     5.0000    20.0000     3.0007     1.0000    -0.4991    20.7739    41.5367     2.7007    14.4503    14.4503     1.7041     0.0000     1.0000     0.0376     0.000
    189     1.3333     1.3333     1.1900     0.0000     30.000   1117.000 226461.000     32.820    41.5367    59.5727   -61.6175    -1.9995     0.0009    26.0000     4.0000     9.0000    22.0000    26.0000    10.0000     5.0000    20.0000     3.0007     1.0000    -0.4991    20.7738    41.5367     2.7051    14.4503    14.4503     1.7041     0.0000     1.0000     0.0378     0.000
    190     1.3333     1.3333     1.1951     0.0000     30.000   1109.000 226000.000     32.754    41.5367    59.6348   -61.7298    -1.9995     0.0009    26.0000     4.0000     9.0000    22.0000    26.0000    10.0000     5.0000    20.0000     3.0007     1.0000    -0.4992    20.7738    41.5367     2.7095    14.4503    14.4503     1.7042     0.0000     1.0000     0.0382     0.000
    191     1.3333     1.3333     1.2000     0.0000     30.000   1088.000 225220.000     32.641    41.5367    59.6955   -61.8409    -1.9995     0.0009    26.0000     4.0000     9.0000    22.0000    26.0000    10.0000     5.0000    20.0000     3.0007     1.0000    -0.4990    20.7738    41.5367     2.7139    14.4503    14.4503     1.7042     0.0000     1.0000     0.0382     0.000
    192     1.3333     1.3334     1.2051     0.0000     30.000   1090.000 225705.000     32.711    41.5367    59.7555   -61.9543    -1.9995     0.0009    26.0000     4.0000     9.0000    22.0000    26.0000    10.0000     5.0000    20.0000     3.0007     1.0000    -0.4989    20.7738    41.5367     2.7184    14.4503    14.4503     1.7041     0.0000     1.0000     0.0378     0.000
    193     1.3333     1.3334     1.2101     0.0000     30.000   1063.000 225926.000     32.743    41.5367    59.8153   -62.0664    -1.9995     0.0009    26.0000     4.0000     9.0000    22.0000    26.0000    10.0000     5.0000    20.0000     3.0007     1.0000    -0.4990    20.7738    41.5367     2.7228    14.4503    14.4503     1.7042     0.0000     1.0000     0.0378     0.000
    194     1.3333     1.3334     1.2151     0.0000     30.000   1090.000 226190.000     32.781    41.5367    59.8748   -62.1806    -1.9995     0.0009    26.0000     4.0000     9.0000    22.0000    26.0000    10.0000     5.0000    20.0000     3.0007     1.0000    -0.4990    20.7738    41.5367     2.7273    14.4503    14.4503     1.7042     0.0000     1.0000     0.0383     0.000
    195     1.3333     1.3334     1.2201     0.0000     30.000   1130.000 225617.000     32.698    41.5367    59.9335   -62.2939    -1.9995     0.0009    26.0000     4.0000     9.0000    22.0000    26.0000    10.0000     5.0000    20.0000     3.0007     1.0000    -0.4991    20.7738    41.5367     2.7318    14.4503    14.4503     1.7041     0.0000     1.0000     0.0383     0.000
    196     1.3333     1.3333     1.2250     0.0000     30.000   1139.000 226411.000     32.813    41.5367    59.9908   -62.4028    -1.9995     0.0009    26.0000     4.0000     9.0000    22.0000    26.0000    10.0000     5.0000    20.0000     3.0007     1.0000    -0.4991    20.7738    41.5367     2.7361    14.4503    14.4503     1.7041     0.0000     1.0000     0.0377     0.000
    197     1.3333     1.3333     1.2300     0.0000     30.000   1045.000 226208.000     32.784    41.5367    60.0483   -62.5173    -1.9995     0.0009    26.0000     4.0000     9.0000    22.0000    26.0000    10.0000     5.0000    20.0000     3.0007     1.0000    -0.4991    20.7738    41.5367     2.7406    14.4503    14.4503     1.7041     0.0000     1.0000     0.0377     0.000
    198     1.3333     1.3333     1.2350     0.0000     30.000   1068.000 225254.000     32.646    41.5367    60.1050   -62.6304    -1.9995     0.0009    26.0000     4.0000     9.0000    22.0000    26.0000    10.0000     5.0000    20.0000     3.0007     1.0000    -0.4990    20.7738    41.5367     2.7451    14.4503    14.4503     1.7041     0.0000     1.0000     0.0376     0.000
    199     1.3333     1.3333     1.2399     0.0000     30.000   1069.000 226939.000     32.890    41.5367    60.1620   -62.7441    -1.9995     0.0009    26.0000     4.0000     9.0000    22.0000    26.0000    10.0000     5.0000    20.0000     3.0007     1.0000    -0.4988    20.7738    41.5367     2.7495    14.4503    14.4503     1.7041     0.0000     1.0000     0.0382     0.000
    200     1.3333     1.3333     1.2450     0.0000     30.000   1048.000 227141.000     32.919    41.5367    60.2180   -62.8610    -1.9995     0.0009    26.0000     4.0000     9.0000    22.0000    26.0000    10.0000     5.0000    20.0000     3.0007     1.0000    -0.4991    20.7738    41.5367     2.7541    14.4503    14.4503     1.7041     0.0000     1.0000     0.0382     0.000
    201     1.3333     1.3333     1.2500     0.0000     30.000   1098.000 226096.000     32.768    41.5367    60.2736   -62.9742    -1.9995     0.0009    26.0000     4.0000     9.0000    22.0000    26.0000    10.0000     5.0000    20.0000     3.0007     1.0000    -0.4989    20.7738    41.5367     2.7586    14.4503    14.4503     1.7041     0.0000     1.0000     0.0377     0.000
    202     1.3333     1.3333     1.2550     0.0000     30.000   1089.000 226213.000     32.784    41.5367    60.3285   -63.0901    -1.9995     0.0009    26.0000     4.0000     9.0000    22.0000    26.0000    10.0000     5.0000    20.0000     3.0007     1.0000    -0.4991    20.7738    41.5367     2.7631    14.4503    14.4503     1.7041     0.0000     1.0000     0.0377     0.000
    203     1.3333     1.3333     1.2600     0.0000     30.000   1100.000 225822.000     32.728    41.5367    60.3837   -63.2057    -1.9995     0.0009    26.0000     4.0000     9.0000    22.0000    26.0000    10.0000     5.0000    20.0000     3.0006     1.0000    -0.4992    20.7738    41.5367     2.7677    14.4503    14.4503     1.7041     0.0000     1.0000     0.0375     0.000
    204     1.3333     1.3333     1.2650     0.0000     30.000   1111.000 226983.000     32.896    41.5367    60.4365   -63.3213    -1.9995     0.0009    26.0000     4.0000     9.0000    22.0000    26.0000    10.0000     5.0000    20.0000     3.0007     1.0000    -0.4990    20.7738    41.5367     2.7722    14.4503    14.4503     1.7041     0.0000     1.0000     0.0375     0.000
    205     1.3333     1.3333     1.2700     0.0000     30.000   1122.000 226505.000     32.827    41.5367    60.4894   -63.4405    -1.9995     0.0009    26.0000     4.0000     9.0000    22.0000    26.0000    10.0000     5.0000    20.0000     3.0007     1.0000    -0.4992    20.7738    41.5367     2.7769    14.4503    14.4503     1.7041     0.0000     1.0000     0.0378     0.000
    206     1.3333     1.3333     1.2750     0.0000     30.000   1115.000 226310.000     32.799    41.5367    60.5418   -63.5569    -1.9995     0.0009    26.0000     4.0000     9.0000    22.0000    26.0000    10.0000     5.0000    20.0000     3.0006     1.0000    -0.4990    20.7738    41.5367     2.7814    14.4503    14.4503     1.7041     0.0000     1.0000     0.0376     0.000
    207     1.3333     1.3333     1.2801     0.0000     30.000   1064.000 225698.000     32.710    41.5367    60.5948   -63.6758    -1.9995     0.0009    26.0000     4.0000     9.0000    22.0000    26.0000    10.0000     5.0000    20.0000     3.0007     1.0000    -0.4992    20.7738    41.5367     2.7861    14.4503    14.4503     1.7040     0.0000     1.0000     0.0376     0.000
    208     1.3333     1.3334     1.2851     0.0000     30.000   1156.000 226464.000     32.821    41.5367    60.6455   -63.7931    -1.9995     0.0009    26.0000     4.0000     9.0000    22.0000    26.0000    10.0000     5.0000    20.0000     3.0007     1.0000    -0.4991    20.7738    41.5367     2.7907    14.4503    14.4503     1.7040     0.0000     1.0000     0.0376     0.000
    209     1.3333     1.3334     1.2901     0.0000     30.000   1099.000 225353.000     32.660    41.5367    60.6965   -63.9110    -1.9995     0.0009    26.0000     4.0000     9.0000    22.0000    26.0000    10.0000     5.0000    20.0000     3.0007     1.0000    -0.4990    20.7738    41.5367     2.7953    14.4503    14.4503     1.7040     0.0000     1.0000     0.0376     0.000
    210     1.3333     1.3334     1.2950     0.0000     30.000   1121.000 225690.000     32.709    41.5367    60.7471   -64.0281    -1.9995     0.0009    26.0000     4.0000     9.0000    22.0000    26.0000    10.0000     5.0000    20.0000     3.0007     1.0000    -0.4991    20.7738    41.5367     2.7999    14.4503    14.4503     1.7040     0.0000     1.0000     0.0375     0.000
    211     1.3333     1.3333     1.3000     0.0000     30.000   1058.000 226182.000     32.780    41.5367    60.7972   -64.1465    -1.9995     0.0009    26.0000     4.0000     9.0000    22.0000    26.0000    10.0000     5.0000    20.0000     3.0006     1.0000    -0.4990    20.7738    41.5367     2.8045    14.4503    14.4503     1.7041     0.0000     1.0000     0.0375     0.000
    212     1.3333     1.3333     1.3049     0.0000     30.000   1148.000 226490.000     32.825    41.5367    60.8466   -64.2629    -1.9995     0.0009    26.0000     4.0000     9.0000    22.0000    26.0000    10.0000     5.0000    20.0000     3.0007     1.0000    -0.4991    20.7738    41.5367     2.8091    14.4503    14.4503     1.7041     0.0000     1.0000     0.0374     0.000
    213     1.3333     1.3333     1.3100     0.0000     30.000   1101.000 225472.000     32.677    41.5367    60.8953   -64.3833    -1.9995     0.0009    26.0000     4.0000     9.0000    22.0000    26.0000    10.0000     5.0000    20.0000     3.0007     1.0000    -0.4991    20.7738    41.5367     2.8138    14.4503    14.4503     1.7040     0.0000     1.0000     0.0374     0.000
    214     1.3333     1.3333     1.3150     0.0000     30.000   1084.000 226097.000     32.768    41.5367    60.9447   -64.5022    -1.9995     0.0009    26.0000     4.0000     9.0000    22.0000    26.0000    10.0000     5.0000    20.0000     3.0007     1.0000    -0.4991    20.7738    41.5367     2.8184    14.4503    14.4503     1.7040     0.0000     1.0000     0.0375     0.000
    215     1.3333     1.3333     1.3200     0.0000     30.000   1108.000 225964.000     32.748    41.5367    60.9927   -64.6237    -1.9995     0.0009    26.0000     4.0000     9.0000    22.0000    26.0000    10.0000     5.0000    20.0000     3.0007     1.0000    -0.4992    20.7738    41.5367     2.8231    14.4503    14.4503     1.7040     0.0000     1.0000     0.0376     0.000
    216     1.3333     1.3333     1.3250     0.0000     30.000   1150.000 225757.000     32.718    41.5367    61.0397   -64.7447    -1.9995     0.0009    26.0000     4.0000     9.0000    22.0000    26.0000    10.0000     5.0000    20.0000     3.0007     1.0000    -0.4991    20.7738    41.5367     2.8278    14.4503    14.4503     1.7040     0.0000     1.0000     0.0376     0.000
    217     1.3333     1.3333     1.3299     0.0000     30.000   1197.000 226648.000     32.848    41.5367    61.0863   -64.8624    -1.9995     0.0009    26.0000     4.0000     9.0000    22.0000    26.0000    10.0000     5.0000    20.0000     3.0007     1.0000    -0.4991    20.7738    41.5367     2.8324    14.4503    14.4503     1.7039     0.0000     1.0000     0.0376     0.000
    218     1.3333     1.3333     1.3350     0.0000     30.000   1178.000 225572.000     32.692    41.5367    61.1332   -64.9841    -1.9995     0.0009    26.0000     4.0000     9.0000    22.0000    26.0000    10.0000     5.0000    20.0000     3.0006     1.0000    -0.4989    20.7738    41.5367     2.8371    14.4503    14.4503     1.7039     0.0000     1.0000     0.0376     0.000
    219     1.3333     1.3333     1.3400     0.0000     30.000   1138.000 226130.000     32.772    41.5367    61.1787   -65.1058    -1.9995     0.0009    26.0000     4.0000     9.0000    22.0000    26.0000    10.0000     5.0000    20.0000     3.0007     1.0000    -0.4991    20.7738    41.5367     2.8419    14.4503    14.4503     1.7038     0.0000     1.0000     0.0376     0.000
    220     1.3333     1.3333     1.3450     0.0000     30.000   1193.000 225668.000     32.706    41.5367    61.2241   -65.2285    -1.9995     0.0009    26.0000     4.0000     9.0000    22.0000    26.0000    10.0000     5.0000    20.0000     3.0007     1.0000    -0.4991    20.7738    41.5367     2.8466    14.4503    14.4503     1.7038     0.0000     1.0000     0.0376     0.000
    221     1.3333     1.3334     1.3500     0.0000     30.000   1176.000 226215.000     32.785    41.5367    61.2684   -65.3509    -1.9995     0.0009    26.0000     4.0000     9.0000    22.0000    26.0000    10.0000     5.0000    20.0000     3.0007     1.0000    -0.4990    20.7738    41.5367     2.8514    14.4503    14.4503     1.7038     0.0000     1.0000     0.0375     0.000
    222     1.3333     1.3333     1.3551     0.0000     30.000   1152.000 226316.000     32.799    41.5367    61.3133   -65.4735    -1.9995     0.0009    26.0000     4.0000     9.0000    22.0000    26.0000    10.0000     5.0000    20.0000     3.0007     1.0000    -0.4991    20.7738    41.5367     2.8561    14.4503    14.4503     1.7038     0.0000     1.0000     0.0375     0.000
    223     1.3333     1.3333     1.3600     0.0000     30.000   1166.000 226037.000     32.759    41.5367    61.3573   -65.5946    -1.9995     0.0009    26.0000     4.0000     9.0000    22.0000    26.0000    10.0000     5.0000    20.0000     3.0006     1.0000    -0.4990    20.7738    41.5367     2.8608    14.4503    14.4503     1.7038     0.0000     1.0000     0.0375     0.000
    224     1.3333     1.3333     1.3650     0.0000     30.000   1215.000 225940.000     32.745    41.5367    61.3999   -65.7167    -1.9995     0.0009    26.0000     4.0000     9.0000    22.0000    26.0000    10.0000     5.0000    20.0000     3.0007     1.0000    -0.4992    20.7738    41.5367     2.8656    14.4503    14.4503     1.7038     0.0000     1.0000     0.0376     0.000
    225     1.3333     1.3333     1.3700     0.0000     30.000   1265.000 226844.000     32.876    41.5367    61.4433   -65.8393    -1.9995     0.0009    26.0000     4.0000     9.0000    22.0000    26.0000    10.0000     5.0000    20.0000     3.0006     1.0000    -0.4992    20.7738    41.5367     2.8703    14.4503    14.4503     1.7038     0.0000     1.0000     0.0376     0.000
    226     1.3333     1.3333     1.3749     0.0000     30.000   1229.000 225658.000     32.704    41.5367    61.4844   -65.9608    -1.9995     0.0009    26.0000     4.0000     9.0000    22.0000    26.0000    10.0000     5.0000    20.0000     3.0007     1.0000    -0.4991    20.7738    41.5367     2.8750    14.4503    14.4503     1.7038     0.0000     1.0000     0.0375     0.000
    227     1.3333     1.3333     1.3800     0.0000     30.000   1242.000 225979.000     32.751    41.5367    61.5273   -66.0860    -1.9995     0.0009    26.0000     4.0000     9.0000    22.0000    26.0000    10.0000     5.0000    20.0000     3.0007     1.0000    -0.4991    20.7738    41.5367     2.8799    14.4503    14.4503     1.7039     0.0000     1.0000     0.0375     0.000
    228     1.3333     1.3333     1.3850     0.0000     30.000   1261.000 225862.000     32.734    41.5367    61.5679   -66.2108    -1.9995     0.0009    26.0000     4.0000     9.0000    22.0000    26.0000    10.0000     5.0000    20.0000     3.0006     1.0000    -0.4991    20.7738    41.5367     2.8847    14.4503    14.4503     1.7038     0.0000     1.0000     0.0376     0.000
    229     1.3333     1.3333     1.3900     0.0000     30.000   1310.000 227207.000     32.929    41.5367    61.6086   -66.3360    -1.9995     0.0009    26.0000     4.0000     9.0000    22.0000    26.0000    10.0000     5.0000    20.0000     3.0007     1.0000    -0.4991    20.7738    41.5367     2.8895    14.4503    14.4503     1.7038     0.0000     1.0000     0.0376     0.000
    230     1.3333     1.3333     1.3950     0.0000     30.000   1291.000 225998.000     32.753    41.5367    61.6489   -66.4602    -1.9995     0.0009    26.0000     4.0000     9.0000    22.0000    26.0000    10.0000     5.0000    20.0000     3.0007     1.0000    -0.4989    20.7738    41.5367     2.8943    14.4503    14.4503     1.7038     0.0000     1.0000     0.0375     0.000
    231     1.3333     1.3333     1.4000     0.0000     30.000   1333.000 226120.000     32.771    41.5367    61.6882   -66.5855    -1.9995     0.0009    26.0000     4.0000     9.0000    22.0000    26.0000    10.0000     5.0000    20.0000     3.0007     1.0000    -0.4992    20.7738    41.5367     2.8991    14.4503    14.4503     1.7038     0.0000     1.0000     0.0375     0.000
    232     1.3333     1.3333     1.4050     0.0000     30.000   1382.000 226143.000     32.774    41.5367    61.7270   -66.7128    -1.9995     0.0009    26.0000     4.0000     9.0000    22.0000    26.0000    10.0000     5.0000    20.0000     3.0007     1.0000    -0.4991    20.7738    41.5367     2.9040    14.4503    14.4503     1.7037     0.0000     1.0000     0.0375     0.000
    233     1.3333     1.3334     1.4100     0.0000     30.000   1450.000 226133.000     32.773    41.5367    61.7654   -66.8392    -1.9995     0.0009    26.0000     4.0000     9.0000    22.0000    26.0000    10.0000     5.0000    20.0000     3.0007     1.0000    -0.4991    20.7738    41.5367     2.9089    14.4503    14.4503     1.7037     0.0000     1.0000     0.0374     0.000
    234     1.3333     1.3333     1.4150     0.0000     30.000   1447.000 225653.000     32.703    41.5367    61.8044   -66.9649    -1.9995     0.0009    26.0000     4.0000     9.0000    22.0000    26.0000    10.0000     5.0000    20.0000     3.0007     1.0000    -0.4992    20.7738    41.5367     2.9137    14.4503    14.4503     1.7037     0.0000     1.0000     0.0374     0.000
    235     1.3333     1.3334     1.4200     0.0000     30.000   1468.000 224763.000     32.574    41.5367    61.8414   -67.0919    -1.9995     0.0009    26.0000     4.0000     9.0000    22.0000    26.0000    10.0000     5.0000    20.0000     3.0007     1.0000    -0.4990    20.7738    41.5367     2.9186    14.4503    14.4503     1.7038     0.0000     1.0000     0.0376     0.000
    236     1.3333     1.3333     1.4250     0.0000     30.000   1526.000 226126.000     32.772    41.5367    61.8788   -67.2188    -1.9995     0.0009    26.0000     4.0000     9.0000    22.0000    26.0000    10.0000     5.0000    20.0000     3.0007     1.0000    -0.4992    20.7738    41.5367     2.9235    14.4503    14.4503     1.7039     0.0000     1.0000     0.0376     0.000
    237     1.3333     1.3333     1.4300     0.0000     30.000   1555.000 225954.000     32.747    41.5367    61.9149   -67.3438    -1.9995     0.0009    26.0000     4.0000     9.0000    22.0000    26.0000    10.0000     5.0000    20.0000     3.0007     1.0000    -0.4992    20.7738    41.5367     2.9283    14.4503    14.4503     1.7039     0.0000     1.0000     0.0375     0.000
    238     1.3333     1.3333     1.4350     0.0000     30.000   1584.000 225829.000     32.729    41.5367    61.9516   -67.4706    -1.9995     0.0009    26.0000     4.0000     9.0000    22.0000    26.0000    10.0000     5.0000    20.0000     3.0006     1.0000    -0.4991    20.7738    41.5367     2.9331    14.4503    14.4503     1.7038     0.0000     1.0000     0.0375     0.000
    239     1.3333     1.3333     1.4399     0.0000     30.000   1608.000 225857.000     32.733    41.5367    61.9872   -67.5971    -1.9995     0.0009    26.0000     4.0000     9.0000    22.0000    26.0000    10.0000     5.0000    20.0000     3.0007     1.0000    -0.4991    20.7738    41.5367     2.9380    14.4503    14.4503     1.7038     0.0000     1.0000     0.0376     0.000
    240     1.3333     1.3333     1.4450     0.0000     30.000   1707.000 225738.000     32.716    41.5367    62.0227   -67.7265    -1.9995     0.0009    26.0000     4.0000     9.0000    22.0000    26.0000    10.0000     5.0000    20.0000     3.0006     1.0000    -0.4989    20.7737    41.5367     2.9429    14.4503    14.4503     1.7038     0.0000     1.0000     0.0375     0.000
    241     1.3333     1.3333     1.4500     0.0000     30.000   1679.000 225568.000     32.691    41.5367    62.0571   -67.8556    -1.9995     0.0009    26.0000     4.0000     9.0000    22.0000    26.0000    10.0000     5.0000    20.0000     3.0006     1.0000    -0.4990    20.7737    41.5367     2.9479    14.4503    14.4503     1.7038     0.0000     1.0000     0.0375     0.000
    242     1.3333     1.3333     1.4550     0.0000     30.000   1777.000 225477.000     32.678    41.5367    62.0912   -67.9855    -1.9995     0.0009    26.0000     4.0000     9.0000    22.0000    26.0000    10.0000     5.0000    20.0000     3.0007     1.0000    -0.4991    20.7737    41.5367     2.9528    14.4503    14.4503     1.7038     0.0000     1.0000     0.0375     0.000
    243     1.3333     1.3334     1.4600     0.0000     30.000   1872.000 225956.000     32.747    41.5367    62.1243   -68.1141    -1.9995     0.0009    26.0000     4.0000     9.0000    22.0000    26.0000    10.0000     5.0000    20.0000     3.0007     1.0000    -0.4991    20.7737    41.5367     2.9578    14.4503    14.4503     1.7037     0.0000     1.0000     0.0375     0.000
    244     1.3333     1.3333     1.4650     0.0000     30.000   2235.000 225502.000     32.681    41.5367    62.1582   -68.2436    -1.9995     0.0009    26.0000     4.0000     9.0000    22.0000    26.0000    10.0000     5.0000    20.0000     3.0007     1.0000    -0.4991    20.7737    41.5367     2.9627    14.4503    14.4503     1.7037     0.0000     1.0000     0.0378     0.000
    245     1.3333     1.3333     1.4701     0.0000     30.000   3279.000 225894.000     32.738    41.5367    62.1910   -68.3752    -1.9995     0.0009    26.0000     4.0000     9.0000    22.0000    26.0000    10.0000     5.0000    20.0000     3.0007     1.0000    -0.4990    20.7737    41.5367     2.9677    14.4503    14.4503     1.7036     0.0000     1.0000     0.0378     0.000
    246     1.3333     1.3333     1.4751     0.0000     30.000   5432.000 225756.000     32.718    41.5367    62.2232   -68.5067    -1.9995     0.0009    26.0000     4.0000     9.0000    22.0000    26.0000    10.0000     5.0000    20.0000     3.0007     1.0000    -0.4992    20.7737    41.5367     2.9727    14.4503    14.4503     1.7036     0.0000     1.0000     0.0376     0.000
    247     1.3333     1.3334     1.4801     0.0000     30.000  10258.000 225974.000     32.750    41.5367    62.2545   -68.6367    -1.9995     0.0009    26.0000     4.0000     9.0000    22.0000    26.0000    10.0000     5.0000    20.0000     3.0007     1.0000    -0.4992    20.7737    41.5367     2.9777    14.4503    14.4503     1.7036     0.0000     1.0000     0.0376     0.000
    248     1.3333     1.3334     1.4851     0.0000     30.000  18175.000 225794.000     32.724    41.5367    62.2854   -68.7670    -1.9995     0.0009    26.0000     4.0000     9.0000    22.0000    26.0000    10.0000     5.0000    20.0000     3.0006     1.0000    -0.4989    20.7737    41.5367     2.9826    14.4503    14.4503     1.7036     0.0000     1.0000     0.0376     0.000
    249     1.3333     1.3333     1.4901     0.0000     30.000  30142.000 226175.000     32.779    41.5367    62.3171   -68.8986    -1.9995     0.0009    26.0000     4.0000     9.0000    22.0000    26.0000    10.0000     5.0000    20.0000     3.0007     1.0000    -0.4992    20.7737    41.5367     2.9876    14.4503    14.4503     1.7036     0.0000     1.0000     0.0375     0.000
    250     1.3333     1.3333     1.4950     0.0000     30.000  44067.000 225386.000     32.665    41.5367    62.3469   -69.0272    -1.9995     0.0009    26.0000     4.0000     9.0000    22.0000    26.0000    10.0000     5.0000    20.0000     3.0006     1.0000    -0.4990    20.7737    41.5367     2.9925    14.4503    14.4503     1.7037     0.0000     1.0000     0.0375     0.000
    251     1.3333     1.3333     1.5000     0.0000     30.000  59707.000 226916.000     32.886    41.5367    62.3772   -69.1590    -1.9995     0.0009    26.0000     4.0000     9.0000    22.0000    26.0000    10.0000     5.0000    20.0000     3.0006     1.0000    -0.4992    20.7737    41.5367     2.9975    14.4503    14.4503     1.7036     0.0000     1.0000     0.0377     0.000
    252     1.3333     1.3333     1.5049     0.0000     30.000  74671.000 225810.000     32.726    41.5367    62.4066   -69.2892    -1.9995     0.0009    26.0000     4.0000     9.0000    22.0000    26.0000    10.0000     5.0000    20.0000     3.0007     1.0000    -0.4992    20.7737    41.5367     3.0025    14.4503    14.4503     1.7036     0.0000     1.0000     0.0377     0.000
    253     1.3333     1.3333     1.5099     0.0000     30.000  85775.000 226070.000     32.764    41.5367    62.4349   -69.4217    -1.9995     0.0009    26.0000     4.0000     9.0000    22.0000    26.0000    10.0000     5.0000    20.0000     3.0007     1.0000    -0.4990    20.7737    41.5367     3.0075    14.4503    14.4503     1.7036     0.0000     1.0000     0.0375     0.000
    254     1.3333     1.3333     1.5150     0.0000     30.000  92332.000 224526.000     32.540    41.5367    62.4638   -69.5562    -1.9995     0.0009    26.0000     4.0000     9.0000    22.0000    26.0000    10.0000     5.0000    20.0000     3.0007     1.0000    -0.4992    20.7737    41.5367     3.0126    14.4503    14.4503     1.7036     0.0000     1.0000     0.0375     0.000
    255     1.3333     1.3333     1.5200     0.0000     30.000  92232.000 226140.000     32.774    41.5367    62.4931   -69.6879    -1.9995     0.0009    26.0000     4.0000     9.0000    22.0000    26.0000    10.0000     5.0000    20.0000     3.0006     1.0000    -0.4990    20.7737    41.5367     3.0176    14.4503    14.4503     1.7036     0.0000     1.0000     0.0375     0.000
    256     1.3333     1.3333     1.5249     0.0000     30.000  87223.000 225978.000     32.750    41.5367    62.5185   -69.8199    -1.9995     0.0009    26.0000     4.0000     9.0000    22.0000    26.0000    10.0000     5.0000    20.0000     3.0007     1.0000    -0.4993    20.7737    41.5367     3.0226    14.4503    14.4503     1.7038     0.0000     1.0000     0.0375     0.000
    257     1.3333     1.3333     1.5300     0.0000     30.000  78197.000 226306.000     32.798    41.5367    62.5455   -69.9564    -1.9995     0.0009    26.0000     4.0000     9.0000    22.0000    26.0000    10.0000     5.0000    20.0000     3.0006     1.0000    -0.4992    20.7737    41.5367     3.0277    14.4503    14.4503     1.7037     0.0000     1.0000     0.0375     0.000
    258     1.3333     1.3333     1.5351     0.0000     30.000  66253.000 226693.000     32.854    41.5367    62.5739   -70.0925    -1.9995     0.0009    26.0000     4.0000     9.0000    22.0000    26.0000    10.0000     5.0000    20.0000     3.0007     1.0000    -0.4990    20.7737    41.5367     3.0329    14.4503    14.4503     1.7037     0.0000     1.0000     0.0377     0.000
    259     1.3333     1.3333     1.5401     0.0000     30.000  53500.000 226096.000     32.768    41.5367    62.5980   -70.2267    -1.9995     0.0009    26.0000     4.0000     9.0000    22.0000    26.0000    10.0000     5.0000    20.0000     3.0007     1.0000    -0.4992    20.7737    41.5367     3.0379    14.4503    14.4503     1.7036     0.0000     1.0000     0.0377     0.000
    260     1.3333     1.3333     1.5451     0.0000     30.000  38939.000 225128.000     32.627    41.5367    62.6238   -70.3627    -1.9995     0.0009    26.0000     4.0000     9.0000    22.0000    26.0000    10.0000     5.0000    20.0000     3.0007     1.0000    -0.4990    20.7737    41.5367     3.0430    14.4503    14.4503     1.7037     0.0000     1.0000     0.0374     0.000
    261     1.3333     1.3333     1.5500     0.0000     30.000  26372.000 225951.000     32.747    41.5367    62.6486   -70.4948    -1.9995     0.0009    26.0000     4.0000     9.0000    22.0000    26.0000    10.0000     5.0000    20.0000     3.0006     1.0000    -0.4991    20.7737    41.5367     3.0480    14.4503    14.4503     1.7036     0.0000     1.0000     0.0374     0.000
    262     1.3333     1.3333     1.5550     0.0000     30.000  16144.000 226399.000     32.811    41.5367    62.6737   -70.6304    -1.9995     0.0009    26.0000     4.0000     9.0000    22.0000    26.0000    10.0000     5.0000    20.0000     3.0007     1.0000    -0.4989    20.7737    41.5367     3.0531    14.4503    14.4503     1.7036     0.0000     1.0000     0.0375     0.000
    263     1.3333     1.3333     1.5600     0.0000     30.000   8931.000 226347.000     32.804    41.5367    62.6970   -70.7656    -1.9995     0.0009    26.0000     4.0000     9.0000    22.0000    26.0000    10.0000     5.0000    20.0000     3.0007     1.0000    -0.4992    20.7737    41.5367     3.0582    14.4503    14.4503     1.7036     0.0000     1.0000     0.0375     0.000
    264     1.3333     1.3333     1.5650     0.0000     30.000   4955.000 225602.000     32.696    41.5367    62.7205   -70.9011    -1.9995     0.0009    26.0000     4.0000     9.0000    22.0000    26.0000    10.0000     5.0000    20.0000     3.0007     1.0000    -0.4992    20.7737    41.5367     3.0633    14.4503    14.4503     1.7035     0.0000     1.0000     0.0374     0.000
    265     1.3333     1.3333     1.5700     0.0000     30.000   3051.000 226100.000     32.768    41.5367    62.7442   -71.0369    -1.9995     0.0009    26.0000     4.0000     9.0000    22.0000    26.0000    10.0000     5.0000    20.0000     3.0007     1.0000    -0.4992    20.7737    41.5367     3.0684    14.4503    14.4503     1.7036     0.0000     1.0000     0.0374     0.000
    266     1.3333     1.3334     1.5751     0.0000     30.000   2123.000 226017.000     32.756    41.5367    62.7663   -71.1758    -1.9995     0.0009    26.0000     4.0000     9.0000    22.0000    26.0000    10.0000     5.0000    20.0000     3.0006     1.0000    -0.4993    20.7737    41.5367     3.0736    14.4503    14.4503     1.7036     0.0000     1.0000     0.0374     0.000
    267     1.3333     1.3333     1.5800     0.0000     30.000   1795.000 226548.000     32.833    41.5367    62.7889   -71.3113    -1.9995     0.0009    26.0000     4.0000     9.0000    22.0000    26.0000    10.0000     5.0000    20.0000     3.0007     1.0000    -0.4989    20.7737    41.5367     3.0787    14.4503    14.4503     1.7036     0.0000     1.0000     0.0374     0.000
    268     1.3333     1.3333     1.5850     0.0000     30.000   1665.000 225987.000     32.752    41.5367    62.8105   -71.4478    -1.9995     0.0009    26.0000     4.0000     9.0000    22.0000    26.0000    10.0000     5.0000    20.0000     3.0007     1.0000    -0.4992    20.7737    41.5367     3.0838    14.4503    14.4503     1.7036     0.0000     1.0000     0.0374     0.000
    269     1.3333     1.3333     1.5900     0.0000     30.000   1648.000 225426.000     32.670    41.5367    62.8324   -71.5860    -1.9995     0.0009    26.0000     4.0000     9.0000    22.0000    26.0000    10.0000     5.0000    20.0000     3.0007     1.0000    -0.4992    20.7737    41.5367     3.0890    14.4503    14.4503     1.7036     0.0000     1.0000     0.0375     0.000
    270     1.3333     1.3333     1.5950     0.0000     30.000   1471.000 225891.000     32.738    41.5367    62.8532   -71.7235    -1.9995     0.0009    26.0000     4.0000     9.0000    22.0000    26.0000    10.0000     5.0000    20.0000     3.0007     1.0000    -0.4989    20.7737    41.5367     3.0941    14.4503    14.4503     1.7036     0.0000     1.0000     0.0375     0.000
    271     1.3333     1.3333     1.6001     0.0000     30.000   1572.000 226399.000     32.811    41.5367    62.8738   -71.8634    -1.9995     0.0009    26.0000     4.0000     9.0000    22.0000    26.0000    10.0000     5.0000    20.0000     3.0007     1.0000    -0.4992    20.7737    41.5367     3.0993    14.4503    14.4503     1.7035     0.0000     1.0000     0.0374     0.000
    272     1.3333     1.3333     1.6051     0.0000     30.000   1516.000 226659.000     32.849    41.5367    62.8936   -72.0014    -1.9995     0.0009    26.0000     4.0000     9.0000    22.0000    26.0000    10.0000     5.0000    20.0000     3.0007     1.0000    -0.4990    20.7736    41.5367     3.1045    14.4503    14.4503     1.7035     0.0000     1.0000     0.0374     0.000
    273     1.3333     1.3333     1.6101     0.0000     30.000   1526.000 225910.000     32.741    41.5367    62.9132   -72.1407    -1.9995     0.0009    26.0000     4.0000     9.0000    22.0000    26.0000    10.0000     5.0000    20.0000     3.0007     1.0000    -0.4992    20.7736    41.5367     3.1097    14.4503    14.4503     1.7034     0.0000     1.0000     0.0374     0.000
    274     1.3333     1.3333     1.6150     0.0000     30.000   1453.000 226102.000     32.768    41.5367    62.9322   -72.2767    -1.9995     0.0009    26.0000     4.0000     9.0000    22.0000    26.0000    10.0000     5.0000    20.0000     3.0007     1.0000    -0.4992    20.7736    41.5367     3.1147    14.4503    14.4503     1.7035     0.0000     1.0000     0.0374     0.000
    275     1.3333     1.3333     1.6199     0.0000     30.000   1382.000 226643.000     32.847    41.5367    62.9498   -72.4160    -1.9995     0.0009    26.0000     4.0000     9.0000    22.0000    26.0000    10.0000     5.0000    20.0000     3.0007     1.0000    -0.4991    20.7736    41.5367     3.1199    14.4503    14.4503     1.7035     0.0000     1.0000     0.0374     0.000
    276     1.3333     1.3333     1.6249     0.0000     30.000   1461.000 226255.000     32.791    41.5367    62.9681   -72.5555    -1.9995     0.0009    26.0000     4.0000     9.0000    22.0000    26.0000    10.0000     5.0000    20.0000     3.0007     1.0000    -0.4992    20.7736    41.5367     3.1251    14.4503    14.4503     1.7035     0.0000     1.0000     0.0374     0.000
    277     1.3333     1.3333     1.6300     0.0000     30.000   1430.000 225552.000     32.689    41.5367    62.9854   -72.6968    -1.9995     0.0009    26.0000     4.0000     9.0000    22.0000    26.0000    10.0000     5.0000    20.0000     3.0006     1.0000    -0.4989    20.7736    41.5367     3.1303    14.4503    14.4503     1.7034     0.0000     1.0000     0.0374     0.000
    278     1.3333     1.3333     1.6350     0.0000     30.000   1406.000 225728.000     32.714    41.5367    63.0034   -72.8375    -1.9995     0.0009    26.0000     4.0000     9.0000    22.0000    26.0000    10.0000     5.0000    20.0000     3.0007     1.0000    -0.4993    20.7736    41.5367     3.1356    14.4503    14.4503     1.7034     0.0000     1.0000     0.0375     0.000
    279     1.3333     1.3333     1.6399     0.0000     30.000   1409.000 226767.000     32.865    41.5367    63.0195   -72.9771    -1.9995     0.0009    26.0000     4.0000     9.0000    22.0000    26.0000    10.0000     5.0000    20.0000     3.0007     1.0000    -0.4994    20.7736    41.5367     3.1407    14.4503    14.4503     1.7033     0.0000     1.0000     0.0375     0.000
    280     1.3333     1.3333     1.6450     0.0000     30.000   1369.000 226200.000     32.783    41.5367    63.0359   -73.1185    -1.9995     0.0009    26.0000     4.0000     9.0000    22.0000    26.0000    10.0000     5.0000    20.0000     3.0007     1.0000    -0.4991    20.7736    41.5367     3.1460    14.4503    14.4503     1.7034     0.0000     1.0000     0.0375     0.000
    281     1.3333     1.3333     1.6500     0.0000     30.000   1389.000 226373.000     32.808    41.5367    63.0522   -73.2606    -1.9995     0.0009    26.0000     4.0000     9.0000    22.0000    26.0000    10.0000     5.0000    20.0000     3.0007     1.0000    -0.4992    20.7736    41.5367     3.1512    14.4503    14.4503     1.7033     0.0000     1.0000     0.0375     0.000
    282     1.3333     1.3333     1.6551     0.0000     30.000   1349.000 226485.000     32.824    41.5367    63.0672   -73.4044    -1.9995     0.0009    26.0000     4.0000     9.0000    22.0000    26.0000    10.0000     5.0000    20.0000     3.0006     1.0000    -0.4991    20.7736    41.5367     3.1565    14.4503    14.4503     1.7034     0.0000     1.0000     0.0375     0.000
    283     1.3333     1.3333     1.6601     0.0000     30.000   1417.000 226942.000     32.890    41.5367    63.0825   -73.5471    -1.9995     0.0009    26.0000     4.0000     9.0000    22.0000    26.0000    10.0000     5.0000    20.0000     3.0007     1.0000    -0.4992    20.7736    41.5367     3.1618    14.4503    14.4503     1.7034     0.0000     1.0000     0.0376     0.000
    284     1.3333     1.3333     1.6650     0.0000     30.000   1365.000 226504.000     32.827    41.5367    63.0967   -73.6885    -1.9995     0.0009    26.0000     4.0000     9.0000    22.0000    26.0000    10.0000     5.0000    20.0000     3.0007     1.0000    -0.4992    20.7736    41.5367     3.1670    14.4503    14.4503     1.7035     0.0000     1.0000     0.0376     0.000
    285     1.3333     1.3333     1.6701     0.0000     30.000   1334.000 226144.000     32.774    41.5367    63.1109   -73.8316    -1.9995     0.0009    26.0000     4.0000     9.0000    22.0000    26.0000    10.0000     5.0000    20.0000     3.0006     1.0000    -0.4992    20.7736    41.5367     3.1723    14.4503    14.4503     1.7034     0.0000     1.0000     0.0373     0.000
    286     1.3333     1.3333     1.6749     0.0000     30.000   1375.000 225596.000     32.695    41.5367    63.1240   -73.9699    -1.9995     0.0009    26.0000     4.0000     9.0000    22.0000    26.0000    10.0000     5.0000    20.0000     3.0007     1.0000    -0.4992    20.7736    41.5367     3.1774    14.4503    14.4503     1.7034     0.0000     1.0000     0.0373     0.000
    287     1.3333     1.3333     1.6800     0.0000     30.000   1432.000 226617.000     32.843    41.5367    63.1375   -74.1149    -1.9995     0.0009    26.0000     4.0000     9.0000    22.0000    26.0000    10.0000     5.0000    20.0000     3.0006     1.0000    -0.4990    20.7736    41.5367     3.1827    14.4503    14.4503     1.7034     0.0000     1.0000     0.0376     0.000
    288     1.3333     1.3333     1.6849     0.0000     30.000   1376.000 226271.000     32.793    41.5367    63.1498   -74.2574    -1.9995     0.0009    26.0000     4.0000     9.0000    22.0000    26.0000    10.0000     5.0000    20.0000     3.0007     1.0000    -0.4992    20.7736    41.5367     3.1880    14.4503    14.4503     1.7034     0.0000     1.0000     0.0376     0.000
    289     1.3333     1.3333     1.6900     0.0000     30.000   1373.000 226590.000     32.839    41.5367    63.1627   -74.4033    -1.9995     0.0009    26.0000     4.0000     9.0000    22.0000    26.0000    10.0000     5.0000    20.0000     3.0007     1.0000    -0.4992    20.7736    41.5367     3.1933    14.4503    14.4503     1.7034     0.0000     1.0000     0.0374     0.000
    290     1.3333     1.3333     1.6950     0.0000     30.000   1334.000 226345.000     32.804    41.5367    63.1741   -74.5484    -1.9995     0.0009    26.0000     4.0000     9.0000    22.0000    26.0000    10.0000     5.0000    20.0000     3.0007     1.0000    -0.4991    20.7736    41.5367     3.1987    14.4503    14.4503     1.7034     0.0000     1.0000     0.0375     0.000
    291     1.3333     1.3333     1.7000     0.0003     30.000   1418.000 225746.000     32.717    41.5367    63.1853   -74.6932    -1.9995     0.0009    26.0000     4.0000     9.0000    22.0000    26.0000    10.0000     5.0000    20.0000     3.0007     1.0000    -0.4990    20.7736    41.5371     3.2040    14.4503    14.4500     1.7033     0.0000     1.0000     0.0375     0.000
    292     1.3333     1.3333     1.7051     0.0001     30.000   1305.000 226291.000     32.796    41.5367    63.1967   -74.8395    -1.9995     0.0009    26.0000     4.0000     9.0000    22.0000    26.0000    10.0000     5.0000    20.0000     3.0007     1.0000    -0.4990    20.7736    41.5369     3.2093    14.4503    14.4502     1.7033     0.0000     1.0000     0.0374     0.000
    293     1.3333     1.3333     1.7101     0.0001     30.000   1387.000 226952.000     32.892    41.5367    63.2074   -74.9854    -1.9995     0.0009    26.0000     4.0000     9.0000    22.0000    26.0000    10.0000     5.0000    20.0000     3.0007     1.0000    -0.4992    20.7736    41.5368     3.2147    14.4503    14.4502     1.7033     0.0000     1.0000     0.0374     0.000
    294     1.3333     1.3333     1.7151     0.0001     30.000   1350.000 226740.000     32.861    41.5367    63.2174   -75.1325    -1.9995     0.0009    26.0000     4.0000     9.0000    22.0000    26.0000    10.0000     5.0000    20.0000     3.0007     1.0000    -0.4992    20.7736    41.5368     3.2200    14.4503    14.4502     1.7034     0.0000     1.0000     0.0373     0.000
    295     1.3333     1.3333     1.7201     0.0001     30.000   1346.000 226424.000     32.815    41.5367    63.2270   -75.2785    -1.9995     0.0009    26.0000     4.0000     9.0000    22.0000    26.0000    10.0000     5.0000    20.0000     3.0006     1.0000    -0.4991    20.7736    41.5368     3.2254    14.4503    14.4502     1.7033     0.0000     1.0000     0.0373     0.000
    296     1.3333     1.3333     1.7251     0.0001     30.000   1381.000 226391.000     32.810    41.5367    63.2359   -75.4234    -1.9995     0.0009    26.0000     4.0000     9.0000    22.0000    26.0000    10.0000     5.0000    20.0000     3.0006     1.0000    -0.4992    20.7735    41.5368     3.2307    14.4503    14.4502     1.7034     0.0000     1.0000     0.0373     0.000
    297     1.3333     1.3333     1.7300     0.0001     30.000   1360.000 225797.000     32.724    41.5367    63.2446   -75.5693    -1.9995     0.0009    26.0000     4.0000     9.0000    22.0000    26.0000    10.0000     5.0000    20.0000     3.0007     1.0000    -0.4989    20.7735    41.5368     3.2360    14.4503    14.4502     1.7034     0.0000     1.0000     0.0373     0.000
    298     1.3333     1.3333     1.7350     0.0001     30.000   1336.000 226372.000     32.808    41.5367    63.2533   -75.7135    -1.9995     0.0009    26.0000     4.0000     9.0000    22.0000    26.0000    10.0000     5.0000    20.0000     3.0006     1.0000    -0.4989    20.7735    41.5368     3.2412    14.4503    14.4502     1.7034     0.0000     1.0000     0.0375     0.000
    299     1.3333     1.3333     1.7400     0.0001     30.000   1390.000 226142.000     32.774    41.5367    63.2609   -75.8609    -1.9995     0.0009    26.0000     4.0000     9.0000    22.0000    26.0000    10.0000     5.0000    20.0000     3.0006     1.0000    -0.4992    20.7735    41.5368     3.2466    14.4503    14.4502     1.7033     0.0000     1.0000     0.0375     0.000
    300     1.3333     1.3333     1.7450     0.0000     30.000   1317.000 227126.000     32.917    41.5367    63.2686   -76.0097    -1.9995     0.0009    26.0000     4.0000     9.0000    22.0000    26.0000    10.0000     5.0000    20.0000     3.0007     1.0000    -0.4989    20.7735    41.5368     3.2520    14.4503    14.4502     1.7033     0.0000     1.0000     0.0375     0.000
    301     1.3333     1.3333     1.7499     0.0000     30.000   1335.000 226228.000     32.787    41.5367    63.2753   -76.1556    -1.9995     0.0009    26.0000     4.0000     9.0000    22.0000    26.0000    10.0000     5.0000    20.0000     3.0006     1.0000    -0.4991    20.7735    41.5368     3.2573    14.4503    14.4502     1.7032     0.0000     1.0000     0.0373     0.000
# Sum of Counts = 1252953
# Center of Mass = 1.365858+/-0.001752
# Full Width Half-Maximum = 0.671928+/-0.000835
# 7:23:31 AM  9/20/2023   scan completed.
