# scan = 243
# date = 9/22/2023
# time = 1:26:11 PM
# proposal = 30730
# experiment = Low Temperature Magnetic Structure of CeCl3
# experiment_number = 998
# command = scan n 1200 preset time 30 
# builtin_command = scan n 1200 preset time 30
# users = Adam Aczel, David Mandrus, Matthew Cothrine, Stephen Nagler
# local_contact = A. Aczel
# scan_title = CeBr3, count on (2/3 2/3 1/2) while cooling
# monochromator = PG002
# analyzer = Pg002
# sense = +-+
# collimation = 40-40-40-80
# samplename = CeBr3
# sampletype = crystal
# samplemosaic = 30.000000
# latticeconstants = 7.909186,7.909186,4.443408,90.000000,90.000000,120.000000
# ubmatrix = 0.074071,0.081712,-0.176882,-0.098151,-0.100695,-0.138977,-0.078704,0.067068,0.006846
# mode = 0
# plane_normal = 0.052336,-0.017428,0.998477
# ubconf = UB22Sep2023_12433PM.ini
# preset_type = normal 
# preset_channel = time
# preset_value = 30.000000
# def_x = Pt.
# def_y = detector
# col_headers = 
#   Pt.       time   detector    monitor        mcu         m2         s1         s2        sgl        sgu   slitb_bt   slitb_lf   slitb_rt   slitb_tp   slita_bt   slita_lf   slita_rt   slita_tp        stl        stu         sz         a1         a2          q          h          k          l         ei         ef          e        vti     sample       temp dr_tsample    dr_temp
      1     30.000   1461.000 221776.000     32.141    41.5367    71.6846   -27.9017    -2.9996    -0.9999    26.0000     4.0000     9.0000    22.0000    26.0000    10.0000     5.0000    20.0000     3.0030     1.0000    -0.4970    20.7755    41.5369     1.2733     0.6665     0.6665     0.5000    14.4503    14.4502     0.0001     1.7094     0.0000     1.0000     0.1981     0.200
      2     30.000   1377.000 222482.000     32.244    41.5367    71.6846   -27.9016    -2.9996    -0.9999    26.0000     4.0000     9.0000    22.0000    26.0000    10.0000     5.0000    20.0000     3.0030     1.0000    -0.4970    20.7754    41.5369     1.2733     0.6665     0.6665     0.5000    14.4503    14.4502     0.0001     1.7092     0.0000     1.0000     0.1981     0.000
      3     30.000   1428.000 222783.000     32.287    41.5367    71.6846   -27.9015    -2.9996    -0.9999    26.0000     4.0000     9.0000    22.0000    26.0000    10.0000     5.0000    20.0000     3.0030     1.0000    -0.4970    20.7754    41.5369     1.2733     0.6665     0.6665     0.5000    14.4503    14.4502     0.0001     1.7085     0.0000     1.0000     0.1981     0.000
      4     30.000   1419.000 220815.000     32.002    41.5367    71.6846   -27.9015    -2.9996    -0.9999    26.0000     4.0000     9.0000    22.0000    26.0000    10.0000     5.0000    20.0000     3.0030     1.0000    -0.4970    20.7754    41.5369     1.2733     0.6665     0.6665     0.5000    14.4503    14.4502     0.0001     1.7087     0.0000     1.0000     0.1462     0.000
      5     30.000   1402.000 221225.000     32.062    41.5367    71.6846   -27.9015    -2.9996    -0.9999    26.0000     4.0000     9.0000    22.0000    26.0000    10.0000     5.0000    20.0000     3.0030     1.0000    -0.4970    20.7753    41.5369     1.2733     0.6665     0.6665     0.5000    14.4503    14.4502     0.0001     1.7081     0.0000     1.0000     0.1462     0.000
      6     30.000   1448.000 222403.000     32.232    41.5367    71.6846   -27.9015    -2.9996    -0.9999    26.0000     4.0000     9.0000    22.0000    26.0000    10.0000     5.0000    20.0000     3.0030     1.0000    -0.4970    20.7753    41.5369     1.2733     0.6665     0.6665     0.5000    14.4503    14.4502     0.0001     1.7087     0.0000     1.0000     0.1212     0.000
      7     30.000   1402.000 221414.000     32.089    41.5367    71.6846   -27.9015    -2.9996    -0.9999    26.0000     4.0000     9.0000    22.0000    26.0000    10.0000     5.0000    20.0000     3.0030     1.0000    -0.4970    20.7753    41.5369     1.2733     0.6665     0.6665     0.5000    14.4503    14.4502     0.0001     1.7088     0.0000     1.0000     0.1212     0.000
      8     30.000   1473.000 222825.000     32.293    41.5367    71.6846   -27.9015    -2.9996    -0.9999    26.0000     4.0000     9.0000    22.0000    26.0000    10.0000     5.0000    20.0000     3.0030     1.0000    -0.4970    20.7753    41.5369     1.2733     0.6665     0.6665     0.5000    14.4503    14.4502     0.0001     1.7090     0.0000     1.0000     0.1019     0.000
      9     30.000   1429.000 221817.000     32.147    41.5367    71.6846   -27.9015    -2.9996    -0.9999    26.0000     4.0000     9.0000    22.0000    26.0000    10.0000     5.0000    20.0000     3.0030     1.0000    -0.4970    20.7753    41.5369     1.2733     0.6665     0.6665     0.5000    14.4503    14.4502     0.0001     1.7081     0.0000     1.0000     0.1019     0.000
     10     30.000   1449.000 222727.000     32.279    41.5367    71.6846   -27.9015    -2.9996    -0.9999    26.0000     4.0000     9.0000    22.0000    26.0000    10.0000     5.0000    20.0000     3.0030     1.0000    -0.4970    20.7753    41.5369     1.2733     0.6665     0.6665     0.5000    14.4503    14.4502     0.0001     1.7083     0.0000     1.0000     0.0859     0.000
     11     30.000   1464.000 222648.000     32.268    41.5367    71.6846   -27.9015    -2.9996    -0.9999    26.0000     4.0000     9.0000    22.0000    26.0000    10.0000     5.0000    20.0000     3.0030     1.0000    -0.4970    20.7753    41.5369     1.2733     0.6665     0.6665     0.5000    14.4503    14.4502     0.0001     1.7072     0.0000     1.0000     0.0859     0.000
     12     30.000   1486.000 221763.000     32.140    41.5367    71.6846   -27.9015    -2.9996    -0.9999    26.0000     4.0000     9.0000    22.0000    26.0000    10.0000     5.0000    20.0000     3.0030     1.0000    -0.4970    20.7753    41.5369     1.2733     0.6665     0.6665     0.5000    14.4503    14.4502     0.0001     1.7080     0.0000     1.0000     0.0859     0.000
     13     30.000   1477.000 222551.000     32.254    41.5367    71.6846   -27.9015    -2.9996    -0.9999    26.0000     4.0000     9.0000    22.0000    26.0000    10.0000     5.0000    20.0000     3.0030     1.0000    -0.4970    20.7753    41.5369     1.2733     0.6665     0.6665     0.5000    14.4503    14.4502     0.0001     1.7076     0.0000     1.0000     0.0738     0.000
     14     30.000   1516.000 222037.000     32.179    41.5367    71.6846   -27.9015    -2.9996    -0.9999    26.0000     4.0000     9.0000    22.0000    26.0000    10.0000     5.0000    20.0000     3.0030     1.0000    -0.4970    20.7753    41.5369     1.2733     0.6665     0.6665     0.5000    14.4503    14.4502     0.0001     1.7065     0.0000     1.0000     0.0738     0.000
     15     30.000   1569.000 221500.000     32.101    41.5367    71.6846   -27.9015    -2.9996    -0.9999    26.0000     4.0000     9.0000    22.0000    26.0000    10.0000     5.0000    20.0000     3.0030     1.0000    -0.4970    20.7753    41.5369     1.2733     0.6665     0.6665     0.5000    14.4503    14.4502     0.0001     1.7072     0.0000     1.0000     0.0662     0.000
     16     30.000   1582.000 222370.000     32.228    41.5367    71.6846   -27.9015    -2.9996    -0.9999    26.0000     4.0000     9.0000    22.0000    26.0000    10.0000     5.0000    20.0000     3.0030     1.0000    -0.4970    20.7753    41.5369     1.2733     0.6665     0.6665     0.5000    14.4503    14.4502     0.0001     1.7075     0.0000     1.0000     0.0662     0.000
     17     30.000   1514.000 221696.000     32.130    41.5367    71.6846   -27.9014    -2.9996    -0.9999    26.0000     4.0000     9.0000    22.0000    26.0000    10.0000     5.0000    20.0000     3.0030     1.0000    -0.4970    20.7753    41.5369     1.2733     0.6665     0.6665     0.5000    14.4503    14.4502     0.0001     1.7076     0.0000     1.0000     0.0602     0.000
     18     30.000   1647.000 222881.000     32.302    41.5367    71.6846   -27.9014    -2.9996    -0.9999    26.0000     4.0000     9.0000    22.0000    26.0000    10.0000     5.0000    20.0000     3.0030     1.0000    -0.4970    20.7753    41.5369     1.2733     0.6665     0.6665     0.5000    14.4503    14.4502     0.0001     1.7063     0.0000     1.0000     0.0602     0.000
     19     30.000   1651.000 221701.000     32.131    41.5367    71.6846   -27.9014    -2.9996    -0.9999    26.0000     4.0000     9.0000    22.0000    26.0000    10.0000     5.0000    20.0000     3.0030     1.0000    -0.4970    20.7753    41.5369     1.2733     0.6665     0.6665     0.5000    14.4503    14.4502     0.0001     1.7065     0.0000     1.0000     0.0602     0.000
     20     30.000   1639.000 221470.000     32.097    41.5367    71.6846   -27.9014    -2.9996    -0.9999    26.0000     4.0000     9.0000    22.0000    26.0000    10.0000     5.0000    20.0000     3.0030     1.0000    -0.4970    20.7753    41.5369     1.2733     0.6665     0.6665     0.5000    14.4503    14.4502     0.0001     1.7065     0.0000     1.0000     0.0552     0.000
     21     30.000   1753.000 221466.000     32.097    41.5367    71.6846   -27.9014    -2.9996    -0.9999    26.0000     4.0000     9.0000    22.0000    26.0000    10.0000     5.0000    20.0000     3.0030     1.0000    -0.4970    20.7753    41.5369     1.2733     0.6665     0.6665     0.5000    14.4503    14.4502     0.0001     1.7071     0.0000     1.0000     0.0552     0.000
     22     30.000   1701.000 221563.000     32.111    41.5367    71.6846   -27.9014    -2.9996    -0.9999    26.0000     4.0000     9.0000    22.0000    26.0000    10.0000     5.0000    20.0000     3.0030     1.0000    -0.4970    20.7753    41.5369     1.2733     0.6665     0.6665     0.5000    14.4503    14.4502     0.0001     1.7076     0.0000     1.0000     0.0503     0.000
     23     30.000   1759.000 221733.000     32.135    41.5367    71.6846   -27.9014    -2.9996    -0.9999    26.0000     4.0000     9.0000    22.0000    26.0000    10.0000     5.0000    20.0000     3.0030     1.0000    -0.4970    20.7753    41.5369     1.2733     0.6665     0.6665     0.5000    14.4503    14.4502     0.0001     1.7082     0.0000     1.0000     0.0503     0.000
     24     30.000   1856.000 222394.000     32.231    41.5367    71.6846   -27.9014    -2.9996    -0.9999    26.0000     4.0000     9.0000    22.0000    26.0000    10.0000     5.0000    20.0000     3.0030     1.0000    -0.4970    20.7753    41.5369     1.2733     0.6665     0.6665     0.5000    14.4503    14.4502     0.0001     1.7078     0.0000     1.0000     0.0469     0.000
     25     30.000   1970.000 221586.000     32.114    41.5367    71.6846   -27.9014    -2.9996    -0.9999    26.0000     4.0000     9.0000    22.0000    26.0000    10.0000     5.0000    20.0000     3.0030     1.0000    -0.4970    20.7753    41.5369     1.2733     0.6665     0.6665     0.5000    14.4503    14.4502     0.0001     1.7085     0.0000     1.0000     0.0469     0.000
     26     30.000   2347.000 221609.000     32.117    41.5367    71.6846   -27.9014    -2.9996    -0.9999    26.0000     4.0000     9.0000    22.0000    26.0000    10.0000     5.0000    20.0000     3.0030     1.0000    -0.4970    20.7753    41.5369     1.2733     0.6665     0.6665     0.5000    14.4503    14.4502     0.0001     1.7085     0.0000     1.0000     0.0469     0.000
     27     30.000   2676.000 223581.000     32.403    41.5367    71.6846   -27.9014    -2.9996    -0.9999    26.0000     4.0000     9.0000    22.0000    26.0000    10.0000     5.0000    20.0000     3.0030     1.0000    -0.4970    20.7752    41.5369     1.2733     0.6665     0.6665     0.5000    14.4503    14.4502     0.0001     1.7091     0.0000     1.0000     0.0446     0.000
     28     30.000   3431.000 221814.000     32.147    41.5367    71.6846   -27.9014    -2.9996    -0.9999    26.0000     4.0000     9.0000    22.0000    26.0000    10.0000     5.0000    20.0000     3.0030     1.0000    -0.4970    20.7752    41.5369     1.2733     0.6665     0.6665     0.5000    14.4503    14.4502     0.0001     1.7086     0.0000     1.0000     0.0446     0.000
     29     30.000   4722.000 221339.000     32.078    41.5367    71.6846   -27.9014    -2.9996    -0.9999    26.0000     4.0000     9.0000    22.0000    26.0000    10.0000     5.0000    20.0000     3.0030     1.0000    -0.4970    20.7752    41.5369     1.2733     0.6665     0.6665     0.5000    14.4503    14.4502     0.0001     1.7095     0.0000     1.0000     0.0430     0.000
     30     30.000   6361.000 222730.000     32.280    41.5367    71.6846   -27.9014    -2.9996    -0.9999    26.0000     4.0000     9.0000    22.0000    26.0000    10.0000     5.0000    20.0000     3.0030     1.0000    -0.4970    20.7752    41.5369     1.2733     0.6665     0.6665     0.5000    14.4503    14.4502     0.0001     1.7086     0.0000     1.0000     0.0430     0.000
     31     30.000   7767.000 222562.000     32.255    41.5367    71.6846   -27.9014    -2.9996    -0.9999    26.0000     4.0000     9.0000    22.0000    26.0000    10.0000     5.0000    20.0000     3.0030     1.0000    -0.4970    20.7752    41.5369     1.2733     0.6665     0.6665     0.5000    14.4503    14.4502     0.0001     1.7087     0.0000     1.0000     0.0417     0.000
     32     30.000   8884.000 221889.000     32.158    41.5367    71.6846   -27.9014    -2.9996    -0.9999    26.0000     4.0000     9.0000    22.0000    26.0000    10.0000     5.0000    20.0000     3.0030     1.0000    -0.4970    20.7752    41.5369     1.2733     0.6665     0.6665     0.5000    14.4503    14.4502     0.0001     1.7087     0.0000     1.0000     0.0417     0.000
     33     30.000   9630.000 221610.000     32.117    41.5367    71.6846   -27.9014    -2.9996    -0.9999    26.0000     4.0000     9.0000    22.0000    26.0000    10.0000     5.0000    20.0000     3.0030     1.0000    -0.4970    20.7752    41.5369     1.2733     0.6665     0.6665     0.5000    14.4503    14.4502     0.0001     1.7088     0.0000     1.0000     0.0417     0.000
     34     30.000  10819.000 222459.000     32.240    41.5367    71.6846   -27.9014    -2.9996    -0.9999    26.0000     4.0000     9.0000    22.0000    26.0000    10.0000     5.0000    20.0000     3.0030     1.0000    -0.4970    20.7752    41.5369     1.2733     0.6665     0.6665     0.5000    14.4503    14.4502     0.0001     1.7087     0.0000     1.0000     0.0407     0.000
     35     30.000  11536.000 221865.000     32.154    41.5367    71.6846   -27.9014    -2.9996    -0.9999    26.0000     4.0000     9.0000    22.0000    26.0000    10.0000     5.0000    20.0000     3.0030     1.0000    -0.4970    20.7752    41.5369     1.2733     0.6665     0.6665     0.5000    14.4503    14.4502     0.0001     1.7089     0.0000     1.0000     0.0407     0.000
     36     30.000  12511.000 222100.000     32.188    41.5367    71.6846   -27.9014    -2.9996    -0.9999    26.0000     4.0000     9.0000    22.0000    26.0000    10.0000     5.0000    20.0000     3.0030     1.0000    -0.4970    20.7752    41.5369     1.2733     0.6665     0.6665     0.5000    14.4503    14.4502     0.0001     1.7088     0.0000     1.0000     0.0400     0.000
     37     30.000  13030.000 222733.000     32.280    41.5367    71.6846   -27.9014    -2.9996    -0.9999    26.0000     4.0000     9.0000    22.0000    26.0000    10.0000     5.0000    20.0000     3.0030     1.0000    -0.4970    20.7752    41.5369     1.2733     0.6665     0.6665     0.5000    14.4503    14.4502     0.0001     1.7088     0.0000     1.0000     0.0400     0.000
     38     30.000  13714.000 222777.000     32.287    41.5367    71.6846   -27.9014    -2.9996    -0.9999    26.0000     4.0000     9.0000    22.0000    26.0000    10.0000     5.0000    20.0000     3.0030     1.0000    -0.4970    20.7752    41.5369     1.2733     0.6665     0.6665     0.5000    14.4503    14.4502     0.0001     1.7093     0.0000     1.0000     0.0394     0.000
     39     30.000  14033.000 221630.000     32.120    41.5367    71.6846   -27.9014    -2.9996    -0.9999    26.0000     4.0000     9.0000    22.0000    26.0000    10.0000     5.0000    20.0000     3.0030     1.0000    -0.4970    20.7752    41.5369     1.2733     0.6665     0.6665     0.5000    14.4503    14.4502     0.0001     1.7093     0.0000     1.0000     0.0394     0.000
     40     30.000  14721.000 222122.000     32.192    41.5367    71.6846   -27.9014    -2.9996    -0.9999    26.0000     4.0000     9.0000    22.0000    26.0000    10.0000     5.0000    20.0000     3.0030     1.0000    -0.4970    20.7753    41.5369     1.2733     0.6665     0.6665     0.5000    14.4503    14.4502     0.0001     1.7094     0.0000     1.0000     0.0394     0.000
     41     30.000  15351.000 222413.000     32.234    41.5367    71.6846   -27.9014    -2.9996    -0.9999    26.0000     4.0000     9.0000    22.0000    26.0000    10.0000     5.0000    20.0000     3.0030     1.0000    -0.4970    20.7752    41.5369     1.2733     0.6665     0.6665     0.5000    14.4503    14.4502     0.0001     1.7096     0.0000     1.0000     0.0389     0.000
     42     30.000  15554.000 221980.000     32.171    41.5367    71.6846   -27.9014    -2.9996    -0.9999    26.0000     4.0000     9.0000    22.0000    26.0000    10.0000     5.0000    20.0000     3.0030     1.0000    -0.4970    20.7752    41.5369     1.2733     0.6665     0.6665     0.5000    14.4503    14.4502     0.0001     1.7104     0.0000     1.0000     0.0389     0.000
     43     30.000  15812.000 222543.000     32.253    41.5367    71.6846   -27.9014    -2.9996    -0.9999    26.0000     4.0000     9.0000    22.0000    26.0000    10.0000     5.0000    20.0000     3.0030     1.0000    -0.4970    20.7752    41.5369     1.2733     0.6665     0.6665     0.5000    14.4503    14.4502     0.0001     1.7100     0.0000     1.0000     0.0386     0.000
     44     30.000  15850.000 222710.000     32.277    41.5367    71.6846   -27.9014    -2.9996    -0.9999    26.0000     4.0000     9.0000    22.0000    26.0000    10.0000     5.0000    20.0000     3.0030     1.0000    -0.4970    20.7753    41.5369     1.2733     0.6665     0.6665     0.5000    14.4503    14.4502     0.0001     1.7098     0.0000     1.0000     0.0386     0.000
     45     30.000  16549.000 223049.000     32.326    41.5367    71.6846   -27.9014    -2.9996    -0.9999    26.0000     4.0000     9.0000    22.0000    26.0000    10.0000     5.0000    20.0000     3.0030     1.0000    -0.4970    20.7752    41.5369     1.2733     0.6665     0.6665     0.5000    14.4503    14.4502     0.0001     1.7103     0.0000     1.0000     0.0382     0.000
     46     30.000  16654.000 221283.000     32.070    41.5367    71.6846   -27.9014    -2.9996    -0.9999    26.0000     4.0000     9.0000    22.0000    26.0000    10.0000     5.0000    20.0000     3.0030     1.0000    -0.4970    20.7752    41.5369     1.2733     0.6665     0.6665     0.5000    14.4503    14.4502     0.0001     1.7099     0.0000     1.0000     0.0382     0.000
     47     30.000  16624.000 222653.000     32.269    41.5367    71.6846   -27.9014    -2.9996    -0.9999    26.0000     4.0000     9.0000    22.0000    26.0000    10.0000     5.0000    20.0000     3.0030     1.0000    -0.4971    20.7752    41.5369     1.2733     0.6665     0.6665     0.5000    14.4503    14.4502     0.0001     1.7105     0.0000     1.0000     0.0382     0.000
     48     30.000  16950.000 222359.000     32.226    41.5367    71.6846   -27.9014    -2.9996    -0.9999    26.0000     4.0000     9.0000    22.0000    26.0000    10.0000     5.0000    20.0000     3.0030     1.0000    -0.4970    20.7752    41.5369     1.2733     0.6665     0.6665     0.5000    14.4503    14.4502     0.0001     1.7108     0.0000     1.0000     0.0380     0.000
     49     30.000  16757.000 221615.000     32.118    41.5367    71.6846   -27.9014    -2.9996    -0.9999    26.0000     4.0000     9.0000    22.0000    26.0000    10.0000     5.0000    20.0000     3.0030     1.0000    -0.4970    20.7752    41.5369     1.2733     0.6665     0.6665     0.5000    14.4503    14.4502     0.0001     1.7112     0.0000     1.0000     0.0380     0.000
     50     30.000  17120.000 222747.000     32.282    41.5367    71.6846   -27.9014    -2.9996    -0.9999    26.0000     4.0000     9.0000    22.0000    26.0000    10.0000     5.0000    20.0000     3.0030     1.0000    -0.4970    20.7752    41.5369     1.2733     0.6665     0.6665     0.5000    14.4503    14.4502     0.0001     1.7112     0.0000     1.0000     0.0378     0.000
     51     30.000  17024.000 222834.000     32.295    41.5367    71.6846   -27.9014    -2.9996    -0.9999    26.0000     4.0000     9.0000    22.0000    26.0000    10.0000     5.0000    20.0000     3.0030     1.0000    -0.4970    20.7752    41.5369     1.2733     0.6665     0.6665     0.5000    14.4503    14.4502     0.0001     1.7116     0.0000     1.0000     0.0378     0.000
     52     30.000  17253.000 221616.000     32.118    41.5367    71.6846   -27.9014    -2.9996    -0.9999    26.0000     4.0000     9.0000    22.0000    26.0000    10.0000     5.0000    20.0000     3.0030     1.0000    -0.4970    20.7752    41.5369     1.2733     0.6665     0.6665     0.5000    14.4503    14.4502     0.0001     1.7120     0.0000     1.0000     0.0378     0.000
     53     30.000  16771.000 223594.000     32.405    41.5367    71.6846   -27.9014    -2.9996    -0.9999    26.0000     4.0000     9.0000    22.0000    26.0000    10.0000     5.0000    20.0000     3.0030     1.0000    -0.4970    20.7752    41.5368     1.2733     0.6665     0.6665     0.5000    14.4503    14.4502     0.0001     1.7116     0.0000     1.0000     0.0377     0.000
     54     30.000  17086.000 224782.000     32.577    41.5367    71.6846   -27.9014    -2.9996    -0.9999    26.0000     4.0000     9.0000    22.0000    26.0000    10.0000     5.0000    20.0000     3.0030     1.0000    -0.4970    20.7752    41.5369     1.2733     0.6665     0.6665     0.5000    14.4503    14.4502     0.0001     1.7123     0.0000     1.0000     0.0377     0.000
     55     30.000  17037.000 224577.000     32.547    41.5367    71.6846   -27.9014    -2.9996    -0.9999    26.0000     4.0000     9.0000    22.0000    26.0000    10.0000     5.0000    20.0000     3.0030     1.0000    -0.4970    20.7752    41.5368     1.2733     0.6665     0.6665     0.5000    14.4503    14.4502     0.0001     1.7129     0.0000     1.0000     0.0376     0.000
     56     30.000  16757.000 223580.000     32.403    41.5367    71.6846   -27.9014    -2.9996    -0.9999    26.0000     4.0000     9.0000    22.0000    26.0000    10.0000     5.0000    20.0000     3.0030     1.0000    -0.4970    20.7752    41.5368     1.2733     0.6665     0.6665     0.5000    14.4503    14.4502     0.0001     1.7123     0.0000     1.0000     0.0376     0.000
     57     30.000  16956.000 224479.000     32.533    41.5367    71.6846   -27.9014    -2.9996    -0.9999    26.0000     4.0000     9.0000    22.0000    26.0000    10.0000     5.0000    20.0000     3.0030     1.0000    -0.4970    20.7752    41.5369     1.2733     0.6665     0.6665     0.5000    14.4503    14.4502     0.0001     1.7126     0.0000     1.0000     0.0375     0.000
     58     30.000  16823.000 224424.000     32.525    41.5367    71.6846   -27.9014    -2.9996    -0.9999    26.0000     4.0000     9.0000    22.0000    26.0000    10.0000     5.0000    20.0000     3.0030     1.0000    -0.4970    20.7752    41.5369     1.2733     0.6665     0.6665     0.5000    14.4503    14.4502     0.0001     1.7125     0.0000     1.0000     0.0375     0.000
     59     30.000  16887.000 223178.000     32.345    41.5367    71.6846   -27.9014    -2.9996    -0.9999    26.0000     4.0000     9.0000    22.0000    26.0000    10.0000     5.0000    20.0000     3.0030     1.0000    -0.4970    20.7752    41.5369     1.2733     0.6665     0.6665     0.5000    14.4503    14.4502     0.0001     1.7128     0.0000     1.0000     0.0375     0.000
     60     30.000  16896.000 222927.000     32.308    41.5367    71.6846   -27.9014    -2.9996    -0.9999    26.0000     4.0000     9.0000    22.0000    26.0000    10.0000     5.0000    20.0000     3.0030     1.0000    -0.4970    20.7752    41.5369     1.2733     0.6665     0.6665     0.5000    14.4503    14.4502     0.0001     1.7130     0.0000     1.0000     0.0374     0.000
     61     30.000  16324.000 224494.000     32.535    41.5367    71.6846   -27.9014    -2.9996    -0.9999    26.0000     4.0000     9.0000    22.0000    26.0000    10.0000     5.0000    20.0000     3.0030     1.0000    -0.4970    20.7752    41.5369     1.2733     0.6665     0.6665     0.5000    14.4503    14.4502     0.0001     1.7139     0.0000     1.0000     0.0374     0.000
     62     30.000  16631.000 223611.000     32.407    41.5367    71.6846   -27.9014    -2.9996    -0.9999    26.0000     4.0000     9.0000    22.0000    26.0000    10.0000     5.0000    20.0000     3.0030     1.0000    -0.4970    20.7752    41.5369     1.2733     0.6665     0.6665     0.5000    14.4503    14.4502     0.0001     1.7128     0.0000     1.0000     0.0373     0.000
     63     30.000  16384.000 223774.000     32.431    41.5367    71.6846   -27.9014    -2.9996    -0.9999    26.0000     4.0000     9.0000    22.0000    26.0000    10.0000     5.0000    20.0000     3.0030     1.0000    -0.4970    20.7752    41.5368     1.2733     0.6665     0.6665     0.5000    14.4503    14.4502     0.0001     1.7128     0.0000     1.0000     0.0373     0.000
     64     30.000  16696.000 223283.000     32.360    41.5367    71.6846   -27.9014    -2.9996    -0.9999    26.0000     4.0000     9.0000    22.0000    26.0000    10.0000     5.0000    20.0000     3.0030     1.0000    -0.4970    20.7752    41.5369     1.2733     0.6665     0.6665     0.5000    14.4503    14.4502     0.0001     1.7135     0.0000     1.0000     0.0373     0.000
     65     30.000  16480.000 223103.000     32.334    41.5367    71.6846   -27.9014    -2.9996    -0.9999    26.0000     4.0000     9.0000    22.0000    26.0000    10.0000     5.0000    20.0000     3.0030     1.0000    -0.4970    20.7752    41.5369     1.2733     0.6665     0.6665     0.5000    14.4503    14.4502     0.0001     1.7137     0.0000     1.0000     0.0373     0.000
     66     30.000  16272.000 221259.000     32.067    41.5367    71.6846   -27.9014    -2.9996    -0.9999    26.0000     4.0000     9.0000    22.0000    26.0000    10.0000     5.0000    20.0000     3.0030     1.0000    -0.4970    20.7752    41.5369     1.2733     0.6665     0.6665     0.5000    14.4503    14.4502     0.0001     1.7133     0.0000     1.0000     0.0373     0.000
     67     30.000  16141.000 222399.000     32.232    41.5367    71.6846   -27.9015    -2.9996    -0.9999    26.0000     4.0000     9.0000    22.0000    26.0000    10.0000     5.0000    20.0000     3.0030     1.0000    -0.4970    20.7752    41.5369     1.2733     0.6665     0.6665     0.5000    14.4503    14.4502     0.0001     1.7136     0.0000     1.0000     0.0373     0.000
     68     30.000  16205.000 221569.000     32.111    41.5367    71.6846   -27.9015    -2.9996    -0.9999    26.0000     4.0000     9.0000    22.0000    26.0000    10.0000     5.0000    20.0000     3.0030     1.0000    -0.4970    20.7752    41.5369     1.2733     0.6665     0.6665     0.5000    14.4503    14.4502     0.0001     1.7133     0.0000     1.0000     0.0373     0.000
     69     30.000  16282.000 222336.000     32.223    41.5367    71.6846   -27.9015    -2.9996    -0.9999    26.0000     4.0000     9.0000    22.0000    26.0000    10.0000     5.0000    20.0000     3.0030     1.0000    -0.4970    20.7752    41.5369     1.2733     0.6665     0.6665     0.5000    14.4503    14.4502     0.0001     1.7136     0.0000     1.0000     0.0372     0.000
     70     30.000  16149.000 221983.000     32.171    41.5367    71.6846   -27.9015    -2.9996    -0.9999    26.0000     4.0000     9.0000    22.0000    26.0000    10.0000     5.0000    20.0000     3.0030     1.0000    -0.4970    20.7752    41.5369     1.2733     0.6665     0.6665     0.5000    14.4503    14.4502     0.0001     1.7138     0.0000     1.0000     0.0372     0.000
     71     30.000  16041.000 221792.000     32.144    41.5367    71.6846   -27.9015    -2.9996    -0.9999    26.0000     4.0000     9.0000    22.0000    26.0000    10.0000     5.0000    20.0000     3.0030     1.0000    -0.4970    20.7752    41.5369     1.2733     0.6665     0.6665     0.5000    14.4503    14.4502     0.0001     1.7139     0.0000     1.0000     0.0372     0.000
     72     30.000  16067.000 222196.000     32.202    41.5367    71.6846   -27.9015    -2.9996    -0.9999    26.0000     4.0000     9.0000    22.0000    26.0000    10.0000     5.0000    20.0000     3.0030     1.0000    -0.4970    20.7752    41.5369     1.2733     0.6665     0.6665     0.5000    14.4503    14.4502     0.0001     1.7138     0.0000     1.0000     0.0372     0.000
     73     30.000  16050.000 222680.000     32.272    41.5367    71.6846   -27.9015    -2.9996    -0.9999    26.0000     4.0000     9.0000    22.0000    26.0000    10.0000     5.0000    20.0000     3.0030     1.0000    -0.4970    20.7752    41.5369     1.2733     0.6665     0.6665     0.5000    14.4503    14.4502     0.0001     1.7142     0.0000     1.0000     0.0372     0.000
     74     30.000  16062.000 222073.000     32.184    41.5367    71.6846   -27.9015    -2.9996    -0.9999    26.0000     4.0000     9.0000    22.0000    26.0000    10.0000     5.0000    20.0000     3.0030     1.0000    -0.4970    20.7752    41.5369     1.2733     0.6665     0.6665     0.5000    14.4503    14.4502     0.0001     1.7142     0.0000     1.0000     0.0372     0.000
     75     30.000  15939.000 221872.000     32.155    41.5367    71.6846   -27.9015    -2.9996    -0.9999    26.0000     4.0000     9.0000    22.0000    26.0000    10.0000     5.0000    20.0000     3.0030     1.0000    -0.4970    20.7752    41.5369     1.2733     0.6665     0.6665     0.5000    14.4503    14.4502     0.0001     1.7134     0.0000     1.0000     0.0372     0.000
     76     30.000  15795.000 222309.000     32.219    41.5367    71.6846   -27.9015    -2.9996    -0.9999    26.0000     4.0000     9.0000    22.0000    26.0000    10.0000     5.0000    20.0000     3.0030     1.0000    -0.4970    20.7752    41.5369     1.2733     0.6665     0.6665     0.5000    14.4503    14.4502     0.0001     1.7123     0.0000     1.0000     0.0372     0.000
     77     30.000  15728.000 222650.000     32.268    41.5367    71.6846   -27.9015    -2.9996    -0.9999    26.0000     4.0000     9.0000    22.0000    26.0000    10.0000     5.0000    20.0000     3.0030     1.0000    -0.4970    20.7752    41.5369     1.2733     0.6665     0.6665     0.5000    14.4503    14.4502     0.0001     1.7109     0.0000     1.0000     0.0372     0.000
     78     30.000  15774.000 221197.000     32.058    41.5367    71.6846   -27.9015    -2.9996    -0.9999    26.0000     4.0000     9.0000    22.0000    26.0000    10.0000     5.0000    20.0000     3.0030     1.0000    -0.4970    20.7752    41.5369     1.2733     0.6665     0.6665     0.5000    14.4503    14.4502     0.0001     1.7105     0.0000     1.0000     0.0372     0.000
     79     30.000  15707.000 222445.000     32.238    41.5367    71.6846   -27.9015    -2.9996    -0.9999    26.0000     4.0000     9.0000    22.0000    26.0000    10.0000     5.0000    20.0000     3.0030     1.0000    -0.4970    20.7752    41.5369     1.2733     0.6665     0.6665     0.5000    14.4503    14.4502     0.0001     1.7100     0.0000     1.0000     0.0372     0.000
     80     30.000  15786.000 222457.000     32.240    41.5367    71.6846   -27.9015    -2.9996    -0.9999    26.0000     4.0000     9.0000    22.0000    26.0000    10.0000     5.0000    20.0000     3.0030     1.0000    -0.4970    20.7752    41.5369     1.2733     0.6665     0.6665     0.5000    14.4503    14.4502     0.0001     1.7096     0.0000     1.0000     0.0372     0.000
     81     30.000  15811.000 222190.000     32.201    41.5367    71.6846   -27.9015    -2.9996    -0.9999    26.0000     4.0000     9.0000    22.0000    26.0000    10.0000     5.0000    20.0000     3.0030     1.0000    -0.4970    20.7752    41.5369     1.2733     0.6665     0.6665     0.5000    14.4503    14.4502     0.0001     1.7092     0.0000     1.0000     0.0371     0.000
     82     30.000  15706.000 222139.000     32.194    41.5367    71.6846   -27.9015    -2.9996    -0.9999    26.0000     4.0000     9.0000    22.0000    26.0000    10.0000     5.0000    20.0000     3.0030     1.0000    -0.4970    20.7752    41.5369     1.2733     0.6665     0.6665     0.5000    14.4503    14.4502     0.0001     1.7090     0.0000     1.0000     0.0371     0.000
     83     30.000  15510.000 221038.000     32.034    41.5367    71.6846   -27.9015    -2.9996    -0.9999    26.0000     4.0000     9.0000    22.0000    26.0000    10.0000     5.0000    20.0000     3.0030     1.0000    -0.4970    20.7752    41.5369     1.2733     0.6665     0.6665     0.5000    14.4503    14.4502     0.0001     1.7090     0.0000     1.0000     0.0371     0.000
     84     30.000  15469.000 223756.000     32.428    41.5367    71.6846   -27.9015    -2.9996    -0.9999    26.0000     4.0000     9.0000    22.0000    26.0000    10.0000     5.0000    20.0000     3.0030     1.0000    -0.4970    20.7752    41.5369     1.2733     0.6665     0.6665     0.5000    14.4503    14.4502     0.0001     1.7086     0.0000     1.0000     0.0371     0.000
     85     30.000  15493.000 221707.000     32.131    41.5367    71.6846   -27.9015    -2.9996    -0.9999    26.0000     4.0000     9.0000    22.0000    26.0000    10.0000     5.0000    20.0000     3.0030     1.0000    -0.4970    20.7752    41.5369     1.2733     0.6665     0.6665     0.5000    14.4503    14.4502     0.0001     1.7083     0.0000     1.0000     0.0371     0.000
     86     30.000  15596.000 223666.000     32.415    41.5367    71.6846   -27.9015    -2.9996    -0.9999    26.0000     4.0000     9.0000    22.0000    26.0000    10.0000     5.0000    20.0000     3.0030     1.0000    -0.4970    20.7752    41.5369     1.2733     0.6665     0.6665     0.5000    14.4503    14.4502     0.0001     1.7080     0.0000     1.0000     0.0371     0.000
     87     30.000  15450.000 223789.000     32.433    41.5367    71.6846   -27.9015    -2.9996    -0.9999    26.0000     4.0000     9.0000    22.0000    26.0000    10.0000     5.0000    20.0000     3.0030     1.0000    -0.4970    20.7752    41.5369     1.2733     0.6665     0.6665     0.5000    14.4503    14.4502     0.0001     1.7081     0.0000     1.0000     0.0371     0.000
     88     30.000  15357.000 222925.000     32.308    41.5367    71.6846   -27.9015    -2.9996    -0.9999    26.0000     4.0000     9.0000    22.0000    26.0000    10.0000     5.0000    20.0000     3.0030     1.0000    -0.4971    20.7752    41.5369     1.2733     0.6665     0.6665     0.5000    14.4503    14.4502     0.0001     1.7071     0.0000     1.0000     0.0372     0.000
     89     30.000  15369.000 222243.000     32.209    41.5367    71.6846   -27.9015    -2.9996    -0.9999    26.0000     4.0000     9.0000    22.0000    26.0000    10.0000     5.0000    20.0000     3.0030     1.0000    -0.4970    20.7752    41.5369     1.2733     0.6665     0.6665     0.5000    14.4503    14.4502     0.0001     1.7081     0.0000     1.0000     0.0372     0.000
     90     30.000  15560.000 223129.000     32.338    41.5367    71.6846   -27.9015    -2.9996    -0.9999    26.0000     4.0000     9.0000    22.0000    26.0000    10.0000     5.0000    20.0000     3.0030     1.0000    -0.4970    20.7752    41.5369     1.2733     0.6665     0.6665     0.5000    14.4503    14.4502     0.0001     1.7083     0.0000     1.0000     0.0372     0.000
     91     30.000  15591.000 224115.000     32.480    41.5367    71.6846   -27.9015    -2.9996    -0.9999    26.0000     4.0000     9.0000    22.0000    26.0000    10.0000     5.0000    20.0000     3.0030     1.0000    -0.4970    20.7752    41.5369     1.2733     0.6665     0.6665     0.5000    14.4503    14.4502     0.0001     1.7075     0.0000     1.0000     0.0372     0.000
     92     30.000  15432.000 223876.000     32.446    41.5367    71.6846   -27.9015    -2.9996    -0.9999    26.0000     4.0000     9.0000    22.0000    26.0000    10.0000     5.0000    20.0000     3.0030     1.0000    -0.4970    20.7752    41.5369     1.2733     0.6665     0.6665     0.5000    14.4503    14.4502     0.0001     1.7082     0.0000     1.0000     0.0372     0.000
     93     30.000  15397.000 223406.000     32.378    41.5367    71.6846   -27.9015    -2.9996    -0.9999    26.0000     4.0000     9.0000    22.0000    26.0000    10.0000     5.0000    20.0000     3.0030     1.0000    -0.4970    20.7752    41.5369     1.2733     0.6665     0.6665     0.5000    14.4503    14.4502     0.0001     1.7084     0.0000     1.0000     0.0372     0.000
     94     30.000  15544.000 224420.000     32.525    41.5367    71.6846   -27.9015    -2.9996    -0.9999    26.0000     4.0000     9.0000    22.0000    26.0000    10.0000     5.0000    20.0000     3.0030     1.0000    -0.4971    20.7752    41.5369     1.2733     0.6665     0.6665     0.5000    14.4503    14.4502     0.0001     1.7084     0.0000     1.0000     0.0372     0.000
     95     30.000  15364.000 222974.000     32.315    41.5367    71.6846   -27.9015    -2.9996    -0.9999    26.0000     4.0000     9.0000    22.0000    26.0000    10.0000     5.0000    20.0000     3.0030     1.0000    -0.4970    20.7752    41.5369     1.2733     0.6665     0.6665     0.5000    14.4503    14.4502     0.0001     1.7078     0.0000     1.0000     0.0372     0.000
     96     30.000  15420.000 222776.000     32.286    41.5367    71.6846   -27.9015    -2.9996    -0.9999    26.0000     4.0000     9.0000    22.0000    26.0000    10.0000     5.0000    20.0000     3.0030     1.0000    -0.4971    20.7752    41.5369     1.2733     0.6665     0.6665     0.5000    14.4503    14.4502     0.0001     1.7074     0.0000     1.0000     0.0372     0.000
     97     30.000  15218.000 223075.000     32.330    41.5367    71.6846   -27.9015    -2.9996    -0.9999    26.0000     4.0000     9.0000    22.0000    26.0000    10.0000     5.0000    20.0000     3.0030     1.0000    -0.4970    20.7752    41.5369     1.2733     0.6665     0.6665     0.5000    14.4503    14.4502     0.0001     1.7075     0.0000     1.0000     0.0372     0.000
     98     30.000  15404.000 224309.000     32.509    41.5367    71.6846   -27.9015    -2.9996    -0.9999    26.0000     4.0000     9.0000    22.0000    26.0000    10.0000     5.0000    20.0000     3.0030     1.0000    -0.4970    20.7752    41.5369     1.2733     0.6665     0.6665     0.5000    14.4503    14.4502     0.0001     1.7071     0.0000     1.0000     0.0372     0.000
     99     30.000  15179.000 223387.000     32.375    41.5367    71.6846   -27.9015    -2.9996    -0.9999    26.0000     4.0000     9.0000    22.0000    26.0000    10.0000     5.0000    20.0000     3.0030     1.0000    -0.4970    20.7752    41.5369     1.2733     0.6665     0.6665     0.5000    14.4503    14.4502     0.0001     1.7074     0.0000     1.0000     0.0372     0.000
    100     30.000  15413.000 224691.000     32.564    41.5367    71.6846   -27.9015    -2.9996    -0.9999    26.0000     4.0000     9.0000    22.0000    26.0000    10.0000     5.0000    20.0000     3.0030     1.0000    -0.4971    20.7752    41.5369     1.2733     0.6665     0.6665     0.5000    14.4503    14.4502     0.0001     1.7081     0.0000     1.0000     0.0372     0.000
    101     30.000  15312.000 223439.000     32.382    41.5367    71.6846   -27.9015    -2.9996    -0.9999    26.0000     4.0000     9.0000    22.0000    26.0000    10.0000     5.0000    20.0000     3.0030     1.0000    -0.4970    20.7752    41.5368     1.2733     0.6665     0.6665     0.5000    14.4503    14.4502     0.0001     1.7075     0.0000     1.0000     0.0372     0.000
    102     30.000  15263.000 224327.000     32.511    41.5367    71.6846   -27.9015    -2.9996    -0.9999    26.0000     4.0000     9.0000    22.0000    26.0000    10.0000     5.0000    20.0000     3.0030     1.0000    -0.4971    20.7752    41.5369     1.2733     0.6665     0.6665     0.5000    14.4503    14.4502     0.0001     1.7075     0.0000     1.0000     0.0372     0.000
    103     30.000  15383.000 224037.000     32.469    41.5367    71.6846   -27.9015    -2.9996    -0.9999    26.0000     4.0000     9.0000    22.0000    26.0000    10.0000     5.0000    20.0000     3.0030     1.0000    -0.4970    20.7752    41.5369     1.2733     0.6665     0.6665     0.5000    14.4503    14.4502     0.0001     1.7072     0.0000     1.0000     0.0372     0.000
    104     30.000  15318.000 223276.000     32.359    41.5367    71.6846   -27.9015    -2.9996    -0.9999    26.0000     4.0000     9.0000    22.0000    26.0000    10.0000     5.0000    20.0000     3.0030     1.0000    -0.4970    20.7752    41.5369     1.2733     0.6665     0.6665     0.5000    14.4503    14.4502     0.0001     1.7074     0.0000     1.0000     0.0372     0.000
    105     30.000  15110.000 224426.000     32.526    41.5367    71.6846   -27.9015    -2.9996    -0.9999    26.0000     4.0000     9.0000    22.0000    26.0000    10.0000     5.0000    20.0000     3.0030     1.0000    -0.4970    20.7752    41.5369     1.2733     0.6665     0.6665     0.5000    14.4503    14.4502     0.0001     1.7068     0.0000     1.0000     0.0372     0.000
    106     30.000  15413.000 223551.000     32.399    41.5367    71.6846   -27.9015    -2.9996    -0.9999    26.0000     4.0000     9.0000    22.0000    26.0000    10.0000     5.0000    20.0000     3.0030     1.0000    -0.4970    20.7752    41.5369     1.2733     0.6665     0.6665     0.5000    14.4503    14.4502     0.0001     1.7077     0.0000     1.0000     0.0372     0.000
    107     30.000  15187.000 223230.000     32.352    41.5367    71.6846   -27.9015    -2.9996    -0.9999    26.0000     4.0000     9.0000    22.0000    26.0000    10.0000     5.0000    20.0000     3.0030     1.0000    -0.4970    20.7752    41.5369     1.2733     0.6665     0.6665     0.5000    14.4503    14.4502     0.0001     1.7076     0.0000     1.0000     0.0372     0.000
    108     30.000  15183.000 222625.000     32.264    41.5367    71.6846   -27.9015    -2.9996    -0.9999    26.0000     4.0000     9.0000    22.0000    26.0000    10.0000     5.0000    20.0000     3.0030     1.0000    -0.4970    20.7752    41.5369     1.2733     0.6665     0.6665     0.5000    14.4503    14.4502     0.0001     1.7069     0.0000     1.0000     0.0372     0.000
    109     30.000  15324.000 223384.000     32.374    41.5367    71.6846   -27.9015    -2.9996    -0.9999    26.0000     4.0000     9.0000    22.0000    26.0000    10.0000     5.0000    20.0000     3.0030     1.0000    -0.4970    20.7752    41.5369     1.2733     0.6665     0.6665     0.5000    14.4503    14.4502     0.0001     1.7076     0.0000     1.0000     0.0373     0.000
    110     30.000  15075.000 223051.000     32.326    41.5367    71.6846   -27.9015    -2.9996    -0.9999    26.0000     4.0000     9.0000    22.0000    26.0000    10.0000     5.0000    20.0000     3.0030     1.0000    -0.4971    20.7752    41.5369     1.2733     0.6665     0.6665     0.5000    14.4503    14.4502     0.0001     1.7071     0.0000     1.0000     0.0373     0.000
    111     30.000  15203.000 223748.000     32.427    41.5367    71.6846   -27.9015    -2.9996    -0.9999    26.0000     4.0000     9.0000    22.0000    26.0000    10.0000     5.0000    20.0000     3.0030     1.0000    -0.4970    20.7752    41.5369     1.2733     0.6665     0.6665     0.5000    14.4503    14.4502     0.0001     1.7071     0.0000     1.0000     0.0373     0.000
    112     30.000  15227.000 223327.000     32.366    41.5367    71.6846   -27.9015    -2.9996    -0.9999    26.0000     4.0000     9.0000    22.0000    26.0000    10.0000     5.0000    20.0000     3.0030     1.0000    -0.4970    20.7752    41.5369     1.2733     0.6665     0.6665     0.5000    14.4503    14.4502     0.0001     1.7066     0.0000     1.0000     0.0373     0.000
    113     30.000  15237.000 223587.000     32.404    41.5367    71.6846   -27.9015    -2.9996    -0.9999    26.0000     4.0000     9.0000    22.0000    26.0000    10.0000     5.0000    20.0000     3.0030     1.0000    -0.4970    20.7752    41.5369     1.2733     0.6665     0.6665     0.5000    14.4503    14.4502     0.0001     1.7068     0.0000     1.0000     0.0372     0.000
    114     30.000  15166.000 222894.000     32.303    41.5367    71.6846   -27.9015    -2.9996    -0.9999    26.0000     4.0000     9.0000    22.0000    26.0000    10.0000     5.0000    20.0000     3.0030     1.0000    -0.4970    20.7752    41.5369     1.2733     0.6665     0.6665     0.5000    14.4503    14.4502     0.0001     1.7067     0.0000     1.0000     0.0372     0.000
    115     30.000  15166.000 223554.000     32.399    41.5367    71.6846   -27.9015    -2.9996    -0.9999    26.0000     4.0000     9.0000    22.0000    26.0000    10.0000     5.0000    20.0000     3.0030     1.0000    -0.4970    20.7752    41.5369     1.2733     0.6665     0.6665     0.5000    14.4503    14.4502     0.0001     1.7060     0.0000     1.0000     0.0372     0.000
    116     30.000  14788.000 223115.000     32.336    41.5367    71.6846   -27.9015    -2.9996    -0.9999    26.0000     4.0000     9.0000    22.0000    26.0000    10.0000     5.0000    20.0000     3.0030     1.0000    -0.4970    20.7752    41.5369     1.2733     0.6665     0.6665     0.5000    14.4503    14.4502     0.0001     1.7065     0.0000     1.0000     0.0372     0.000
    117     30.000  15219.000 222265.000     32.212    41.5367    71.6846   -27.9015    -2.9996    -0.9999    26.0000     4.0000     9.0000    22.0000    26.0000    10.0000     5.0000    20.0000     3.0030     1.0000    -0.4970    20.7752    41.5369     1.2733     0.6665     0.6665     0.5000    14.4503    14.4502     0.0001     1.7065     0.0000     1.0000     0.0372     0.000
    118     30.000  15249.000 222622.000     32.264    41.5367    71.6846   -27.9015    -2.9996    -0.9999    26.0000     4.0000     9.0000    22.0000    26.0000    10.0000     5.0000    20.0000     3.0030     1.0000    -0.4970    20.7752    41.5369     1.2733     0.6665     0.6665     0.5000    14.4503    14.4502     0.0001     1.7067     0.0000     1.0000     0.0372     0.000
    119     30.000  15110.000 223289.000     32.361    41.5367    71.6846   -27.9015    -2.9996    -0.9999    26.0000     4.0000     9.0000    22.0000    26.0000    10.0000     5.0000    20.0000     3.0030     1.0000    -0.4970    20.7752    41.5369     1.2733     0.6665     0.6665     0.5000    14.4503    14.4502     0.0001     1.7073     0.0000     1.0000     0.0372     0.000
    120     30.000  15139.000 223345.000     32.369    41.5367    71.6846   -27.9015    -2.9996    -0.9999    26.0000     4.0000     9.0000    22.0000    26.0000    10.0000     5.0000    20.0000     3.0030     1.0000    -0.4970    20.7752    41.5369     1.2733     0.6665     0.6665     0.5000    14.4503    14.4502     0.0001     1.7068     0.0000     1.0000     0.0372     0.000
    121     30.000  15000.000 223554.000     32.399    41.5367    71.6846   -27.9015    -2.9996    -0.9999    26.0000     4.0000     9.0000    22.0000    26.0000    10.0000     5.0000    20.0000     3.0030     1.0000    -0.4970    20.7752    41.5369     1.2733     0.6665     0.6665     0.5000    14.4503    14.4502     0.0001     1.7065     0.0000     1.0000     0.0372     0.000
    122     30.000  15290.000 223544.000     32.398    41.5367    71.6846   -27.9015    -2.9996    -0.9999    26.0000     4.0000     9.0000    22.0000    26.0000    10.0000     5.0000    20.0000     3.0030     1.0000    -0.4971    20.7752    41.5369     1.2733     0.6665     0.6665     0.5000    14.4503    14.4502     0.0001     1.7071     0.0000     1.0000     0.0372     0.000
    123     30.000  15290.000 224089.000     32.477    41.5367    71.6846   -27.9015    -2.9996    -0.9999    26.0000     4.0000     9.0000    22.0000    26.0000    10.0000     5.0000    20.0000     3.0030     1.0000    -0.4970    20.7752    41.5369     1.2733     0.6665     0.6665     0.5000    14.4503    14.4502     0.0001     1.7068     0.0000     1.0000     0.0372     0.000
    124     30.000  15295.000 223074.000     32.330    41.5367    71.6846   -27.9015    -2.9996    -0.9999    26.0000     4.0000     9.0000    22.0000    26.0000    10.0000     5.0000    20.0000     3.0030     1.0000    -0.4971    20.7752    41.5369     1.2733     0.6665     0.6665     0.5000    14.4503    14.4502     0.0001     1.7063     0.0000     1.0000     0.0372     0.000
    125     30.000  15229.000 223586.000     32.404    41.5367    71.6846   -27.9015    -2.9996    -0.9999    26.0000     4.0000     9.0000    22.0000    26.0000    10.0000     5.0000    20.0000     3.0030     1.0000    -0.4970    20.7752    41.5369     1.2733     0.6665     0.6665     0.5000    14.4503    14.4502     0.0001     1.7068     0.0000     1.0000     0.0372     0.000
    126     30.000  15154.000 224014.000     32.466    41.5367    71.6846   -27.9015    -2.9996    -0.9999    26.0000     4.0000     9.0000    22.0000    26.0000    10.0000     5.0000    20.0000     3.0030     1.0000    -0.4970    20.7752    41.5369     1.2733     0.6665     0.6665     0.5000    14.4503    14.4502     0.0001     1.7071     0.0000     1.0000     0.0372     0.000
    127     30.000  15108.000 223836.000     32.440    41.5367    71.6846   -27.9015    -2.9996    -0.9999    26.0000     4.0000     9.0000    22.0000    26.0000    10.0000     5.0000    20.0000     3.0030     1.0000    -0.4970    20.7752    41.5369     1.2733     0.6665     0.6665     0.5000    14.4503    14.4502     0.0001     1.7062     0.0000     1.0000     0.0372     0.000
    128     30.000  15040.000 223956.000     32.457    41.5367    71.6846   -27.9015    -2.9996    -0.9999    26.0000     4.0000     9.0000    22.0000    26.0000    10.0000     5.0000    20.0000     3.0030     1.0000    -0.4970    20.7752    41.5369     1.2733     0.6665     0.6665     0.5000    14.4503    14.4502     0.0001     1.7068     0.0000     1.0000     0.0372     0.000
    129     30.000  15083.000 223875.000     32.446    41.5367    71.6846   -27.9015    -2.9996    -0.9999    26.0000     4.0000     9.0000    22.0000    26.0000    10.0000     5.0000    20.0000     3.0030     1.0000    -0.4970    20.7752    41.5369     1.2733     0.6665     0.6665     0.5000    14.4503    14.4502     0.0001     1.7068     0.0000     1.0000     0.0372     0.000
    130     30.000  15207.000 224578.000     32.548    41.5367    71.6846   -27.9015    -2.9996    -0.9999    26.0000     4.0000     9.0000    22.0000    26.0000    10.0000     5.0000    20.0000     3.0030     1.0000    -0.4970    20.7752    41.5369     1.2733     0.6665     0.6665     0.5000    14.4503    14.4502     0.0001     1.7068     0.0000     1.0000     0.0372     0.000
    131     30.000  15129.000 224834.000     32.585    41.5367    71.6846   -27.9015    -2.9996    -0.9999    26.0000     4.0000     9.0000    22.0000    26.0000    10.0000     5.0000    20.0000     3.0030     1.0000    -0.4970    20.7752    41.5369     1.2733     0.6665     0.6665     0.5000    14.4503    14.4502     0.0001     1.7069     0.0000     1.0000     0.0372     0.000
    132     30.000      0.000      0.000      0.000    41.5367    71.6846   -27.9015    -2.9996    -0.9999    26.0000     4.0000     9.0000    22.0000    26.0000    10.0000     5.0000    20.0000     3.0030     1.0000    -0.4970    20.7752    41.5369     1.2733     0.6665     0.6665     0.5000    14.4503    14.4502     0.0001     1.7067     0.0000     1.0000     0.0372     0.000
# Sum of Counts = 1610458
# Center of Mass = 79.130174+/-0.091360
# Full Width Half-Maximum = 60.620645+/-0.044829
# 2:32:19 PM  9/22/2023   scan stopped!!
