# scan = 32
# date = 9/19/2023
# time = 3:56:14 PM
# proposal = 30730
# experiment = Low Temperature Magnetic Structure of CeCl3
# experiment_number = 998
# command = scan h 0 k 0 l 0.75 2.25 0.005 e 0 preset time 30 
# builtin_command = scan h 0 k 0 l 0.75 2.25 0.005 e 0 preset time 30
# users = Adam Aczel, David Mandrus, Matthew Cothrine, Stephen Nagler
# local_contact = A. Aczel
# scan_title = CeBr3, (0 0 L) scan, T = 0.04 K
# monochromator = PG002
# analyzer = Pg002
# sense = +-+
# collimation = 40-40-40-80
# samplename = CeBr3
# sampletype = crystal
# samplemosaic = 30.000000
# latticeconstants = 7.911813,7.911813,4.442653,90.000000,90.000000,120.000000
# ubmatrix = 0.075384,0.080477,-0.177039,-0.099473,-0.099471,-0.138870,-0.075649,0.070209,0.006183
# mode = 0
# plane_normal = 0.034896,0.000010,0.999390
# ubconf = UB19Sep2023_24416PM.ini
# preset_type = normal 
# preset_channel = time
# preset_value = 30.000000
# def_x = l
# def_y = detector
# col_headers = 
#   Pt.          h          k          l          e       time   detector    monitor        mcu         m2         s1         s2        sgl        sgu   slitb_bt   slitb_lf   slitb_rt   slitb_tp   slita_bt   slita_lf   slita_rt   slita_tp        stl        stu         sz         a1         a2          q         ei         ef        vti     sample       temp dr_tsample    dr_temp
      1    -0.0000    -0.0000     0.7500     0.0000     30.000   1199.000 224101.000     32.478    41.5367   130.3224   -23.1716    -1.9995     0.0006    26.0000     4.0000     9.0000    22.0000    26.0000    10.0000     5.0000    20.0000     3.0019     1.0000    -0.4923    20.7752    41.5367     1.0607    14.4503    14.4503     1.7075     0.0000     1.0000     0.0407     0.000
      2     0.0000    -0.0000     0.7550     0.0001     30.000   1150.000 223907.000     32.450    41.5367   130.2421   -23.3281    -1.9995     0.0006    26.0000     4.0000     9.0000    22.0000    26.0000    10.0000     5.0000    20.0000     3.0018     1.0000    -0.4927    20.7750    41.5368     1.0678    14.4503    14.4502     1.7075     0.0000     1.0000     0.0416     0.000
      3    -0.0000    -0.0000     0.7601     0.0000     30.000   1148.000 224788.000     32.578    41.5367   130.1641   -23.4874    -1.9995     0.0007    26.0000     4.0000     9.0000    22.0000    26.0000    10.0000     5.0000    20.0000     3.0018     1.0000    -0.4929    20.7749    41.5367     1.0750    14.4503    14.4503     1.7075     0.0000     1.0000     0.0416     0.000
      4    -0.0000    -0.0000     0.7650     0.0001     30.000   1251.000 223807.000     32.436    41.5367   130.0859   -23.6423    -1.9995     0.0007    26.0000     4.0000     9.0000    22.0000    26.0000    10.0000     5.0000    20.0000     3.0018     1.0000    -0.4930    20.7748    41.5368     1.0820    14.4503    14.4502     1.7075     0.0000     1.0000     0.0419     0.000
      5    -0.0000    -0.0000     0.7701     0.0000     30.000   1233.000 224860.000     32.588    41.5367   130.0076   -23.8001    -1.9995     0.0007    26.0000     4.0000     9.0000    22.0000    26.0000    10.0000     5.0000    20.0000     3.0017     1.0000    -0.4932    20.7747    41.5367     1.0891    14.4503    14.4503     1.7076     0.0000     1.0000     0.0419     0.000
      6     0.0000    -0.0000     0.7749     0.0001     30.000   1140.000 222840.000     32.296    41.5367   129.9290   -23.9534    -1.9995     0.0007    26.0000     4.0000     9.0000    22.0000    26.0000    10.0000     5.0000    20.0000     3.0017     1.0000    -0.4932    20.7747    41.5368     1.0960    14.4503    14.4502     1.7075     0.0000     1.0000     0.0419     0.000
      7     0.0000     0.0000     0.7800     0.0001     30.000   1156.000 223768.000     32.430    41.5367   129.8502   -24.1106    -1.9995     0.0007    26.0000     4.0000     9.0000    22.0000    26.0000    10.0000     5.0000    20.0000     3.0017     1.0000    -0.4933    20.7746    41.5368     1.1031    14.4503    14.4502     1.7076     0.0000     1.0000     0.0419     0.000
      8    -0.0000    -0.0000     0.7850     0.0000     30.000   1206.000 223662.000     32.415    41.5367   129.7717   -24.2697    -1.9995     0.0007    26.0000     4.0000     9.0000    22.0000    26.0000    10.0000     5.0000    20.0000     3.0016     1.0000    -0.4934    20.7746    41.5367     1.1103    14.4503    14.4503     1.7076     0.0000     1.0000     0.0420     0.000
      9    -0.0000    -0.0000     0.7901     0.0000     30.000   1153.000 224048.000     32.471    41.5367   129.6931   -24.4281    -1.9995     0.0007    26.0000     4.0000     9.0000    22.0000    26.0000    10.0000     5.0000    20.0000     3.0016     1.0000    -0.4935    20.7745    41.5368     1.1174    14.4503    14.4502     1.7075     0.0000     1.0000     0.0420     0.000
     10    -0.0000    -0.0000     0.7951     0.0001     30.000   1220.000 223809.000     32.436    41.5367   129.6144   -24.5864    -1.9995     0.0007    26.0000     4.0000     9.0000    22.0000    26.0000    10.0000     5.0000    20.0000     3.0016     1.0000    -0.4935    20.7745    41.5368     1.1245    14.4503    14.4502     1.7075     0.0000     1.0000     0.0420     0.000
     11     0.0000     0.0000     0.7999     0.0001     30.000   1192.000 223677.000     32.417    41.5367   129.5358   -24.7375    -1.9995     0.0007    26.0000     4.0000     9.0000    22.0000    26.0000    10.0000     5.0000    20.0000     3.0016     1.0000    -0.4936    20.7744    41.5368     1.1313    14.4503    14.4502     1.7074     0.0000     1.0000     0.0421     0.000
     12    -0.0000    -0.0000     0.8050     0.0001     30.000   1163.000 223219.000     32.351    41.5367   129.4581   -24.8975    -1.9995     0.0007    26.0000     4.0000     9.0000    22.0000    26.0000    10.0000     5.0000    20.0000     3.0016     1.0000    -0.4936    20.7744    41.5368     1.1385    14.4503    14.4502     1.7074     0.0000     1.0000     0.0421     0.000
     13     0.0000    -0.0000     0.8100     0.0001     30.000   1186.000 223356.000     32.370    41.5367   129.3792   -25.0539    -1.9995     0.0007    26.0000     4.0000     9.0000    22.0000    26.0000    10.0000     5.0000    20.0000     3.0016     1.0000    -0.4937    20.7744    41.5368     1.1456    14.4503    14.4502     1.7074     0.0000     1.0000     0.0418     0.000
     14     0.0000     0.0000     0.8149     0.0000     30.000   1251.000 223155.000     32.341    41.5367   129.3005   -25.2098    -1.9995     0.0007    26.0000     4.0000     9.0000    22.0000    26.0000    10.0000     5.0000    20.0000     3.0016     1.0000    -0.4937    20.7744    41.5367     1.1526    14.4503    14.4503     1.7074     0.0000     1.0000     0.0418     0.000
     15    -0.0000    -0.0000     0.8200     0.0000     30.000   1150.000 225630.000     32.700    41.5367   129.2224   -25.3695    -1.9995     0.0007    26.0000     4.0000     9.0000    22.0000    26.0000    10.0000     5.0000    20.0000     3.0015     1.0000    -0.4939    20.7743    41.5367     1.1598    14.4503    14.4503     1.7074     0.0000     1.0000     0.0420     0.000
     16     0.0000    -0.0000     0.8250     0.0000     30.000   1209.000 224313.000     32.509    41.5367   129.1436   -25.5245    -1.9995     0.0007    26.0000     4.0000     9.0000    22.0000    26.0000    10.0000     5.0000    20.0000     3.0015     1.0000    -0.4938    20.7743    41.5367     1.1667    14.4503    14.4503     1.7073     0.0000     1.0000     0.0420     0.000
     17    -0.0000    -0.0000     0.8300     0.0000     30.000   1164.000 224150.000     32.486    41.5367   129.0651   -25.6831    -1.9995     0.0007    26.0000     4.0000     9.0000    22.0000    26.0000    10.0000     5.0000    20.0000     3.0015     1.0000    -0.4939    20.7743    41.5367     1.1738    14.4503    14.4503     1.7072     0.0000     1.0000     0.0419     0.000
     18     0.0000    -0.0000     0.8350     0.0000     30.000   1155.000 223215.000     32.350    41.5367   128.9860   -25.8395    -1.9995     0.0007    26.0000     4.0000     9.0000    22.0000    26.0000    10.0000     5.0000    20.0000     3.0015     1.0000    -0.4940    20.7742    41.5367     1.1809    14.4503    14.4503     1.7072     0.0000     1.0000     0.0419     0.000
     19    -0.0000    -0.0000     0.8400     0.0000     30.000   1114.000 223617.000     32.408    41.5367   128.9077   -25.9979    -1.9995     0.0007    26.0000     4.0000     9.0000    22.0000    26.0000    10.0000     5.0000    20.0000     3.0015     1.0000    -0.4940    20.7742    41.5368     1.1880    14.4503    14.4502     1.7072     0.0000     1.0000     0.0419     0.000
     20    -0.0000    -0.0000     0.8450     0.0000     30.000   1073.000 223168.000     32.343    41.5367   128.8289   -26.1570    -1.9995     0.0007    26.0000     4.0000     9.0000    22.0000    26.0000    10.0000     5.0000    20.0000     3.0015     1.0000    -0.4941    20.7743    41.5368     1.1951    14.4503    14.4502     1.7072     0.0000     1.0000     0.0418     0.000
     21     0.0000    -0.0000     0.8500     0.0000     30.000   1090.000 223238.000     32.353    41.5367   128.7496   -26.3128    -1.9995     0.0007    26.0000     4.0000     9.0000    22.0000    26.0000    10.0000     5.0000    20.0000     3.0015     1.0000    -0.4941    20.7742    41.5368     1.2021    14.4503    14.4502     1.7072     0.0000     1.0000     0.0418     0.000
     22     0.0000     0.0000     0.8549     0.0000     30.000   1105.000 224073.000     32.474    41.5367   128.6701   -26.4686    -1.9995     0.0007    26.0000     4.0000     9.0000    22.0000    26.0000    10.0000     5.0000    20.0000     3.0015     1.0000    -0.4941    20.7742    41.5367     1.2091    14.4503    14.4503     1.7072     0.0000     1.0000     0.0418     0.000
     23     0.0000     0.0000     0.8599     0.0000     30.000   1104.000 223793.000     32.434    41.5367   128.5918   -26.6260    -1.9995     0.0007    26.0000     4.0000     9.0000    22.0000    26.0000    10.0000     5.0000    20.0000     3.0015     1.0000    -0.4942    20.7742    41.5367     1.2162    14.4503    14.4503     1.7071     0.0000     1.0000     0.0418     0.000
     24     0.0000     0.0000     0.8649     0.0000     30.000   1056.000 224751.000     32.573    41.5367   128.5132   -26.7833    -1.9995     0.0007    26.0000     4.0000     9.0000    22.0000    26.0000    10.0000     5.0000    20.0000     3.0015     1.0000    -0.4942    20.7742    41.5367     1.2232    14.4503    14.4503     1.7072     0.0000     1.0000     0.0418     0.000
     25     0.0000    -0.0000     0.8700     0.0001     30.000   1128.000 223478.000     32.388    41.5367   128.4345   -26.9426    -1.9995     0.0007    26.0000     4.0000     9.0000    22.0000    26.0000    10.0000     5.0000    20.0000     3.0015     1.0000    -0.4942    20.7742    41.5368     1.2304    14.4503    14.4502     1.7071     0.0000     1.0000     0.0418     0.000
     26     0.0000    -0.0000     0.8750     0.0000     30.000   1062.000 223898.000     32.449    41.5367   128.3557   -27.1006    -1.9995     0.0007    26.0000     4.0000     9.0000    22.0000    26.0000    10.0000     5.0000    20.0000     3.0014     1.0000    -0.4943    20.7742    41.5367     1.2375    14.4503    14.4503     1.7070     0.0000     1.0000     0.0418     0.000
     27     0.0000    -0.0000     0.8800     0.0001     30.000   1057.000 222774.000     32.286    41.5367   128.2768   -27.2584    -1.9995     0.0007    26.0000     4.0000     9.0000    22.0000    26.0000    10.0000     5.0000    20.0000     3.0014     1.0000    -0.4943    20.7741    41.5368     1.2445    14.4503    14.4502     1.7070     0.0000     1.0000     0.0418     0.000
     28    -0.0000    -0.0000     0.8850     0.0000     30.000   1140.000 225039.000     32.614    41.5367   128.1980   -27.4180    -1.9995     0.0007    26.0000     4.0000     9.0000    22.0000    26.0000    10.0000     5.0000    20.0000     3.0014     1.0000    -0.4944    20.7741    41.5368     1.2517    14.4503    14.4502     1.7070     0.0000     1.0000     0.0419     0.000
     29    -0.0000    -0.0000     0.8900     0.0000     30.000   1130.000 224340.000     32.513    41.5367   128.1189   -27.5755    -1.9995     0.0007    26.0000     4.0000     9.0000    22.0000    26.0000    10.0000     5.0000    20.0000     3.0014     1.0000    -0.4944    20.7742    41.5368     1.2587    14.4503    14.4502     1.7069     0.0000     1.0000     0.0419     0.000
     30    -0.0000    -0.0000     0.8951     0.0000     30.000   1088.000 223441.000     32.383    41.5367   128.0399   -27.7353    -1.9995     0.0007    26.0000     4.0000     9.0000    22.0000    26.0000    10.0000     5.0000    20.0000     3.0014     1.0000    -0.4945    20.7741    41.5368     1.2659    14.4503    14.4502     1.7069     0.0000     1.0000     0.0418     0.000
     31    -0.0000    -0.0000     0.9000     0.0001     30.000   1047.000 223780.000     32.432    41.5367   127.9606   -27.8925    -1.9995     0.0007    26.0000     4.0000     9.0000    22.0000    26.0000    10.0000     5.0000    20.0000     3.0014     1.0000    -0.4945    20.7741    41.5368     1.2729    14.4503    14.4502     1.7069     0.0000     1.0000     0.0418     0.000
     32    -0.0000    -0.0000     0.9050     0.0000     30.000    965.000 223838.000     32.440    41.5367   127.8816   -28.0499    -1.9995     0.0007    26.0000     4.0000     9.0000    22.0000    26.0000    10.0000     5.0000    20.0000     3.0014     1.0000    -0.4945    20.7741    41.5367     1.2800    14.4503    14.4503     1.7069     0.0000     1.0000     0.0418     0.000
     33     0.0000     0.0000     0.9099     0.0000     30.000    996.000 224001.000     32.464    41.5367   127.8025   -28.2046    -1.9995     0.0007    26.0000     4.0000     9.0000    22.0000    26.0000    10.0000     5.0000    20.0000     3.0014     1.0000    -0.4945    20.7741    41.5367     1.2869    14.4503    14.4503     1.7069     0.0000     1.0000     0.0417     0.000
     34     0.0000     0.0000     0.9149     0.0000     30.000    992.000 223796.000     32.434    41.5367   127.7235   -28.3638    -1.9995     0.0007    26.0000     4.0000     9.0000    22.0000    26.0000    10.0000     5.0000    20.0000     3.0014     1.0000    -0.4945    20.7741    41.5368     1.2940    14.4503    14.4502     1.7068     0.0000     1.0000     0.0417     0.000
     35     0.0000     0.0000     0.9200     0.0000     30.000    998.000 223425.000     32.380    41.5367   127.6441   -28.5229    -1.9995     0.0007    26.0000     4.0000     9.0000    22.0000    26.0000    10.0000     5.0000    20.0000     3.0014     1.0000    -0.4946    20.7741    41.5368     1.3011    14.4503    14.4502     1.7067     0.0000     1.0000     0.0417     0.000
     36     0.0000    -0.0000     0.9250     0.0000     30.000   1085.000 223587.000     32.404    41.5367   127.5646   -28.6832    -1.9995     0.0007    26.0000     4.0000     9.0000    22.0000    26.0000    10.0000     5.0000    20.0000     3.0014     1.0000    -0.4946    20.7741    41.5367     1.3083    14.4503    14.4503     1.7067     0.0000     1.0000     0.0417     0.000
     37     0.0000     0.0000     0.9299     0.0000     30.000   1012.000 223085.000     32.331    41.5367   127.4858   -28.8389    -1.9995     0.0007    26.0000     4.0000     9.0000    22.0000    26.0000    10.0000     5.0000    20.0000     3.0014     1.0000    -0.4947    20.7741    41.5367     1.3152    14.4503    14.4503     1.7067     0.0000     1.0000     0.0417     0.000
     38    -0.0000    -0.0000     0.9350     0.0000     30.000    971.000 223652.000     32.413    41.5367   127.4068   -29.0005    -1.9995     0.0007    26.0000     4.0000     9.0000    22.0000    26.0000    10.0000     5.0000    20.0000     3.0014     1.0000    -0.4946    20.7740    41.5367     1.3224    14.4503    14.4503     1.7067     0.0000     1.0000     0.0417     0.000
     39    -0.0000    -0.0000     0.9400     0.0000     30.000   1026.000 223857.000     32.443    41.5367   127.3278   -29.1579    -1.9995     0.0007    26.0000     4.0000     9.0000    22.0000    26.0000    10.0000     5.0000    20.0000     3.0014     1.0000    -0.4948    20.7741    41.5367     1.3294    14.4503    14.4503     1.7067     0.0000     1.0000     0.0416     0.000
     40    -0.0000    -0.0000     0.9451     0.0000     30.000    973.000 223830.000     32.439    41.5367   127.2483   -29.3193    -1.9995     0.0007    26.0000     4.0000     9.0000    22.0000    26.0000    10.0000     5.0000    20.0000     3.0014     1.0000    -0.4948    20.7740    41.5367     1.3366    14.4503    14.4503     1.7067     0.0000     1.0000     0.0416     0.000
     41     0.0000     0.0000     0.9499     0.0000     30.000    947.000 223629.000     32.410    41.5367   127.1691   -29.4708    -1.9995     0.0007    26.0000     4.0000     9.0000    22.0000    26.0000    10.0000     5.0000    20.0000     3.0014     1.0000    -0.4949    20.7741    41.5367     1.3434    14.4503    14.4503     1.7067     0.0000     1.0000     0.0416     0.000
     42    -0.0000    -0.0000     0.9550     0.0000     30.000    983.000 223815.000     32.437    41.5367   127.0898   -29.6345    -1.9995     0.0007    26.0000     4.0000     9.0000    22.0000    26.0000    10.0000     5.0000    20.0000     3.0014     1.0000    -0.4949    20.7740    41.5367     1.3507    14.4503    14.4503     1.7067     0.0000     1.0000     0.0416     0.000
     43     0.0000    -0.0000     0.9600    -0.0000     30.000    974.000 224226.000     32.497    41.5367   127.0104   -29.7917    -1.9995     0.0007    26.0000     4.0000     9.0000    22.0000    26.0000    10.0000     5.0000    20.0000     3.0014     1.0000    -0.4948    20.7740    41.5367     1.3577    14.4503    14.4503     1.7067     0.0000     1.0000     0.0416     0.000
     44     0.0000     0.0000     0.9650    -0.0000     30.000    982.000 223095.000     32.333    41.5367   126.9310   -29.9498    -1.9995     0.0007    26.0000     4.0000     9.0000    22.0000    26.0000    10.0000     5.0000    20.0000     3.0013     1.0000    -0.4949    20.7741    41.5367     1.3647    14.4503    14.4503     1.7066     0.0000     1.0000     0.0416     0.000
     45     0.0000     0.0000     0.9700    -0.0000     30.000    919.000 224699.000     32.565    41.5367   126.8513   -30.1094    -1.9995     0.0007    26.0000     4.0000     9.0000    22.0000    26.0000    10.0000     5.0000    20.0000     3.0014     1.0000    -0.4949    20.7740    41.5367     1.3718    14.4503    14.4503     1.7065     0.0000     1.0000     0.0415     0.000
     46     0.0000     0.0000     0.9749     0.0000     30.000   1045.000 223463.000     32.386    41.5367   126.7717   -30.2658    -1.9995     0.0007    26.0000     4.0000     9.0000    22.0000    26.0000    10.0000     5.0000    20.0000     3.0013     1.0000    -0.4950    20.7740    41.5367     1.3788    14.4503    14.4503     1.7065     0.0000     1.0000     0.0416     0.000
     47     0.0000     0.0000     0.9799     0.0000     30.000   1082.000 223666.000     32.415    41.5367   126.6919   -30.4255    -1.9995     0.0007    26.0000     4.0000     9.0000    22.0000    26.0000    10.0000     5.0000    20.0000     3.0013     1.0000    -0.4950    20.7740    41.5367     1.3859    14.4503    14.4503     1.7064     0.0000     1.0000     0.0416     0.000
     48     0.0000     0.0000     0.9849     0.0000     30.000   1440.000 223300.000     32.362    41.5367   126.6125   -30.5850    -1.9995     0.0007    26.0000     4.0000     9.0000    22.0000    26.0000    10.0000     5.0000    20.0000     3.0013     1.0000    -0.4950    20.7740    41.5367     1.3930    14.4503    14.4503     1.7064     0.0000     1.0000     0.0415     0.000
     49     0.0000    -0.0000     0.9900     0.0000     30.000   2141.000 223701.000     32.420    41.5367   126.5330   -30.7463    -1.9995     0.0007    26.0000     4.0000     9.0000    22.0000    26.0000    10.0000     5.0000    20.0000     3.0013     1.0000    -0.4950    20.7740    41.5367     1.4002    14.4503    14.4503     1.7064     0.0000     1.0000     0.0415     0.000
     50    -0.0000    -0.0000     0.9951    -0.0000     30.000   3336.000 223403.000     32.377    41.5367   126.4542   -30.9074    -1.9995     0.0007    26.0000     4.0000     9.0000    22.0000    26.0000    10.0000     5.0000    20.0000     3.0013     1.0000    -0.4950    20.7740    41.5367     1.4073    14.4503    14.4503     1.7063     0.0000     1.0000     0.0415     0.000
     51    -0.0000    -0.0000     1.0001     0.0000     30.000   4246.000 224136.000     32.483    41.5367   126.3740   -31.0670    -1.9995     0.0007    26.0000     4.0000     9.0000    22.0000    26.0000    10.0000     5.0000    20.0000     3.0013     1.0000    -0.4950    20.7739    41.5367     1.4144    14.4503    14.4503     1.7063     0.0000     1.0000     0.0415     0.000
     52     0.0000    -0.0000     1.0050     0.0000     30.000   4188.000 224191.000     32.491    41.5367   126.2946   -31.2234    -1.9995     0.0007    26.0000     4.0000     9.0000    22.0000    26.0000    10.0000     5.0000    20.0000     3.0013     1.0000    -0.4952    20.7740    41.5367     1.4213    14.4503    14.4503     1.7063     0.0000     1.0000     0.0414     0.000
     53    -0.0000    -0.0000     1.0101     0.0000     30.000   3099.000 224477.000     32.533    41.5367   126.2148   -31.3850    -1.9995     0.0007    26.0000     4.0000     9.0000    22.0000    26.0000    10.0000     5.0000    20.0000     3.0013     1.0000    -0.4950    20.7740    41.5367     1.4285    14.4503    14.4503     1.7064     0.0000     1.0000     0.0414     0.000
     54     0.0000     0.0000     1.0149     0.0000     30.000   2021.000 224738.000     32.571    41.5367   126.1355   -31.5398    -1.9995     0.0007    26.0000     4.0000     9.0000    22.0000    26.0000    10.0000     5.0000    20.0000     3.0013     1.0000    -0.4951    20.7740    41.5367     1.4354    14.4503    14.4503     1.7064     0.0000     1.0000     0.0414     0.000
     55    -0.0000    -0.0000     1.0201     0.0000     30.000   1268.000 224213.000     32.495    41.5367   126.0558   -31.7036    -1.9995     0.0007    26.0000     4.0000     9.0000    22.0000    26.0000    10.0000     5.0000    20.0000     3.0013     1.0000    -0.4952    20.7740    41.5367     1.4427    14.4503    14.4503     1.7063     0.0000     1.0000     0.0414     0.000
     56     0.0000     0.0000     1.0249     0.0000     30.000   1056.000 225035.000     32.614    41.5367   125.9759   -31.8589    -1.9995     0.0007    26.0000     4.0000     9.0000    22.0000    26.0000    10.0000     5.0000    20.0000     3.0013     1.0000    -0.4952    20.7739    41.5367     1.4495    14.4503    14.4503     1.7061     0.0000     1.0000     0.0414     0.000
     57     0.0000     0.0000     1.0299     0.0000     30.000    921.000 223675.000     32.417    41.5367   125.8961   -32.0191    -1.9995     0.0007    26.0000     4.0000     9.0000    22.0000    26.0000    10.0000     5.0000    20.0000     3.0012     1.0000    -0.4952    20.7739    41.5367     1.4566    14.4503    14.4503     1.7059     0.0000     1.0000     0.0414     0.000
     58     0.0000     0.0000     1.0350     0.0000     30.000    926.000 223607.000     32.407    41.5367   125.8160   -32.1793    -1.9995     0.0007    26.0000     4.0000     9.0000    22.0000    26.0000    10.0000     5.0000    20.0000     3.0013     1.0000    -0.4953    20.7739    41.5367     1.4637    14.4503    14.4503     1.7059     0.0000     1.0000     0.0414     0.000
     59     0.0000     0.0000     1.0400    -0.0000     30.000    923.000 223926.000     32.453    41.5367   125.7360   -32.3399    -1.9995     0.0007    26.0000     4.0000     9.0000    22.0000    26.0000    10.0000     5.0000    20.0000     3.0013     1.0000    -0.4953    20.7739    41.5367     1.4708    14.4503    14.4503     1.7060     0.0000     1.0000     0.0414     0.000
     60     0.0000     0.0000     1.0450     0.0000     30.000    909.000 224861.000     32.589    41.5367   125.6559   -32.4995    -1.9995     0.0007    26.0000     4.0000     9.0000    22.0000    26.0000    10.0000     5.0000    20.0000     3.0013     1.0000    -0.4953    20.7739    41.5367     1.4779    14.4503    14.4503     1.7060     0.0000     1.0000     0.0414     0.000
     61    -0.0000    -0.0000     1.0501     0.0000     30.000    895.000 224110.000     32.480    41.5367   125.5761   -32.6620    -1.9995     0.0007    26.0000     4.0000     9.0000    22.0000    26.0000    10.0000     5.0000    20.0000     3.0013     1.0000    -0.4952    20.7739    41.5367     1.4851    14.4503    14.4503     1.7060     0.0000     1.0000     0.0414     0.000
     62     0.0000    -0.0000     1.0550     0.0000     30.000    921.000 223518.000     32.394    41.5367   125.4962   -32.8200    -1.9995     0.0007    26.0000     4.0000     9.0000    22.0000    26.0000    10.0000     5.0000    20.0000     3.0013     1.0000    -0.4953    20.7739    41.5367     1.4921    14.4503    14.4503     1.7060     0.0000     1.0000     0.0414     0.000
     63     0.0000     0.0000     1.0599     0.0000     30.000    929.000 223671.000     32.416    41.5367   125.4164   -32.9781    -1.9995     0.0007    26.0000     4.0000     9.0000    22.0000    26.0000    10.0000     5.0000    20.0000     3.0012     1.0000    -0.4953    20.7739    41.5367     1.4991    14.4503    14.4503     1.7060     0.0000     1.0000     0.0415     0.000
     64     0.0000     0.0000     1.0649     0.0000     30.000    920.000 224937.000     32.600    41.5367   125.3366   -33.1378    -1.9995     0.0007    26.0000     4.0000     9.0000    22.0000    26.0000    10.0000     5.0000    20.0000     3.0012     1.0000    -0.4954    20.7739    41.5367     1.5061    14.4503    14.4503     1.7061     0.0000     1.0000     0.0415     0.000
     65     0.0000    -0.0000     1.0700     0.0000     30.000    916.000 223061.000     32.328    41.5367   125.2564   -33.2991    -1.9995     0.0007    26.0000     4.0000     9.0000    22.0000    26.0000    10.0000     5.0000    20.0000     3.0012     1.0000    -0.4954    20.7738    41.5367     1.5133    14.4503    14.4503     1.7062     0.0000     1.0000     0.0414     0.000
     66     0.0000     0.0000     1.0749     0.0000     30.000    923.000 222802.000     32.290    41.5367   125.1764   -33.4571    -1.9995     0.0007    26.0000     4.0000     9.0000    22.0000    26.0000    10.0000     5.0000    20.0000     3.0012     1.0000    -0.4954    20.7739    41.5367     1.5202    14.4503    14.4503     1.7062     0.0000     1.0000     0.0414     0.000
     67     0.0000    -0.0000     1.0800     0.0000     30.000    870.000 224116.000     32.481    41.5367   125.0965   -33.6195    -1.9995     0.0008    26.0000     4.0000     9.0000    22.0000    26.0000    10.0000     5.0000    20.0000     3.0012     1.0000    -0.4954    20.7739    41.5368     1.5274    14.4503    14.4502     1.7063     0.0000     1.0000     0.0414     0.000
     68     0.0000     0.0000     1.0850     0.0000     30.000    922.000 223746.000     32.427    41.5367   125.0163   -33.7793    -1.9995     0.0007    26.0000     4.0000     9.0000    22.0000    26.0000    10.0000     5.0000    20.0000     3.0012     1.0000    -0.4955    20.7739    41.5367     1.5344    14.4503    14.4503     1.7063     0.0000     1.0000     0.0414     0.000
     69    -0.0000    -0.0000     1.0901     0.0000     30.000    873.000 223982.000     32.461    41.5367   124.9361   -33.9427    -1.9995     0.0008    26.0000     4.0000     9.0000    22.0000    26.0000    10.0000     5.0000    20.0000     3.0012     1.0000    -0.4955    20.7739    41.5368     1.5416    14.4503    14.4502     1.7063     0.0000     1.0000     0.0413     0.000
     70    -0.0000    -0.0000     1.0951     0.0000     30.000    918.000 223551.000     32.399    41.5367   124.8558   -34.1032    -1.9995     0.0008    26.0000     4.0000     9.0000    22.0000    26.0000    10.0000     5.0000    20.0000     3.0012     1.0000    -0.4957    20.7739    41.5367     1.5487    14.4503    14.4503     1.7062     0.0000     1.0000     0.0413     0.000
     71    -0.0000    -0.0000     1.1001     0.0000     30.000    841.000 222956.000     32.312    41.5367   124.7751   -34.2646    -1.9995     0.0008    26.0000     4.0000     9.0000    22.0000    26.0000    10.0000     5.0000    20.0000     3.0012     1.0000    -0.4955    20.7739    41.5368     1.5558    14.4503    14.4502     1.7062     0.0000     1.0000     0.0414     0.000
     72    -0.0000    -0.0000     1.1050     0.0000     30.000    861.000 224103.000     32.479    41.5367   124.6947   -34.4234    -1.9995     0.0008    26.0000     4.0000     9.0000    22.0000    26.0000    10.0000     5.0000    20.0000     3.0012     1.0000    -0.4956    20.7739    41.5368     1.5628    14.4503    14.4502     1.7061     0.0000     1.0000     0.0413     0.000
     73     0.0000    -0.0000     1.1100     0.0000     30.000    858.000 224122.000     32.481    41.5367   124.6143   -34.5835    -1.9995     0.0008    26.0000     4.0000     9.0000    22.0000    26.0000    10.0000     5.0000    20.0000     3.0012     1.0000    -0.4957    20.7739    41.5367     1.5699    14.4503    14.4503     1.7061     0.0000     1.0000     0.0413     0.000
     74     0.0000     0.0000     1.1149     0.0000     30.000    903.000 223146.000     32.340    41.5367   124.5339   -34.7412    -1.9995     0.0008    26.0000     4.0000     9.0000    22.0000    26.0000    10.0000     5.0000    20.0000     3.0012     1.0000    -0.4956    20.7738    41.5368     1.5768    14.4503    14.4502     1.7060     0.0000     1.0000     0.0413     0.000
     75     0.0000     0.0000     1.1199     0.0000     30.000    842.000 224454.000     32.530    41.5367   124.4541   -34.9018    -1.9995     0.0008    26.0000     4.0000     9.0000    22.0000    26.0000    10.0000     5.0000    20.0000     3.0012     1.0000    -0.4957    20.7739    41.5367     1.5839    14.4503    14.4503     1.7059     0.0000     1.0000     0.0413     0.000
     76     0.0000     0.0000     1.1250     0.0000     30.000    837.000 224487.000     32.534    41.5367   124.3735   -35.0645    -1.9995     0.0008    26.0000     4.0000     9.0000    22.0000    26.0000    10.0000     5.0000    20.0000     3.0012     1.0000    -0.4957    20.7739    41.5367     1.5910    14.4503    14.4503     1.7058     0.0000     1.0000     0.0413     0.000
     77     0.0000     0.0000     1.1300     0.0000     30.000    894.000 223815.000     32.437    41.5367   124.2931   -35.2253    -1.9995     0.0008    26.0000     4.0000     9.0000    22.0000    26.0000    10.0000     5.0000    20.0000     3.0012     1.0000    -0.4958    20.7738    41.5367     1.5981    14.4503    14.4503     1.7058     0.0000     1.0000     0.0413     0.000
     78     0.0000    -0.0000     1.1350     0.0000     30.000    891.000 224005.000     32.464    41.5367   124.2126   -35.3874    -1.9995     0.0008    26.0000     4.0000     9.0000    22.0000    26.0000    10.0000     5.0000    20.0000     3.0012     1.0000    -0.4957    20.7738    41.5367     1.6052    14.4503    14.4503     1.7057     0.0000     1.0000     0.0413     0.000
     79    -0.0000    -0.0000     1.1401     0.0000     30.000    843.000 223811.000     32.436    41.5367   124.1325   -35.5506    -1.9995     0.0008    26.0000     4.0000     9.0000    22.0000    26.0000    10.0000     5.0000    20.0000     3.0012     1.0000    -0.4958    20.7738    41.5367     1.6124    14.4503    14.4503     1.7057     0.0000     1.0000     0.0413     0.000
     80    -0.0000    -0.0000     1.1451     0.0000     30.000    889.000 223145.000     32.340    41.5367   124.0517   -35.7122    -1.9995     0.0008    26.0000     4.0000     9.0000    22.0000    26.0000    10.0000     5.0000    20.0000     3.0012     1.0000    -0.4958    20.7738    41.5367     1.6195    14.4503    14.4503     1.7056     0.0000     1.0000     0.0415     0.000
     81    -0.0000    -0.0000     1.1501     0.0000     30.000    845.000 224161.000     32.487    41.5367   123.9712   -35.8746    -1.9995     0.0008    26.0000     4.0000     9.0000    22.0000    26.0000    10.0000     5.0000    20.0000     3.0012     1.0000    -0.4958    20.7738    41.5367     1.6266    14.4503    14.4503     1.7056     0.0000     1.0000     0.0415     0.000
     82     0.0000     0.0000     1.1550     0.0000     30.000    860.000 224311.000     32.509    41.5367   123.8900   -36.0313    -1.9995     0.0008    26.0000     4.0000     9.0000    22.0000    26.0000    10.0000     5.0000    20.0000     3.0012     1.0000    -0.4958    20.7739    41.5367     1.6335    14.4503    14.4503     1.7055     0.0000     1.0000     0.0415     0.000
     83    -0.0000    -0.0000     1.1600     0.0000     30.000    846.000 224007.000     32.465    41.5367   123.8094   -36.1953    -1.9995     0.0008    26.0000     4.0000     9.0000    22.0000    26.0000    10.0000     5.0000    20.0000     3.0012     1.0000    -0.4958    20.7739    41.5367     1.6406    14.4503    14.4503     1.7055     0.0000     1.0000     0.0414     0.000
     84     0.0000     0.0000     1.1650     0.0000     30.000    844.000 223404.000     32.377    41.5367   123.7285   -36.3539    -1.9995     0.0008    26.0000     4.0000     9.0000    22.0000    26.0000    10.0000     5.0000    20.0000     3.0011     1.0000    -0.4958    20.7738    41.5367     1.6476    14.4503    14.4503     1.7054     0.0000     1.0000     0.0414     0.000
     85     0.0000     0.0000     1.1700    -0.0000     30.000    864.000 223312.000     32.364    41.5367   123.6476   -36.5157    -1.9995     0.0008    26.0000     4.0000     9.0000    22.0000    26.0000    10.0000     5.0000    20.0000     3.0011     1.0000    -0.4958    20.7739    41.5367     1.6547    14.4503    14.4503     1.7054     0.0000     1.0000     0.0413     0.000
     86     0.0000     0.0000     1.1749     0.0000     30.000    822.000 223349.000     32.369    41.5367   123.5668   -36.6764    -1.9995     0.0008    26.0000     4.0000     9.0000    22.0000    26.0000    10.0000     5.0000    20.0000     3.0011     1.0000    -0.4958    20.7738    41.5367     1.6617    14.4503    14.4503     1.7053     0.0000     1.0000     0.0413     0.000
     87     0.0000     0.0000     1.1800     0.0000     30.000    831.000 223131.000     32.338    41.5367   123.4862   -36.8386    -1.9995     0.0008    26.0000     4.0000     9.0000    22.0000    26.0000    10.0000     5.0000    20.0000     3.0011     1.0000    -0.4958    20.7738    41.5367     1.6688    14.4503    14.4503     1.7053     0.0000     1.0000     0.0415     0.000
     88     0.0000     0.0000     1.1849     0.0000     30.000    849.000 224096.000     32.478    41.5367   123.4052   -36.9999    -1.9995     0.0008    26.0000     4.0000     9.0000    22.0000    26.0000    10.0000     5.0000    20.0000     3.0011     1.0000    -0.4959    20.7738    41.5367     1.6759    14.4503    14.4503     1.7053     0.0000     1.0000     0.0415     0.000
     89     0.0000     0.0000     1.1900    -0.0000     30.000    849.000 223814.000     32.437    41.5367   123.3249   -37.1621    -1.9995     0.0008    26.0000     4.0000     9.0000    22.0000    26.0000    10.0000     5.0000    20.0000     3.0011     1.0000    -0.4959    20.7738    41.5367     1.6829    14.4503    14.4503     1.7052     0.0000     1.0000     0.0414     0.000
     90    -0.0000    -0.0000     1.1951     0.0000     30.000    844.000 223863.000     32.444    41.5367   123.2436   -37.3282    -1.9995     0.0008    26.0000     4.0000     9.0000    22.0000    26.0000    10.0000     5.0000    20.0000     3.0011     1.0000    -0.4959    20.7738    41.5367     1.6902    14.4503    14.4503     1.7051     0.0000     1.0000     0.0414     0.000
     91    -0.0000    -0.0000     1.2000     0.0000     30.000    810.000 224694.000     32.564    41.5367   123.1628   -37.4889    -1.9995     0.0008    26.0000     4.0000     9.0000    22.0000    26.0000    10.0000     5.0000    20.0000     3.0011     1.0000    -0.4959    20.7738    41.5367     1.6972    14.4503    14.4503     1.7051     0.0000     1.0000     0.0414     0.000
     92    -0.0000    -0.0000     1.2051     0.0000     30.000    851.000 223482.000     32.389    41.5367   123.0824   -37.6516    -1.9995     0.0008    26.0000     4.0000     9.0000    22.0000    26.0000    10.0000     5.0000    20.0000     3.0011     1.0000    -0.4959    20.7738    41.5367     1.7043    14.4503    14.4503     1.7050     0.0000     1.0000     0.0414     0.000
     93    -0.0000    -0.0000     1.2100     0.0000     30.000    810.000 223824.000     32.438    41.5367   123.0008   -37.8131    -1.9995     0.0008    26.0000     4.0000     9.0000    22.0000    26.0000    10.0000     5.0000    20.0000     3.0011     1.0000    -0.4961    20.7738    41.5367     1.7114    14.4503    14.4503     1.7049     0.0000     1.0000     0.0413     0.000
     94     0.0000    -0.0000     1.2150    -0.0000     30.000    865.000 224020.000     32.467    41.5367   122.9194   -37.9739    -1.9995     0.0008    26.0000     4.0000     9.0000    22.0000    26.0000    10.0000     5.0000    20.0000     3.0011     1.0000    -0.4959    20.7738    41.5367     1.7184    14.4503    14.4503     1.7049     0.0000     1.0000     0.0413     0.000
     95     0.0000    -0.0000     1.2200     0.0000     30.000    786.000 223999.000     32.464    41.5367   122.8387   -38.1351    -1.9995     0.0008    26.0000     4.0000     9.0000    22.0000    26.0000    10.0000     5.0000    20.0000     3.0011     1.0000    -0.4961    20.7738    41.5367     1.7254    14.4503    14.4503     1.7048     0.0000     1.0000     0.0413     0.000
     96     0.0000     0.0000     1.2250    -0.0000     30.000    839.000 224086.000     32.476    41.5367   122.7570   -38.2973    -1.9995     0.0008    26.0000     4.0000     9.0000    22.0000    26.0000    10.0000     5.0000    20.0000     3.0011     1.0000    -0.4961    20.7738    41.5367     1.7324    14.4503    14.4503     1.7048     0.0000     1.0000     0.0413     0.000
     97     0.0000     0.0000     1.2300     0.0000     30.000    827.000 224672.000     32.561    41.5367   122.6753   -38.4611    -1.9995     0.0008    26.0000     4.0000     9.0000    22.0000    26.0000    10.0000     5.0000    20.0000     3.0011     1.0000    -0.4960    20.7738    41.5367     1.7396    14.4503    14.4503     1.7048     0.0000     1.0000     0.0414     0.000
     98     0.0000     0.0000     1.2350     0.0000     30.000    861.000 223669.000     32.416    41.5367   122.5944   -38.6234    -1.9995     0.0008    26.0000     4.0000     9.0000    22.0000    26.0000    10.0000     5.0000    20.0000     3.0011     1.0000    -0.4960    20.7738    41.5367     1.7466    14.4503    14.4503     1.7048     0.0000     1.0000     0.0413     0.000
     99     0.0000     0.0000     1.2400    -0.0000     30.000    789.000 224005.000     32.464    41.5367   122.5130   -38.7855    -1.9995     0.0008    26.0000     4.0000     9.0000    22.0000    26.0000    10.0000     5.0000    20.0000     3.0011     1.0000    -0.4962    20.7738    41.5367     1.7537    14.4503    14.4503     1.7048     0.0000     1.0000     0.0413     0.000
    100    -0.0000    -0.0000     1.2450     0.0000     30.000    840.000 225076.000     32.620    41.5367   122.4324   -38.9493    -1.9995     0.0008    26.0000     4.0000     9.0000    22.0000    26.0000    10.0000     5.0000    20.0000     3.0011     1.0000    -0.4961    20.7738    41.5367     1.7608    14.4503    14.4503     1.7048     0.0000     1.0000     0.0414     0.000
    101    -0.0000    -0.0000     1.2501     0.0002     30.000    792.000 223924.000     32.453    41.5367   122.3507   -39.1139    -1.9995     0.0008    26.0000     4.0000     9.0000    22.0000    26.0000    10.0000     5.0000    20.0000     3.0010     1.0000    -0.4962    20.7739    41.5370     1.7680    14.4503    14.4501     1.7048     0.0000     1.0000     0.0414     0.000
    102    -0.0000    -0.0000     1.2551     0.0000     30.000    785.000 225182.000     32.635    41.5367   122.2689   -39.2767    -1.9995     0.0008    26.0000     4.0000     9.0000    22.0000    26.0000    10.0000     5.0000    20.0000     3.0010     1.0000    -0.4962    20.7738    41.5367     1.7750    14.4503    14.4503     1.7048     0.0000     1.0000     0.0412     0.000
    103    -0.0000    -0.0000     1.2600     0.0000     30.000    834.000 223932.000     32.454    41.5367   122.1878   -39.4380    -1.9995     0.0008    26.0000     4.0000     9.0000    22.0000    26.0000    10.0000     5.0000    20.0000     3.0011     1.0000    -0.4961    20.7738    41.5367     1.7820    14.4503    14.4503     1.7048     0.0000     1.0000     0.0412     0.000
    104     0.0000    -0.0000     1.2649     0.0002     30.000    859.000 224340.000     32.513    41.5367   122.1065   -39.5988    -1.9995     0.0008    26.0000     4.0000     9.0000    22.0000    26.0000    10.0000     5.0000    20.0000     3.0011     1.0000    -0.4962    20.7738    41.5369     1.7890    14.4503    14.4501     1.7048     0.0000     1.0000     0.0414     0.000
    105     0.0000     0.0000     1.2699    -0.0000     30.000    879.000 223935.000     32.454    41.5367   122.0247   -39.7611    -1.9995     0.0008    26.0000     4.0000     9.0000    22.0000    26.0000    10.0000     5.0000    20.0000     3.0011     1.0000    -0.4963    20.7738    41.5367     1.7960    14.4503    14.4503     1.7048     0.0000     1.0000     0.0414     0.000
    106    -0.0000    -0.0000     1.2750     0.0002     30.000    798.000 224416.000     32.524    41.5367   121.9437   -39.9265    -1.9995     0.0008    26.0000     4.0000     9.0000    22.0000    26.0000    10.0000     5.0000    20.0000     3.0010     1.0000    -0.4962    20.7738    41.5369     1.8032    14.4503    14.4501     1.7047     0.0000     1.0000     0.0413     0.000
    107     0.0000     0.0000     1.2799     0.0003     30.000    863.000 224213.000     32.495    41.5367   121.8615   -40.0862    -1.9995     0.0008    26.0000     4.0000     9.0000    22.0000    26.0000    10.0000     5.0000    20.0000     3.0010     1.0000    -0.4963    20.7738    41.5371     1.8101    14.4503    14.4500     1.7048     0.0000     1.0000     0.0413     0.000
    108     0.0000     0.0000     1.2850     0.0001     30.000    821.000 224073.000     32.474    41.5367   121.7796   -40.2520    -1.9995     0.0008    26.0000     4.0000     9.0000    22.0000    26.0000    10.0000     5.0000    20.0000     3.0010     1.0000    -0.4964    20.7738    41.5368     1.8173    14.4503    14.4502     1.7048     0.0000     1.0000     0.0414     0.000
    109     0.0000    -0.0000     1.2900     0.0001     30.000    766.000 224647.000     32.558    41.5367   121.6978   -40.4164    -1.9995     0.0008    26.0000     4.0000     9.0000    22.0000    26.0000    10.0000     5.0000    20.0000     3.0010     1.0000    -0.4963    20.7738    41.5368     1.8244    14.4503    14.4502     1.7047     0.0000     1.0000     0.0414     0.000
    110     0.0002     0.0002     1.2950     0.0001     30.000    794.000 224917.000     32.597    41.5367   121.6078   -40.5808    -1.9995     0.0008    26.0000     4.0000     9.0000    22.0000    26.0000    10.0000     5.0000    20.0000     3.0010     1.0000    -0.4963    20.7738    41.5368     1.8315    14.4503    14.4502     1.7046     0.0000     1.0000     0.0414     0.000
    111    -0.0000    -0.0000     1.3001     0.0000     30.000    799.000 223666.000     32.415    41.5367   121.5340   -40.7461    -1.9995     0.0008    26.0000     4.0000     9.0000    22.0000    26.0000    10.0000     5.0000    20.0000     3.0010     1.0000    -0.4963    20.7738    41.5367     1.8387    14.4503    14.4503     1.7046     0.0000     1.0000     0.0413     0.000
    112    -0.0000    -0.0000     1.3050    -0.0000     30.000    786.000 223938.000     32.455    41.5367   121.4530   -40.9092    -1.9995     0.0008    26.0000     4.0000     9.0000    22.0000    26.0000    10.0000     5.0000    20.0000     3.0010     1.0000    -0.4962    20.7738    41.5367     1.8457    14.4503    14.4503     1.7045     0.0000     1.0000     0.0413     0.000
    113    -0.0000    -0.0000     1.3100     0.0000     30.000    836.000 224208.000     32.494    41.5367   121.3705   -41.0729    -1.9995     0.0008    26.0000     4.0000     9.0000    22.0000    26.0000    10.0000     5.0000    20.0000     3.0010     1.0000    -0.4963    20.7738    41.5367     1.8528    14.4503    14.4503     1.7044     0.0000     1.0000     0.0413     0.000
    114     0.0000     0.0000     1.3149     0.0000     30.000    871.000 224091.000     32.477    41.5367   121.2887   -41.2327    -1.9995     0.0008    26.0000     4.0000     9.0000    22.0000    26.0000    10.0000     5.0000    20.0000     3.0010     1.0000    -0.4963    20.7738    41.5367     1.8597    14.4503    14.4503     1.7044     0.0000     1.0000     0.0413     0.000
    115     0.0000     0.0000     1.3199    -0.0000     30.000    775.000 224670.000     32.561    41.5367   121.2068   -41.3962    -1.9995     0.0008    26.0000     4.0000     9.0000    22.0000    26.0000    10.0000     5.0000    20.0000     3.0010     1.0000    -0.4964    20.7738    41.5367     1.8667    14.4503    14.4503     1.7042     0.0000     1.0000     0.0415     0.000
    116     0.0000     0.0000     1.3249    -0.0000     30.000    793.000 224157.000     32.487    41.5367   121.1251   -41.5606    -1.9995     0.0008    26.0000     4.0000     9.0000    22.0000    26.0000    10.0000     5.0000    20.0000     3.0010     1.0000    -0.4964    20.7737    41.5367     1.8738    14.4503    14.4503     1.7041     0.0000     1.0000     0.0415     0.000
    117     0.0002     0.0002     1.3300    -0.0000     30.000    829.000 223757.000     32.429    41.5367   121.0328   -41.7274    -1.9995     0.0008    26.0000     4.0000     9.0000    22.0000    26.0000    10.0000     5.0000    20.0000     3.0010     1.0000    -0.4965    20.7738    41.5367     1.8810    14.4503    14.4503     1.7042     0.0000     1.0000     0.0413     0.000
    118     0.0002     0.0002     1.3350     0.0001     30.000    772.000 224974.000     32.605    41.5367   120.9504   -41.8913    -1.9995     0.0008    26.0000     4.0000     9.0000    22.0000    26.0000    10.0000     5.0000    20.0000     3.0010     1.0000    -0.4964    20.7738    41.5368     1.8881    14.4503    14.4502     1.7043     0.0000     1.0000     0.0413     0.000
    119    -0.0000    -0.0000     1.3400     0.0002     30.000    808.000 223971.000     32.460    41.5367   120.8787   -42.0575    -1.9995     0.0008    26.0000     4.0000     9.0000    22.0000    26.0000    10.0000     5.0000    20.0000     3.0010     1.0000    -0.4966    20.7738    41.5369     1.8952    14.4503    14.4501     1.7044     0.0000     1.0000     0.0415     0.000
    120    -0.0001    -0.0001     1.3452     0.0003     30.000    798.000 223932.000     32.454    41.5367   120.7961   -42.2259    -1.9995     0.0008    26.0000     4.0000     9.0000    22.0000    26.0000    10.0000     5.0000    20.0000     3.0010     1.0000    -0.4966    20.7737    41.5371     1.9024    14.4503    14.4500     1.7043     0.0000     1.0000     0.0415     0.000
    121     0.0000    -0.0000     1.3500    -0.0000     30.000    784.000 224941.000     32.600    41.5367   120.7138   -42.3847    -1.9995     0.0008    26.0000     4.0000     9.0000    22.0000    26.0000    10.0000     5.0000    20.0000     3.0010     1.0000    -0.4966    20.7738    41.5366     1.9093    14.4503    14.4503     1.7044     0.0000     1.0000     0.0414     0.000
    122    -0.0001    -0.0001     1.3552     0.0003     30.000    794.000 224309.000     32.509    41.5367   120.6309   -42.5554    -1.9995     0.0008    26.0000     4.0000     9.0000    22.0000    26.0000    10.0000     5.0000    20.0000     3.0010     1.0000    -0.4966    20.7738    41.5372     1.9166    14.4503    14.4500     1.7044     0.0000     1.0000     0.0413     0.000
    123     0.0002     0.0002     1.3600     0.0001     30.000    763.000 224524.000     32.540    41.5367   120.5376   -42.7154    -1.9995     0.0008    26.0000     4.0000     9.0000    22.0000    26.0000    10.0000     5.0000    20.0000     3.0010     1.0000    -0.4967    20.7738    41.5369     1.9235    14.4503    14.4502     1.7045     0.0000     1.0000     0.0413     0.000
    124     0.0001     0.0001     1.3650     0.0001     30.000    766.000 224623.000     32.554    41.5367   120.4601   -42.8790    -1.9995     0.0008    26.0000     4.0000     9.0000    22.0000    26.0000    10.0000     5.0000    20.0000     3.0010     1.0000    -0.4967    20.7738    41.5368     1.9305    14.4503    14.4502     1.7045     0.0000     1.0000     0.0413     0.000
    125    -0.0000    -0.0000     1.3699     0.0001     30.000    781.000 223495.000     32.391    41.5367   120.3858   -43.0418    -1.9995     0.0008    26.0000     4.0000     9.0000    22.0000    26.0000    10.0000     5.0000    20.0000     3.0010     1.0000    -0.4967    20.7737    41.5368     1.9375    14.4503    14.4502     1.7044     0.0000     1.0000     0.0413     0.000
    126     0.0001     0.0001     1.3750     0.0001     30.000    768.000 223918.000     32.452    41.5367   120.2958   -43.2076    -1.9995     0.0008    26.0000     4.0000     9.0000    22.0000    26.0000    10.0000     5.0000    20.0000     3.0009     1.0000    -0.4967    20.7737    41.5368     1.9446    14.4503    14.4502     1.7044     0.0000     1.0000     0.0415     0.000
    127     0.0000     0.0000     1.3799     0.0000     30.000    813.000 224209.000     32.494    41.5367   120.2196   -43.3715    -1.9995     0.0008    26.0000     4.0000     9.0000    22.0000    26.0000    10.0000     5.0000    20.0000     3.0009     1.0000    -0.4967    20.7737    41.5368     1.9516    14.4503    14.4502     1.7043     0.0000     1.0000     0.0415     0.000
    128     0.0000    -0.0000     1.3850     0.0000     30.000    819.000 223610.000     32.407    41.5367   120.1371   -43.5380    -1.9995     0.0008    26.0000     4.0000     9.0000    22.0000    26.0000    10.0000     5.0000    20.0000     3.0010     1.0000    -0.4967    20.7738    41.5367     1.9587    14.4503    14.4503     1.7043     0.0000     1.0000     0.0416     0.000
    129    -0.0000    -0.0000     1.3900     0.0000     30.000    799.000 224428.000     32.526    41.5367   120.0547   -43.7039    -1.9995     0.0008    26.0000     4.0000     9.0000    22.0000    26.0000    10.0000     5.0000    20.0000     3.0010     1.0000    -0.4966    20.7737    41.5367     1.9658    14.4503    14.4503     1.7043     0.0000     1.0000     0.0416     0.000
    130    -0.0000    -0.0000     1.3950     0.0000     30.000    747.000 224727.000     32.569    41.5367   119.9715   -43.8712    -1.9995     0.0008    26.0000     4.0000     9.0000    22.0000    26.0000    10.0000     5.0000    20.0000     3.0010     1.0000    -0.4967    20.7738    41.5367     1.9730    14.4503    14.4503     1.7043     0.0000     1.0000     0.0413     0.000
    131    -0.0000    -0.0000     1.4001     0.0000     30.000    800.000 224773.000     32.576    41.5367   119.8889   -44.0382    -1.9995     0.0008    26.0000     4.0000     9.0000    22.0000    26.0000    10.0000     5.0000    20.0000     3.0010     1.0000    -0.4966    20.7737    41.5367     1.9801    14.4503    14.4503     1.7042     0.0000     1.0000     0.0413     0.000
    132    -0.0000    -0.0000     1.4051     0.0000     30.000    790.000 224341.000     32.513    41.5367   119.8062   -44.2041    -1.9995     0.0008    26.0000     4.0000     9.0000    22.0000    26.0000    10.0000     5.0000    20.0000     3.0009     1.0000    -0.4966    20.7738    41.5367     1.9872    14.4503    14.4503     1.7042     0.0000     1.0000     0.0415     0.000
    133    -0.0000    -0.0000     1.4100     0.0000     30.000    792.000 223961.000     32.458    41.5367   119.7232   -44.3678    -1.9995     0.0008    26.0000     4.0000     9.0000    22.0000    26.0000    10.0000     5.0000    20.0000     3.0010     1.0000    -0.4967    20.7738    41.5367     1.9942    14.4503    14.4503     1.7042     0.0000     1.0000     0.0415     0.000
    134     0.0000     0.0000     1.4150     0.0000     30.000    801.000 224356.000     32.515    41.5367   119.6397   -44.5312    -1.9995     0.0008    26.0000     4.0000     9.0000    22.0000    26.0000    10.0000     5.0000    20.0000     3.0009     1.0000    -0.4968    20.7737    41.5368     2.0012    14.4503    14.4502     1.7042     0.0000     1.0000     0.0415     0.000
    135     0.0000     0.0000     1.4200     0.0000     30.000    800.000 224704.000     32.566    41.5367   119.5573   -44.6968    -1.9995     0.0008    26.0000     4.0000     9.0000    22.0000    26.0000    10.0000     5.0000    20.0000     3.0009     1.0000    -0.4968    20.7737    41.5367     2.0082    14.4503    14.4503     1.7041     0.0000     1.0000     0.0416     0.000
    136     0.0002     0.0002     1.4250     0.0000     30.000    786.000 224689.000     32.564    41.5367   119.4672   -44.8633    -1.9995     0.0008    26.0000     4.0000     9.0000    22.0000    26.0000    10.0000     5.0000    20.0000     3.0009     1.0000    -0.4968    20.7738    41.5367     2.0153    14.4503    14.4503     1.7040     0.0000     1.0000     0.0416     0.000
    137     0.0001     0.0001     1.4300     0.0000     30.000    802.000 224878.000     32.591    41.5367   119.3866   -45.0298    -1.9995     0.0008    26.0000     4.0000     9.0000    22.0000    26.0000    10.0000     5.0000    20.0000     3.0009     1.0000    -0.4968    20.7738    41.5367     2.0224    14.4503    14.4503     1.7041     0.0000     1.0000     0.0414     0.000
    138    -0.0001    -0.0001     1.4350     0.0000     30.000    738.000 224340.000     32.513    41.5367   119.3109   -45.1962    -1.9995     0.0008    26.0000     4.0000     9.0000    22.0000    26.0000    10.0000     5.0000    20.0000     3.0009     1.0000    -0.4967    20.7738    41.5367     2.0295    14.4503    14.4503     1.7041     0.0000     1.0000     0.0414     0.000
    139     0.0002     0.0002     1.4400     0.0000     30.000    738.000 223534.000     32.396    41.5367   119.2155   -45.3612    -1.9995     0.0008    26.0000     4.0000     9.0000    22.0000    26.0000    10.0000     5.0000    20.0000     3.0009     1.0000    -0.4969    20.7737    41.5367     2.0365    14.4503    14.4503     1.7040     0.0000     1.0000     0.0416     0.000
    140     0.0001     0.0001     1.4450     0.0000     30.000    812.000 224607.000     32.552    41.5367   119.1382   -45.5293    -1.9995     0.0008    26.0000     4.0000     9.0000    22.0000    26.0000    10.0000     5.0000    20.0000     3.0009     1.0000    -0.4969    20.7737    41.5367     2.0437    14.4503    14.4503     1.7040     0.0000     1.0000     0.0416     0.000
    141    -0.0000    -0.0000     1.4500     0.0000     30.000    790.000 224522.000     32.539    41.5367   119.0602   -45.6960    -1.9995     0.0008    26.0000     4.0000     9.0000    22.0000    26.0000    10.0000     5.0000    20.0000     3.0009     1.0000    -0.4968    20.7737    41.5367     2.0508    14.4503    14.4503     1.7040     0.0000     1.0000     0.0416     0.000
    142    -0.0000    -0.0000     1.4550     0.0000     30.000    760.000 223031.000     32.323    41.5367   118.9758   -45.8628    -1.9995     0.0008    26.0000     4.0000     9.0000    22.0000    26.0000    10.0000     5.0000    20.0000     3.0009     1.0000    -0.4968    20.7737    41.5367     2.0578    14.4503    14.4503     1.7040     0.0000     1.0000     0.0416     0.000
    143    -0.0000    -0.0000     1.4600     0.0000     30.000    781.000 225405.000     32.667    41.5367   118.8924   -46.0287    -1.9995     0.0008    26.0000     4.0000     9.0000    22.0000    26.0000    10.0000     5.0000    20.0000     3.0009     1.0000    -0.4969    20.7737    41.5367     2.0649    14.4503    14.4503     1.7040     0.0000     1.0000     0.0417     0.000
    144     0.0000     0.0000     1.4650     0.0000     30.000    782.000 223586.000     32.404    41.5367   118.8088   -46.1943    -1.9995     0.0008    26.0000     4.0000     9.0000    22.0000    26.0000    10.0000     5.0000    20.0000     3.0009     1.0000    -0.4968    20.7737    41.5367     2.0719    14.4503    14.4503     1.7039     0.0000     1.0000     0.0417     0.000
    145     0.0000     0.0000     1.4699     0.0000     30.000    729.000 224804.000     32.580    41.5367   118.7255   -46.3583    -1.9995     0.0008    26.0000     4.0000     9.0000    22.0000    26.0000    10.0000     5.0000    20.0000     3.0009     1.0000    -0.4969    20.7737    41.5367     2.0788    14.4503    14.4503     1.7044     0.0000     1.0000     0.0416     0.000
    146     0.0002     0.0002     1.4749     0.0000     30.000    835.000 223190.000     32.346    41.5367   118.6342   -46.5259    -1.9995     0.0008    26.0000     4.0000     9.0000    22.0000    26.0000    10.0000     5.0000    20.0000     3.0009     1.0000    -0.4969    20.7737    41.5367     2.0859    14.4503    14.4503     1.7050     0.0000     1.0000     0.0416     0.000
    147    -0.0000    -0.0000     1.4800     0.0000     30.000    807.000 224553.000     32.544    41.5367   118.5601   -46.6953    -1.9995     0.0008    26.0000     4.0000     9.0000    22.0000    26.0000    10.0000     5.0000    20.0000     3.0009     1.0000    -0.4969    20.7737    41.5367     2.0931    14.4503    14.4503     1.7055     0.0000     1.0000     0.0416     0.000
    148     0.0001     0.0000     1.4850     0.0000     30.000    817.000 223601.000     32.406    41.5367   118.4729   -46.8620    -1.9995     0.0008    26.0000     4.0000     9.0000    22.0000    26.0000    10.0000     5.0000    20.0000     3.0009     1.0000    -0.4970    20.7737    41.5368     2.1002    14.4503    14.4502     1.7058     0.0000     1.0000     0.0416     0.000
    149     0.0000     0.0000     1.4900     0.0000     30.000    764.000 225615.000     32.698    41.5367   118.3898   -47.0305    -1.9995     0.0008    26.0000     4.0000     9.0000    22.0000    26.0000    10.0000     5.0000    20.0000     3.0009     1.0000    -0.4970    20.7737    41.5367     2.1073    14.4503    14.4503     1.7058     0.0000     1.0000     0.0416     0.000
    150    -0.0000    -0.0000     1.4950     0.0000     30.000    787.000 224573.000     32.547    41.5367   118.3085   -47.1981    -1.9995     0.0008    26.0000     4.0000     9.0000    22.0000    26.0000    10.0000     5.0000    20.0000     3.0009     1.0000    -0.4968    20.7737    41.5367     2.1144    14.4503    14.4503     1.7060     0.0000     1.0000     0.0416     0.000
    151     0.0001     0.0001     1.5000     0.0000     30.000    747.000 224864.000     32.589    41.5367   118.2197   -47.3664    -1.9995     0.0008    26.0000     4.0000     9.0000    22.0000    26.0000    10.0000     5.0000    20.0000     3.0009     1.0000    -0.4970    20.7737    41.5367     2.1215    14.4503    14.4503     1.7062     0.0000     1.0000     0.0416     0.000
    152     0.0001     0.0001     1.5050     0.0000     30.000    793.000 224635.000     32.556    41.5367   118.1343   -47.5343    -1.9995     0.0008    26.0000     4.0000     9.0000    22.0000    26.0000    10.0000     5.0000    20.0000     3.0009     1.0000    -0.4970    20.7737    41.5367     2.1286    14.4503    14.4503     1.7064     0.0000     1.0000     0.0417     0.000
    153    -0.0001    -0.0001     1.5100     0.0000     30.000    796.000 224417.000     32.524    41.5367   118.0618   -47.7008    -1.9995     0.0008    26.0000     4.0000     9.0000    22.0000    26.0000    10.0000     5.0000    20.0000     3.0008     1.0000    -0.4971    20.7737    41.5367     2.1356    14.4503    14.4503     1.7064     0.0000     1.0000     0.0417     0.000
    154     0.0000     0.0000     1.5149     0.0000     30.000    779.000 224392.000     32.521    41.5367   117.9725   -47.8644    -1.9995     0.0008    26.0000     4.0000     9.0000    22.0000    26.0000    10.0000     5.0000    20.0000     3.0009     1.0000    -0.4970    20.7737    41.5367     2.1425    14.4503    14.4503     1.7066     0.0000     1.0000     0.0416     0.000
    155    -0.0000    -0.0000     1.5200    -0.0000     30.000    764.000 224318.000     32.510    41.5367   117.8884   -48.0367    -1.9995     0.0008    26.0000     4.0000     9.0000    22.0000    26.0000    10.0000     5.0000    20.0000     3.0009     1.0000    -0.4969    20.7738    41.5367     2.1497    14.4503    14.4503     1.7066     0.0000     1.0000     0.0416     0.000
    156    -0.0000    -0.0000     1.5250     0.0000     30.000    735.000 224116.000     32.481    41.5367   117.8049   -48.2044    -1.9995     0.0008    26.0000     4.0000     9.0000    22.0000    26.0000    10.0000     5.0000    20.0000     3.0008     1.0000    -0.4969    20.7737    41.5367     2.1568    14.4503    14.4503     1.7066     0.0000     1.0000     0.0417     0.000
    157     0.0002     0.0002     1.5299     0.0000     30.000    754.000 224756.000     32.573    41.5367   117.7145   -48.3703    -1.9995     0.0008    26.0000     4.0000     9.0000    22.0000    26.0000    10.0000     5.0000    20.0000     3.0009     1.0000    -0.4970    20.7737    41.5367     2.1638    14.4503    14.4503     1.7066     0.0000     1.0000     0.0417     0.000
    158     0.0001     0.0001     1.5350     0.0000     30.000    750.000 223894.000     32.448    41.5367   117.6334   -48.5392    -1.9995     0.0008    26.0000     4.0000     9.0000    22.0000    26.0000    10.0000     5.0000    20.0000     3.0009     1.0000    -0.4969    20.7737    41.5367     2.1709    14.4503    14.4503     1.7066     0.0000     1.0000     0.0416     0.000
    159     0.0000     0.0000     1.5401     0.0000     30.000    736.000 224703.000     32.566    41.5367   117.5500   -48.7107    -1.9995     0.0008    26.0000     4.0000     9.0000    22.0000    26.0000    10.0000     5.0000    20.0000     3.0008     1.0000    -0.4971    20.7737    41.5367     2.1781    14.4503    14.4503     1.7066     0.0000     1.0000     0.0416     0.000
    160    -0.0000    -0.0000     1.5451     0.0000     30.000    759.000 224966.000     32.604    41.5367   117.4667   -48.8804    -1.9995     0.0008    26.0000     4.0000     9.0000    22.0000    26.0000    10.0000     5.0000    20.0000     3.0009     1.0000    -0.4971    20.7737    41.5367     2.1852    14.4503    14.4503     1.7066     0.0000     1.0000     0.0416     0.000
    161     0.0000     0.0000     1.5501     0.0000     30.000    797.000 225259.000     32.646    41.5367   117.3807   -49.0488    -1.9995     0.0008    26.0000     4.0000     9.0000    22.0000    26.0000    10.0000     5.0000    20.0000     3.0009     1.0000    -0.4969    20.7737    41.5367     2.1923    14.4503    14.4503     1.7066     0.0000     1.0000     0.0416     0.000
    162     0.0000     0.0000     1.5551     0.0000     30.000    767.000 224372.000     32.518    41.5367   117.2962   -49.2183    -1.9995     0.0008    26.0000     4.0000     9.0000    22.0000    26.0000    10.0000     5.0000    20.0000     3.0008     1.0000    -0.4972    20.7737    41.5367     2.1994    14.4503    14.4503     1.7067     0.0000     1.0000     0.0416     0.000
    163     0.0001     0.0001     1.5600     0.0000     30.000    797.000 224538.000     32.542    41.5367   117.2105   -49.3834    -1.9995     0.0008    26.0000     4.0000     9.0000    22.0000    26.0000    10.0000     5.0000    20.0000     3.0009     1.0000    -0.4971    20.7737    41.5367     2.2063    14.4503    14.4503     1.7069     0.0000     1.0000     0.0416     0.000
    164    -0.0001    -0.0001     1.5650     0.0000     30.000    746.000 223812.000     32.437    41.5367   117.1359   -49.5519    -1.9995     0.0008    26.0000     4.0000     9.0000    22.0000    26.0000    10.0000     5.0000    20.0000     3.0009     1.0000    -0.4970    20.7737    41.5367     2.2133    14.4503    14.4503     1.7068     0.0000     1.0000     0.0416     0.000
    165     0.0002     0.0002     1.5699     0.0000     30.000    781.000 224389.000     32.520    41.5367   117.0399   -49.7193    -1.9995     0.0008    26.0000     4.0000     9.0000    22.0000    26.0000    10.0000     5.0000    20.0000     3.0009     1.0000    -0.4972    20.7737    41.5367     2.2203    14.4503    14.4503     1.7068     0.0000     1.0000     0.0416     0.000
    166    -0.0000    -0.0000     1.5749     0.0000     30.000    758.000 224501.000     32.536    41.5367   116.9633   -49.8886    -1.9995     0.0008    26.0000     4.0000     9.0000    22.0000    26.0000    10.0000     5.0000    20.0000     3.0009     1.0000    -0.4971    20.7737    41.5367     2.2274    14.4503    14.4503     1.7069     0.0000     1.0000     0.0416     0.000
    167    -0.0001    -0.0001     1.5800     0.0000     30.000    780.000 224770.000     32.575    41.5367   116.8795   -50.0589    -1.9995     0.0008    26.0000     4.0000     9.0000    22.0000    26.0000    10.0000     5.0000    20.0000     3.0009     1.0000    -0.4969    20.7737    41.5367     2.2345    14.4503    14.4503     1.7071     0.0000     1.0000     0.0417     0.000
    168    -0.0001    -0.0001     1.5850     0.0000     30.000    732.000 224489.000     32.535    41.5367   116.7967   -50.2279    -1.9995     0.0008    26.0000     4.0000     9.0000    22.0000    26.0000    10.0000     5.0000    20.0000     3.0008     1.0000    -0.4971    20.7737    41.5367     2.2416    14.4503    14.4503     1.7072     0.0000     1.0000     0.0417     0.000
    169    -0.0001    -0.0001     1.5901     0.0000     30.000    702.000 224675.000     32.562    41.5367   116.7098   -50.4011    -1.9995     0.0008    26.0000     4.0000     9.0000    22.0000    26.0000    10.0000     5.0000    20.0000     3.0008     1.0000    -0.4972    20.7739    41.5368     2.2488    14.4503    14.4502     1.7071     0.0000     1.0000     0.0416     0.000
    170     0.0000     0.0000     1.5950     0.0001     30.000    785.000 225274.000     32.648    41.5367   116.6207   -50.5685    -1.9995     0.0008    26.0000     4.0000     9.0000    22.0000    26.0000    10.0000     5.0000    20.0000     3.0009     1.0000    -0.4971    20.7737    41.5368     2.2558    14.4503    14.4502     1.7070     0.0000     1.0000     0.0416     0.000
    171     0.0003     0.0003     1.6000     0.0000     30.000    765.000 223992.000     32.463    41.5367   116.5248   -50.7391    -1.9995     0.0008    26.0000     4.0000     9.0000    22.0000    26.0000    10.0000     5.0000    20.0000     3.0009     1.0000    -0.4970    20.7737    41.5367     2.2629    14.4503    14.4503     1.7071     0.0000     1.0000     0.0417     0.000
    172     0.0001     0.0001     1.6050     0.0001     30.000    761.000 225061.000     32.618    41.5367   116.4480   -50.9082    -1.9995     0.0008    26.0000     4.0000     9.0000    22.0000    26.0000    10.0000     5.0000    20.0000     3.0009     1.0000    -0.4971    20.7737    41.5369     2.2699    14.4503    14.4502     1.7073     0.0000     1.0000     0.0417     0.000
    173     0.0001     0.0001     1.6100     0.0001     30.000    790.000 223382.000     32.374    41.5367   116.3642   -51.0792    -1.9995     0.0008    26.0000     4.0000     9.0000    22.0000    26.0000    10.0000     5.0000    20.0000     3.0009     1.0000    -0.4972    20.7738    41.5368     2.2771    14.4503    14.4502     1.7073     0.0000     1.0000     0.0417     0.000
    174     0.0000     0.0000     1.6149     0.0002     30.000    735.000 224550.000     32.543    41.5367   116.2813   -51.2460    -1.9995     0.0008    26.0000     4.0000     9.0000    22.0000    26.0000    10.0000     5.0000    20.0000     3.0008     1.0000    -0.4973    20.7737    41.5370     2.2840    14.4503    14.4501     1.7073     0.0000     1.0000     0.0417     0.000
    175     0.0000     0.0000     1.6200     0.0001     30.000    809.000 224007.000     32.465    41.5367   116.1958   -51.4186    -1.9995     0.0008    26.0000     4.0000     9.0000    22.0000    26.0000    10.0000     5.0000    20.0000     3.0008     1.0000    -0.4973    20.7737    41.5368     2.2912    14.4503    14.4502     1.7073     0.0000     1.0000     0.0417     0.000
    176     0.0001     0.0001     1.6250     0.0000     30.000    806.000 223094.000     32.332    41.5367   116.1097   -51.5879    -1.9995     0.0008    26.0000     4.0000     9.0000    22.0000    26.0000    10.0000     5.0000    20.0000     3.0008     1.0000    -0.4973    20.7737    41.5368     2.2982    14.4503    14.4502     1.7074     0.0000     1.0000     0.0416     0.000
    177     0.0000     0.0000     1.6300     0.0000     30.000    782.000 224596.000     32.550    41.5367   116.0254   -51.7590    -1.9995     0.0008    26.0000     4.0000     9.0000    22.0000    26.0000    10.0000     5.0000    20.0000     3.0007     1.0000    -0.4973    20.7737    41.5367     2.3053    14.4503    14.4503     1.7074     0.0000     1.0000     0.0416     0.000
    178     0.0001     0.0001     1.6350     0.0000     30.000    832.000 224678.000     32.562    41.5367   115.9393   -51.9283    -1.9995     0.0008    26.0000     4.0000     9.0000    22.0000    26.0000    10.0000     5.0000    20.0000     3.0008     1.0000    -0.4973    20.7737    41.5367     2.3123    14.4503    14.4503     1.7073     0.0000     1.0000     0.0416     0.000
    179     0.0001     0.0001     1.6400     0.0000     30.000    744.000 224383.000     32.519    41.5367   115.8503   -52.1007    -1.9995     0.0008    26.0000     4.0000     9.0000    22.0000    26.0000    10.0000     5.0000    20.0000     3.0008     1.0000    -0.4973    20.7738    41.5367     2.3194    14.4503    14.4503     1.7073     0.0000     1.0000     0.0416     0.000
    180     0.0001     0.0001     1.6451     0.0002     30.000    824.000 224161.000     32.487    41.5367   115.7665   -52.2733    -1.9995     0.0008    26.0000     4.0000     9.0000    22.0000    26.0000    10.0000     5.0000    20.0000     3.0008     1.0000    -0.4973    20.7738    41.5371     2.3266    14.4503    14.4500     1.7074     0.0000     1.0000     0.0416     0.000
    181     0.0000     0.0000     1.6500     0.0000     30.000    767.000 224160.000     32.487    41.5367   115.6835   -52.4431    -1.9995     0.0008    26.0000     4.0000     9.0000    22.0000    26.0000    10.0000     5.0000    20.0000     3.0007     1.0000    -0.4975    20.7737    41.5367     2.3336    14.4503    14.4503     1.7074     0.0000     1.0000     0.0416     0.000
    182     0.0000     0.0000     1.6550     0.0000     30.000    796.000 223611.000     32.407    41.5367   115.5986   -52.6131    -1.9995     0.0008    26.0000     4.0000     9.0000    22.0000    26.0000    10.0000     5.0000    20.0000     3.0007     1.0000    -0.4975    20.7737    41.5367     2.3406    14.4503    14.4503     1.7072     0.0000     1.0000     0.0416     0.000
    183     0.0001     0.0001     1.6599     0.0002     30.000    789.000 224184.000     32.490    41.5367   115.5117   -52.7820    -1.9995     0.0008    26.0000     4.0000     9.0000    22.0000    26.0000    10.0000     5.0000    20.0000     3.0008     1.0000    -0.4974    20.7738    41.5370     2.3476    14.4503    14.4501     1.7071     0.0000     1.0000     0.0416     0.000
    184    -0.0000    -0.0000     1.6649    -0.0000     30.000    863.000 224068.000     32.474    41.5367   115.4301   -52.9528    -1.9995     0.0008    26.0000     4.0000     9.0000    22.0000    26.0000    10.0000     5.0000    20.0000     3.0007     1.0000    -0.4975    20.7737    41.5367     2.3547    14.4503    14.4503     1.7072     0.0000     1.0000     0.0416     0.000
    185     0.0001     0.0001     1.6699     0.0002     30.000    860.000 223469.000     32.387    41.5367   115.3394   -53.1255    -1.9995     0.0008    26.0000     4.0000     9.0000    22.0000    26.0000    10.0000     5.0000    20.0000     3.0007     1.0000    -0.4974    20.7738    41.5370     2.3618    14.4503    14.4501     1.7072     0.0000     1.0000     0.0416     0.000
    186     0.0000     0.0000     1.6750     0.0000     30.000    829.000 223756.000     32.428    41.5367   115.2556   -53.2979    -1.9995     0.0008    26.0000     4.0000     9.0000    22.0000    26.0000    10.0000     5.0000    20.0000     3.0007     1.0000    -0.4975    20.7737    41.5367     2.3689    14.4503    14.4503     1.7074     0.0000     1.0000     0.0416     0.000
    187     0.0000     0.0000     1.6800     0.0001     30.000    926.000 223864.000     32.444    41.5367   115.1698   -53.4693    -1.9995     0.0008    26.0000     4.0000     9.0000    22.0000    26.0000    10.0000     5.0000    20.0000     3.0007     1.0000    -0.4975    20.7738    41.5368     2.3759    14.4503    14.4502     1.7074     0.0000     1.0000     0.0415     0.000
    188     0.0000     0.0000     1.6850     0.0002     30.000    876.000 223716.000     32.423    41.5367   115.0834   -53.6429    -1.9995     0.0008    26.0000     4.0000     9.0000    22.0000    26.0000    10.0000     5.0000    20.0000     3.0007     1.0000    -0.4975    20.7738    41.5370     2.3831    14.4503    14.4501     1.7071     0.0000     1.0000     0.0415     0.000
    189    -0.0000    -0.0000     1.6900     0.0000     30.000    925.000 224229.000     32.497    41.5367   114.9995   -53.8160    -1.9995     0.0008    26.0000     4.0000     9.0000    22.0000    26.0000    10.0000     5.0000    20.0000     3.0007     1.0000    -0.4975    20.7737    41.5367     2.3902    14.4503    14.4503     1.7071     0.0000     1.0000     0.0415     0.000
    190     0.0000     0.0000     1.6951     0.0002     30.000    979.000 225130.000     32.628    41.5367   114.9107   -53.9887    -1.9995     0.0008    26.0000     4.0000     9.0000    22.0000    26.0000    10.0000     5.0000    20.0000     3.0007     1.0000    -0.4975    20.7738    41.5370     2.3973    14.4503    14.4501     1.7071     0.0000     1.0000     0.0415     0.000
    191     0.0000     0.0000     1.7000    -0.0000     30.000    984.000 224320.000     32.510    41.5367   114.8251   -54.1592    -1.9995     0.0008    26.0000     4.0000     9.0000    22.0000    26.0000    10.0000     5.0000    20.0000     3.0007     1.0000    -0.4976    20.7737    41.5367     2.4043    14.4503    14.4503     1.7070     0.0000     1.0000     0.0415     0.000
    192     0.0000     0.0000     1.7050     0.0001     30.000   1011.000 224865.000     32.589    41.5367   114.7396   -54.3306    -1.9995     0.0008    26.0000     4.0000     9.0000    22.0000    26.0000    10.0000     5.0000    20.0000     3.0007     1.0000    -0.4975    20.7738    41.5368     2.4113    14.4503    14.4502     1.7070     0.0000     1.0000     0.0415     0.000
    193     0.0001     0.0001     1.7099     0.0002     30.000   1042.000 224873.000     32.590    41.5367   114.6536   -54.5004    -1.9995     0.0008    26.0000     4.0000     9.0000    22.0000    26.0000    10.0000     5.0000    20.0000     3.0007     1.0000    -0.4976    20.7739    41.5369     2.4183    14.4503    14.4501     1.7070     0.0000     1.0000     0.0414     0.000
    194     0.0000     0.0000     1.7150    -0.0000     30.000   1094.000 224154.000     32.486    41.5367   114.5687   -54.6747    -1.9995     0.0008    26.0000     4.0000     9.0000    22.0000    26.0000    10.0000     5.0000    20.0000     3.0007     1.0000    -0.4976    20.7737    41.5367     2.4254    14.4503    14.4503     1.7070     0.0000     1.0000     0.0414     0.000
    195     0.0001     0.0001     1.7199     0.0001     30.000   1035.000 223874.000     32.446    41.5367   114.4798   -54.8475    -1.9995     0.0008    26.0000     4.0000     9.0000    22.0000    26.0000    10.0000     5.0000    20.0000     3.0007     1.0000    -0.4976    20.7738    41.5369     2.4325    14.4503    14.4502     1.7069     0.0000     1.0000     0.0414     0.000
    196     0.0001     0.0001     1.7250     0.0002     30.000   1054.000 223750.000     32.428    41.5367   114.3920   -55.0226    -1.9995     0.0008    26.0000     4.0000     9.0000    22.0000    26.0000    10.0000     5.0000    20.0000     3.0007     1.0000    -0.4976    20.7737    41.5369     2.4397    14.4503    14.4501     1.7068     0.0000     1.0000     0.0414     0.000
    197     0.0000    -0.0000     1.7300     0.0000     30.000   1052.000 224510.000     32.538    41.5367   114.3081   -55.1966    -1.9995     0.0008    26.0000     4.0000     9.0000    22.0000    26.0000    10.0000     5.0000    20.0000     3.0007     1.0000    -0.4976    20.7737    41.5367     2.4468    14.4503    14.4503     1.7069     0.0000     1.0000     0.0414     0.000
    198     0.0001     0.0001     1.7350     0.0001     30.000   1106.000 224188.000     32.491    41.5367   114.2187   -55.3688    -1.9995     0.0008    26.0000     4.0000     9.0000    22.0000    26.0000    10.0000     5.0000    20.0000     3.0007     1.0000    -0.4976    20.7738    41.5369     2.4538    14.4503    14.4502     1.7069     0.0000     1.0000     0.0413     0.000
    199     0.0000     0.0000     1.7400     0.0000     30.000   1133.000 224393.000     32.521    41.5367   114.1343   -55.5427    -1.9995     0.0008    26.0000     4.0000     9.0000    22.0000    26.0000    10.0000     5.0000    20.0000     3.0007     1.0000    -0.4977    20.7738    41.5367     2.4609    14.4503    14.4503     1.7070     0.0000     1.0000     0.0413     0.000
    200     0.0001     0.0001     1.7450     0.0000     30.000   1129.000 223202.000     32.348    41.5367   114.0442   -55.7156    -1.9995     0.0008    26.0000     4.0000     9.0000    22.0000    26.0000    10.0000     5.0000    20.0000     3.0007     1.0000    -0.4976    20.7737    41.5367     2.4680    14.4503    14.4503     1.7072     0.0000     1.0000     0.0413     0.000
    201     0.0000     0.0000     1.7500    -0.0000     30.000   1115.000 224397.000     32.521    41.5367   113.9604   -55.8886    -1.9995     0.0008    26.0000     4.0000     9.0000    22.0000    26.0000    10.0000     5.0000    20.0000     3.0007     1.0000    -0.4977    20.7738    41.5367     2.4750    14.4503    14.4503     1.7071     0.0000     1.0000     0.0413     0.000
    202     0.0000     0.0000     1.7550     0.0000     30.000   1131.000 225196.000     32.637    41.5367   113.8745   -56.0612    -1.9995     0.0008    26.0000     4.0000     9.0000    22.0000    26.0000    10.0000     5.0000    20.0000     3.0007     1.0000    -0.4976    20.7737    41.5367     2.4820    14.4503    14.4503     1.7070     0.0000     1.0000     0.0414     0.000
    203     0.0001     0.0001     1.7599    -0.0000     30.000   1133.000 224417.000     32.524    41.5367   113.7867   -56.2331    -1.9995     0.0008    26.0000     4.0000     9.0000    22.0000    26.0000    10.0000     5.0000    20.0000     3.0007     1.0000    -0.4977    20.7737    41.5367     2.4890    14.4503    14.4503     1.7070     0.0000     1.0000     0.0414     0.000
    204     0.0001     0.0000     1.7649    -0.0000     30.000   1071.000 224607.000     32.552    41.5367   113.7006   -56.4078    -1.9995     0.0008    26.0000     4.0000     9.0000    22.0000    26.0000    10.0000     5.0000    20.0000     3.0007     1.0000    -0.4977    20.7737    41.5367     2.4961    14.4503    14.4503     1.7070     0.0000     1.0000     0.0413     0.000
    205     0.0001     0.0001     1.7699     0.0000     30.000   1014.000 224170.000     32.488    41.5367   113.6128   -56.5823    -1.9995     0.0008    26.0000     4.0000     9.0000    22.0000    26.0000    10.0000     5.0000    20.0000     3.0007     1.0000    -0.4976    20.7737    41.5367     2.5032    14.4503    14.4503     1.7071     0.0000     1.0000     0.0413     0.000
    206     0.0001     0.0001     1.7749     0.0001     30.000   1071.000 224039.000     32.469    41.5367   113.5252   -56.7553    -1.9995     0.0008    26.0000     4.0000     9.0000    22.0000    26.0000    10.0000     5.0000    20.0000     3.0007     1.0000    -0.4977    20.7738    41.5368     2.5102    14.4503    14.4502     1.7071     0.0000     1.0000     0.0412     0.000
    207     0.0000     0.0000     1.7800     0.0001     30.000   1040.000 224938.000     32.600    41.5367   113.4384   -56.9341    -1.9995     0.0008    26.0000     4.0000     9.0000    22.0000    26.0000    10.0000     5.0000    20.0000     3.0007     1.0000    -0.4977    20.7738    41.5369     2.5175    14.4503    14.4502     1.7071     0.0000     1.0000     0.0412     0.000
    208    -0.0000    -0.0000     1.7851     0.0002     30.000   1043.000 223540.000     32.397    41.5367   113.3511   -57.1109    -1.9995     0.0008    26.0000     4.0000     9.0000    22.0000    26.0000    10.0000     5.0000    20.0000     3.0007     1.0000    -0.4977    20.7738    41.5370     2.5246    14.4503    14.4501     1.7070     0.0000     1.0000     0.0412     0.000
    209     0.0000     0.0000     1.7901     0.0002     30.000   1045.000 223855.000     32.443    41.5367   113.2627   -57.2849    -1.9995     0.0008    26.0000     4.0000     9.0000    22.0000    26.0000    10.0000     5.0000    20.0000     3.0007     1.0000    -0.4977    20.7738    41.5371     2.5317    14.4503    14.4500     1.7070     0.0000     1.0000     0.0412     0.000
    210    -0.0000    -0.0000     1.7950     0.0000     30.000    965.000 224144.000     32.485    41.5367   113.1775   -57.4593    -1.9995     0.0008    26.0000     4.0000     9.0000    22.0000    26.0000    10.0000     5.0000    20.0000     3.0007     1.0000    -0.4977    20.7737    41.5368     2.5387    14.4503    14.4502     1.7070     0.0000     1.0000     0.0412     0.000
    211     0.0000     0.0000     1.8000     0.0000     30.000   1018.000 224657.000     32.559    41.5367   113.0898   -57.6312    -1.9995     0.0008    26.0000     4.0000     9.0000    22.0000    26.0000    10.0000     5.0000    20.0000     3.0006     1.0000    -0.4977    20.7737    41.5367     2.5457    14.4503    14.4503     1.7071     0.0000     1.0000     0.0411     0.000
    212    -0.0000    -0.0000     1.8050     0.0000     30.000   1021.000 224206.000     32.494    41.5367   113.0023   -57.8085    -1.9995     0.0008    26.0000     4.0000     9.0000    22.0000    26.0000    10.0000     5.0000    20.0000     3.0006     1.0000    -0.4978    20.7737    41.5367     2.5528    14.4503    14.4503     1.7071     0.0000     1.0000     0.0411     0.000
    213     0.0000    -0.0000     1.8099     0.0003     30.000    983.000 224566.000     32.546    41.5367   112.9152   -57.9810    -1.9995     0.0008    26.0000     4.0000     9.0000    22.0000    26.0000    10.0000     5.0000    20.0000     3.0006     1.0000    -0.4979    20.7738    41.5371     2.5598    14.4503    14.4500     1.7070     0.0000     1.0000     0.0411     0.000
    214     0.0000     0.0000     1.8150     0.0001     30.000    995.000 223989.000     32.462    41.5367   112.8263   -58.1575    -1.9995     0.0008    26.0000     4.0000     9.0000    22.0000    26.0000    10.0000     5.0000    20.0000     3.0006     1.0000    -0.4979    20.7737    41.5368     2.5669    14.4503    14.4502     1.7069     0.0000     1.0000     0.0411     0.000
    215     0.0000     0.0000     1.8200     0.0000     30.000    979.000 223624.000     32.409    41.5367   112.7392   -58.3333    -1.9995     0.0008    26.0000     4.0000     9.0000    22.0000    26.0000    10.0000     5.0000    20.0000     3.0007     1.0000    -0.4978    20.7737    41.5368     2.5740    14.4503    14.4502     1.7069     0.0000     1.0000     0.0409     0.000
    216    -0.0000    -0.0000     1.8250     0.0000     30.000    877.000 223640.000     32.412    41.5367   112.6517   -58.5100    -1.9995     0.0008    26.0000     4.0000     9.0000    22.0000    26.0000    10.0000     5.0000    20.0000     3.0006     1.0000    -0.4978    20.7737    41.5367     2.5811    14.4503    14.4503     1.7069     0.0000     1.0000     0.0409     0.000
    217     0.0000     0.0000     1.8300     0.0000     30.000    933.000 223051.000     32.326    41.5367   112.5630   -58.6862    -1.9995     0.0008    26.0000     4.0000     9.0000    22.0000    26.0000    10.0000     5.0000    20.0000     3.0006     1.0000    -0.4979    20.7737    41.5367     2.5882    14.4503    14.4503     1.7070     0.0000     1.0000     0.0408     0.000
    218    -0.0000    -0.0000     1.8351     0.0000     30.000    948.000 224175.000     32.489    41.5367   112.4747   -58.8639    -1.9995     0.0008    26.0000     4.0000     9.0000    22.0000    26.0000    10.0000     5.0000    20.0000     3.0007     1.0000    -0.4978    20.7737    41.5367     2.5953    14.4503    14.4503     1.7070     0.0000     1.0000     0.0408     0.000
    219    -0.0002    -0.0002     1.8400     0.0000     30.000    892.000 224321.000     32.510    41.5367   112.3952   -59.0393    -1.9995     0.0008    26.0000     4.0000     9.0000    22.0000    26.0000    10.0000     5.0000    20.0000     3.0006     1.0000    -0.4979    20.7737    41.5367     2.6023    14.4503    14.4503     1.7069     0.0000     1.0000     0.0409     0.000
    220     0.0001     0.0001     1.8449    -0.0000     30.000    978.000 223997.000     32.463    41.5367   112.2980   -59.2116    -1.9995     0.0008    26.0000     4.0000     9.0000    22.0000    26.0000    10.0000     5.0000    20.0000     3.0006     1.0000    -0.4980    20.7738    41.5367     2.6092    14.4503    14.4503     1.7068     0.0000     1.0000     0.0408     0.000
    221     0.0001     0.0000     1.8499     0.0000     30.000    925.000 224825.000     32.583    41.5367   112.2110   -59.3873    -1.9995     0.0008    26.0000     4.0000     9.0000    22.0000    26.0000    10.0000     5.0000    20.0000     3.0006     1.0000    -0.4978    20.7737    41.5367     2.6163    14.4503    14.4503     1.7068     0.0000     1.0000     0.0408     0.000
    222    -0.0000    -0.0000     1.8549     0.0000     30.000    971.000 224731.000     32.570    41.5367   112.1241   -59.5650    -1.9995     0.0008    26.0000     4.0000     9.0000    22.0000    26.0000    10.0000     5.0000    20.0000     3.0006     1.0000    -0.4978    20.7737    41.5367     2.6234    14.4503    14.4503     1.7068     0.0000     1.0000     0.0408     0.000
    223     0.0001     0.0001     1.8599     0.0001     30.000    951.000 224397.000     32.521    41.5367   112.0328   -59.7419    -1.9995     0.0008    26.0000     4.0000     9.0000    22.0000    26.0000    10.0000     5.0000    20.0000     3.0006     1.0000    -0.4978    20.7738    41.5368     2.6305    14.4503    14.4502     1.7068     0.0000     1.0000     0.0408     0.000
    224     0.0000     0.0000     1.8649     0.0002     30.000    932.000 225484.000     32.679    41.5367   111.9450   -59.9198    -1.9995     0.0008    26.0000     4.0000     9.0000    22.0000    26.0000    10.0000     5.0000    20.0000     3.0006     1.0000    -0.4979    20.7738    41.5370     2.6376    14.4503    14.4501     1.7068     0.0000     1.0000     0.0407     0.000
    225     0.0000     0.0000     1.8700     0.0000     30.000    946.000 224218.000     32.495    41.5367   111.8566   -60.0981    -1.9995     0.0008    26.0000     4.0000     9.0000    22.0000    26.0000    10.0000     5.0000    20.0000     3.0006     1.0000    -0.4979    20.7737    41.5367     2.6447    14.4503    14.4503     1.7068     0.0000     1.0000     0.0407     0.000
    226    -0.0002    -0.0002     1.8750     0.0001     30.000    953.000 223792.000     32.434    41.5367   111.7758   -60.2773    -1.9995     0.0008    26.0000     4.0000     9.0000    22.0000    26.0000    10.0000     5.0000    20.0000     3.0006     1.0000    -0.4978    20.7737    41.5369     2.6518    14.4503    14.4501     1.7068     0.0000     1.0000     0.0406     0.000
    227    -0.0000    -0.0000     1.8801     0.0001     30.000    913.000 224407.000     32.523    41.5367   111.6787   -60.4561    -1.9995     0.0008    26.0000     4.0000     9.0000    22.0000    26.0000    10.0000     5.0000    20.0000     3.0006     1.0000    -0.4979    20.7738    41.5368     2.6590    14.4503    14.4502     1.7067     0.0000     1.0000     0.0406     0.000
    228    -0.0000    -0.0000     1.8851     0.0002     30.000    880.000 225673.000     32.706    41.5367   111.5902   -60.6340    -1.9995     0.0008    26.0000     4.0000     9.0000    22.0000    26.0000    10.0000     5.0000    20.0000     3.0006     1.0000    -0.4979    20.7737    41.5370     2.6660    14.4503    14.4501     1.7067     0.0000     1.0000     0.0406     0.000
    229     0.0000    -0.0000     1.8900    -0.0000     30.000    932.000 224796.000     32.579    41.5367   111.5021   -60.8085    -1.9995     0.0008    26.0000     4.0000     9.0000    22.0000    26.0000    10.0000     5.0000    20.0000     3.0006     1.0000    -0.4980    20.7738    41.5367     2.6730    14.4503    14.4503     1.7067     0.0000     1.0000     0.0406     0.000
    230     0.0000     0.0000     1.8949     0.0001     30.000    921.000 224193.000     32.492    41.5367   111.4134   -60.9851    -1.9995     0.0008    26.0000     4.0000     9.0000    22.0000    26.0000    10.0000     5.0000    20.0000     3.0006     1.0000    -0.4979    20.7738    41.5368     2.6800    14.4503    14.4502     1.7067     0.0000     1.0000     0.0405     0.000
    231    -0.0001    -0.0001     1.9000     0.0001     30.000    909.000 224430.000     32.526    41.5367   111.3277   -61.1652    -1.9995     0.0008    26.0000     4.0000     9.0000    22.0000    26.0000    10.0000     5.0000    20.0000     3.0006     1.0000    -0.4980    20.7738    41.5369     2.6871    14.4503    14.4502     1.7069     0.0000     1.0000     0.0404     0.000
    232    -0.0003    -0.0003     1.9051     0.0002     30.000    871.000 224667.000     32.560    41.5367   111.2418   -61.3471    -1.9995     0.0008    26.0000     4.0000     9.0000    22.0000    26.0000    10.0000     5.0000    20.0000     3.0006     1.0000    -0.4978    20.7738    41.5370     2.6943    14.4503    14.4501     1.7069     0.0000     1.0000     0.0404     0.000
    233     0.0000    -0.0000     1.9100     0.0000     30.000    942.000 224365.000     32.517    41.5367   111.1459   -61.5207    -1.9995     0.0008    26.0000     4.0000     9.0000    22.0000    26.0000    10.0000     5.0000    20.0000     3.0006     1.0000    -0.4979    20.7738    41.5367     2.7012    14.4503    14.4503     1.7070     0.0000     1.0000     0.0405     0.000
    234    -0.0003    -0.0003     1.9150     0.0002     30.000    859.000 224521.000     32.539    41.5367   111.0640   -61.7026    -1.9995     0.0008    26.0000     4.0000     9.0000    22.0000    26.0000    10.0000     5.0000    20.0000     3.0006     1.0000    -0.4980    20.7738    41.5369     2.7084    14.4503    14.4501     1.7069     0.0000     1.0000     0.0405     0.000
    235    -0.0002    -0.0002     1.9201     0.0003     30.000    900.000 223394.000     32.376    41.5367   110.9705   -61.8844    -1.9995     0.0008    26.0000     4.0000     9.0000    22.0000    26.0000    10.0000     5.0000    20.0000     3.0006     1.0000    -0.4980    20.7737    41.5372     2.7156    14.4503    14.4499     1.7069     0.0000     1.0000     0.0403     0.000
    236    -0.0002    -0.0002     1.9250     0.0001     30.000    871.000 223541.000     32.397    41.5367   110.8827   -62.0601    -1.9995     0.0008    26.0000     4.0000     9.0000    22.0000    26.0000    10.0000     5.0000    20.0000     3.0006     1.0000    -0.4981    20.7737    41.5369     2.7226    14.4503    14.4502     1.7069     0.0000     1.0000     0.0403     0.000
    237     0.0000    -0.0000     1.9300     0.0001     30.000    921.000 224515.000     32.538    41.5367   110.7876   -62.2368    -1.9995     0.0009    26.0000     4.0000     9.0000    22.0000    26.0000    10.0000     5.0000    20.0000     3.0006     1.0000    -0.4980    20.7737    41.5369     2.7295    14.4503    14.4502     1.7069     0.0000     1.0000     0.0403     0.000
    238    -0.0002    -0.0002     1.9350     0.0001     30.000    869.000 224360.000     32.516    41.5367   110.7025   -62.4182    -1.9995     0.0008    26.0000     4.0000     9.0000    22.0000    26.0000    10.0000     5.0000    20.0000     3.0006     1.0000    -0.4981    20.7737    41.5368     2.7367    14.4503    14.4502     1.7069     0.0000     1.0000     0.0403     0.000
    239    -0.0000    -0.0000     1.9399     0.0001     30.000    931.000 224924.000     32.598    41.5367   110.6102   -62.5944    -1.9995     0.0008    26.0000     4.0000     9.0000    22.0000    26.0000    10.0000     5.0000    20.0000     3.0006     1.0000    -0.4980    20.7738    41.5368     2.7436    14.4503    14.4502     1.7069     0.0000     1.0000     0.0402     0.000
    240    -0.0000    -0.0001     1.9449     0.0001     30.000    937.000 224459.000     32.530    41.5367   110.5211   -62.7736    -1.9995     0.0008    26.0000     4.0000     9.0000    22.0000    26.0000    10.0000     5.0000    20.0000     3.0006     1.0000    -0.4979    20.7738    41.5368     2.7507    14.4503    14.4502     1.7069     0.0000     1.0000     0.0402     0.000
    241    -0.0001    -0.0001     1.9499     0.0001     30.000    896.000 224409.000     32.523    41.5367   110.4332   -62.9541    -1.9995     0.0008    26.0000     4.0000     9.0000    22.0000    26.0000    10.0000     5.0000    20.0000     3.0006     1.0000    -0.4980    20.7737    41.5368     2.7578    14.4503    14.4502     1.7069     0.0000     1.0000     0.0402     0.000
    242    -0.0000    -0.0001     1.9549     0.0001     30.000    999.000 223714.000     32.422    41.5367   110.3418   -63.1322    -1.9995     0.0008    26.0000     4.0000     9.0000    22.0000    26.0000    10.0000     5.0000    20.0000     3.0006     1.0000    -0.4981    20.7738    41.5368     2.7648    14.4503    14.4502     1.7068     0.0000     1.0000     0.0401     0.000
    243     0.0000     0.0000     1.9599     0.0001     30.000   2035.000 224617.000     32.553    41.5367   110.2489   -63.3141    -1.9995     0.0008    26.0000     4.0000     9.0000    22.0000    26.0000    10.0000     5.0000    20.0000     3.0006     1.0000    -0.4981    20.7737    41.5368     2.7719    14.4503    14.4502     1.7068     0.0000     1.0000     0.0401     0.000
    244    -0.0000    -0.0000     1.9650     0.0001     30.000   8978.000 224139.000     32.484    41.5367   110.1590   -63.4974    -1.9995     0.0009    26.0000     4.0000     9.0000    22.0000    26.0000    10.0000     5.0000    20.0000     3.0006     1.0000    -0.4981    20.7737    41.5368     2.7791    14.4503    14.4502     1.7067     0.0000     1.0000     0.0402     0.000
    245    -0.0001    -0.0001     1.9700     0.0001     30.000  39754.000 224195.000     32.492    41.5367   110.0690   -63.6787    -1.9995     0.0009    26.0000     4.0000     9.0000    22.0000    26.0000    10.0000     5.0000    20.0000     3.0006     1.0000    -0.4981    20.7737    41.5368     2.7862    14.4503    14.4502     1.7067     0.0000     1.0000     0.0402     0.000
    246    -0.0001    -0.0001     1.9751     0.0000     30.000 119039.000 223665.000     32.415    41.5367   109.9801   -63.8605    -1.9995     0.0008    26.0000     4.0000     9.0000    22.0000    26.0000    10.0000     5.0000    20.0000     3.0006     1.0000    -0.4981    20.7738    41.5367     2.7933    14.4503    14.4503     1.7066     0.0000     1.0000     0.0400     0.000
    247    -0.0001    -0.0002     1.9800     0.0000     30.000 241263.000 225064.000     32.618    41.5367   109.8913   -64.0397    -1.9995     0.0009    26.0000     4.0000     9.0000    22.0000    26.0000    10.0000     5.0000    20.0000     3.0006     1.0000    -0.4981    20.7737    41.5368     2.8003    14.4503    14.4502     1.7066     0.0000     1.0000     0.0400     0.000
    248    -0.0000    -0.0000     1.9850     0.0001     30.000 381488.000 224826.000     32.583    41.5367   109.7983   -64.2183    -1.9995     0.0009    26.0000     4.0000     9.0000    22.0000    26.0000    10.0000     5.0000    20.0000     3.0006     1.0000    -0.4981    20.7737    41.5368     2.8073    14.4503    14.4502     1.7066     0.0000     1.0000     0.0400     0.000
    249    -0.0000    -0.0000     1.9900     0.0000     30.000 526378.000 224140.000     32.484    41.5367   109.7070   -64.3990    -1.9995     0.0009    26.0000     4.0000     9.0000    22.0000    26.0000    10.0000     5.0000    20.0000     3.0006     1.0000    -0.4981    20.7737    41.5367     2.8144    14.4503    14.4503     1.7066     0.0000     1.0000     0.0400     0.000
    250    -0.0000    -0.0001     1.9950     0.0000     30.000 638673.000 224970.000     32.604    41.5367   109.6171   -64.5814    -1.9995     0.0009    26.0000     4.0000     9.0000    22.0000    26.0000    10.0000     5.0000    20.0000     3.0006     1.0000    -0.4981    20.7737    41.5368     2.8215    14.4503    14.4502     1.7066     0.0000     1.0000     0.0399     0.000
    251    -0.0000    -0.0000     2.0000     0.0000     30.000 663744.000 224563.000     32.545    41.5367   109.5259   -64.7633    -1.9995     0.0009    26.0000     4.0000     9.0000    22.0000    26.0000    10.0000     5.0000    20.0000     3.0006     1.0000    -0.4981    20.7737    41.5367     2.8286    14.4503    14.4503     1.7065     0.0000     1.0000     0.0399     0.000
    252    -0.0001    -0.0001     2.0050     0.0000     30.000 602045.000 223901.000     32.449    41.5367   109.4369   -64.9448    -1.9995     0.0009    26.0000     4.0000     9.0000    22.0000    26.0000    10.0000     5.0000    20.0000     3.0006     1.0000    -0.4982    20.7737    41.5367     2.8356    14.4503    14.4503     1.7066     0.0000     1.0000     0.0398     0.000
    253    -0.0001    -0.0001     2.0100     0.0000     30.000 478180.000 224388.000     32.520    41.5367   109.3449   -65.1266    -1.9995     0.0009    26.0000     4.0000     9.0000    22.0000    26.0000    10.0000     5.0000    20.0000     3.0006     1.0000    -0.4982    20.7737    41.5367     2.8427    14.4503    14.4503     1.7066     0.0000     1.0000     0.0398     0.000
    254    -0.0001    -0.0001     2.0150     0.0000     30.000 309376.000 224147.000     32.485    41.5367   109.2534   -65.3106    -1.9995     0.0009    26.0000     4.0000     9.0000    22.0000    26.0000    10.0000     5.0000    20.0000     3.0006     1.0000    -0.4982    20.7737    41.5367     2.8498    14.4503    14.4503     1.7065     0.0000     1.0000     0.0399     0.000
    255    -0.0000    -0.0000     2.0200     0.0000     30.000 146613.000 224665.000     32.560    41.5367   109.1605   -65.4934    -1.9995     0.0009    26.0000     4.0000     9.0000    22.0000    26.0000    10.0000     5.0000    20.0000     3.0006     1.0000    -0.4982    20.7738    41.5367     2.8569    14.4503    14.4503     1.7066     0.0000     1.0000     0.0398     0.000
    256     0.0000     0.0000     2.0250     0.0000     30.000  48886.000 224669.000     32.561    41.5367   109.0691   -65.6740    -1.9995     0.0009    26.0000     4.0000     9.0000    22.0000    26.0000    10.0000     5.0000    20.0000     3.0006     1.0000    -0.4982    20.7738    41.5367     2.8639    14.4503    14.4503     1.7065     0.0000     1.0000     0.0398     0.000
    257    -0.0000    -0.0000     2.0299     0.0000     30.000  11726.000 224561.000     32.545    41.5367   108.9789   -65.8549    -1.9995     0.0009    26.0000     4.0000     9.0000    22.0000    26.0000    10.0000     5.0000    20.0000     3.0006     1.0000    -0.4982    20.7737    41.5367     2.8709    14.4503    14.4503     1.7065     0.0000     1.0000     0.0398     0.000
    258    -0.0000    -0.0000     2.0349     0.0000     30.000   2811.000 224661.000     32.560    41.5367   108.8885   -66.0370    -1.9995     0.0009    26.0000     4.0000     9.0000    22.0000    26.0000    10.0000     5.0000    20.0000     3.0006     1.0000    -0.4982    20.7737    41.5367     2.8780    14.4503    14.4503     1.7065     0.0000     1.0000     0.0398     0.000
    259    -0.0000    -0.0000     2.0399     0.0000     30.000   1392.000 223992.000     32.463    41.5367   108.7977   -66.2197    -1.9995     0.0009    26.0000     4.0000     9.0000    22.0000    26.0000    10.0000     5.0000    20.0000     3.0005     1.0000    -0.4983    20.7738    41.5367     2.8850    14.4503    14.4503     1.7066     0.0000     1.0000     0.0398     0.000
    260    -0.0000    -0.0000     2.0450     0.0000     30.000   1218.000 224647.000     32.558    41.5367   108.7047   -66.4049    -1.9995     0.0009    26.0000     4.0000     9.0000    22.0000    26.0000    10.0000     5.0000    20.0000     3.0005     1.0000    -0.4982    20.7737    41.5367     2.8922    14.4503    14.4503     1.7066     0.0000     1.0000     0.0398     0.000
    261    -0.0000    -0.0000     2.0500     0.0000     30.000   1138.000 223902.000     32.450    41.5367   108.6134   -66.5880    -1.9995     0.0009    26.0000     4.0000     9.0000    22.0000    26.0000    10.0000     5.0000    20.0000     3.0005     1.0000    -0.4983    20.7737    41.5367     2.8992    14.4503    14.4503     1.7066     0.0000     1.0000     0.0398     0.000
    262    -0.0000    -0.0000     2.0550     0.0000     30.000   1238.000 224534.000     32.541    41.5367   108.5206   -66.7734    -1.9995     0.0009    26.0000     4.0000     9.0000    22.0000    26.0000    10.0000     5.0000    20.0000     3.0006     1.0000    -0.4983    20.7738    41.5367     2.9064    14.4503    14.4503     1.7065     0.0000     1.0000     0.0398     0.000
    263    -0.0001    -0.0001     2.0600     0.0000     30.000   1159.000 224759.000     32.574    41.5367   108.4291   -66.9579    -1.9995     0.0009    26.0000     4.0000     9.0000    22.0000    26.0000    10.0000     5.0000    20.0000     3.0005     1.0000    -0.4983    20.7737    41.5367     2.9135    14.4503    14.4503     1.7065     0.0000     1.0000     0.0397     0.000
    264    -0.0001    -0.0001     2.0651     0.0000     30.000   1224.000 224082.000     32.476    41.5367   108.3358   -67.1449    -1.9995     0.0009    26.0000     4.0000     9.0000    22.0000    26.0000    10.0000     5.0000    20.0000     3.0005     1.0000    -0.4984    20.7737    41.5367     2.9206    14.4503    14.4503     1.7065     0.0000     1.0000     0.0397     0.000
    265    -0.0000    -0.0000     2.0700     0.0000     30.000   1312.000 224523.000     32.540    41.5367   108.2443   -67.3245    -1.9995     0.0009    26.0000     4.0000     9.0000    22.0000    26.0000    10.0000     5.0000    20.0000     3.0005     1.0000    -0.4984    20.7738    41.5367     2.9275    14.4503    14.4503     1.7065     0.0000     1.0000     0.0396     0.000
    266     0.0000     0.0000     2.0749     0.0000     30.000   1315.000 223560.000     32.400    41.5367   108.1518   -67.5063    -1.9995     0.0009    26.0000     4.0000     9.0000    22.0000    26.0000    10.0000     5.0000    20.0000     3.0005     1.0000    -0.4984    20.7737    41.5367     2.9345    14.4503    14.4503     1.7064     0.0000     1.0000     0.0396     0.000
    267     0.0000     0.0000     2.0799     0.0000     30.000   1368.000 224157.000     32.487    41.5367   108.0595   -67.6920    -1.9995     0.0009    26.0000     4.0000     9.0000    22.0000    26.0000    10.0000     5.0000    20.0000     3.0005     1.0000    -0.4984    20.7737    41.5367     2.9416    14.4503    14.4503     1.7064     0.0000     1.0000     0.0396     0.000
    268     0.0000     0.0000     2.0849     0.0000     30.000   1522.000 223970.000     32.459    41.5367   107.9674   -67.8766    -1.9995     0.0009    26.0000     4.0000     9.0000    22.0000    26.0000    10.0000     5.0000    20.0000     3.0005     1.0000    -0.4984    20.7738    41.5367     2.9487    14.4503    14.4503     1.7064     0.0000     1.0000     0.0397     0.000
    269     0.0000    -0.0000     2.0900     0.0000     30.000   1634.000 224242.000     32.499    41.5367   107.8747   -68.0632    -1.9995     0.0009    26.0000     4.0000     9.0000    22.0000    26.0000    10.0000     5.0000    20.0000     3.0005     1.0000    -0.4984    20.7737    41.5367     2.9558    14.4503    14.4503     1.7064     0.0000     1.0000     0.0397     0.000
    270    -0.0000    -0.0000     2.0950     0.0000     30.000   2064.000 224507.000     32.537    41.5367   107.7821   -68.2499    -1.9995     0.0009    26.0000     4.0000     9.0000    22.0000    26.0000    10.0000     5.0000    20.0000     3.0005     1.0000    -0.4984    20.7737    41.5367     2.9629    14.4503    14.4503     1.7063     0.0000     1.0000     0.0396     0.000
    271    -0.0001    -0.0001     2.1001     0.0000     30.000   3645.000 224814.000     32.582    41.5367   107.6894   -68.4376    -1.9995     0.0009    26.0000     4.0000     9.0000    22.0000    26.0000    10.0000     5.0000    20.0000     3.0005     1.0000    -0.4985    20.7737    41.5367     2.9701    14.4503    14.4503     1.7063     0.0000     1.0000     0.0396     0.000
    272    -0.0001    -0.0001     2.1051     0.0000     30.000   8047.000 222998.000     32.319    41.5367   107.5969   -68.6235    -1.9995     0.0009    26.0000     4.0000     9.0000    22.0000    26.0000    10.0000     5.0000    20.0000     3.0005     1.0000    -0.4985    20.7737    41.5367     2.9772    14.4503    14.4503     1.7063     0.0000     1.0000     0.0395     0.000
    273    -0.0001    -0.0001     2.1101     0.0000     30.000  16457.000 223827.000     32.439    41.5367   107.5041   -68.8103    -1.9995     0.0009    26.0000     4.0000     9.0000    22.0000    26.0000    10.0000     5.0000    20.0000     3.0005     1.0000    -0.4985    20.7737    41.5367     2.9843    14.4503    14.4503     1.7063     0.0000     1.0000     0.0395     0.000
    274    -0.0000    -0.0000     2.1150     0.0000     30.000  28969.000 224459.000     32.530    41.5367   107.4098   -68.9943    -1.9995     0.0009    26.0000     4.0000     9.0000    22.0000    26.0000    10.0000     5.0000    20.0000     3.0005     1.0000    -0.4985    20.7737    41.5367     2.9913    14.4503    14.4503     1.7063     0.0000     1.0000     0.0396     0.000
    275     0.0000     0.0000     2.1200     0.0000     30.000  43426.000 224511.000     32.538    41.5367   107.3169   -69.1777    -1.9995     0.0009    26.0000     4.0000     9.0000    22.0000    26.0000    10.0000     5.0000    20.0000     3.0005     1.0000    -0.4985    20.7737    41.5367     2.9982    14.4503    14.4503     1.7064     0.0000     1.0000     0.0396     0.000
    276     0.0000     0.0000     2.1249     0.0000     30.000  57538.000 222596.000     32.260    41.5367   107.2241   -69.3634    -1.9995     0.0009    26.0000     4.0000     9.0000    22.0000    26.0000    10.0000     5.0000    20.0000     3.0005     1.0000    -0.4985    20.7737    41.5367     3.0053    14.4503    14.4503     1.7064     0.0000     1.0000     0.0395     0.000
    277     0.0001     0.0000     2.1299     0.0000     30.000  66037.000 224914.000     32.596    41.5367   107.1298   -69.5497    -1.9995     0.0009    26.0000     4.0000     9.0000    22.0000    26.0000    10.0000     5.0000    20.0000     3.0005     1.0000    -0.4985    20.7737    41.5367     3.0123    14.4503    14.4503     1.7064     0.0000     1.0000     0.0395     0.000
    278     0.0000     0.0000     2.1349     0.0000     30.000  67184.000 224778.000     32.577    41.5367   107.0372   -69.7366    -1.9995     0.0009    26.0000     4.0000     9.0000    22.0000    26.0000    10.0000     5.0000    20.0000     3.0005     1.0000    -0.4985    20.7737    41.5367     3.0194    14.4503    14.4503     1.7064     0.0000     1.0000     0.0397     0.000
    279     0.0000    -0.0000     2.1400     0.0000     30.000  60075.000 224440.000     32.528    41.5367   106.9439   -69.9245    -1.9995     0.0009    26.0000     4.0000     9.0000    22.0000    26.0000    10.0000     5.0000    20.0000     3.0005     1.0000    -0.4985    20.7737    41.5367     3.0265    14.4503    14.4503     1.7064     0.0000     1.0000     0.0395     0.000
    280    -0.0000    -0.0000     2.1450     0.0000     30.000  48407.000 223743.000     32.427    41.5367   106.8496   -70.1151    -1.9995     0.0009    26.0000     4.0000     9.0000    22.0000    26.0000    10.0000     5.0000    20.0000     3.0005     1.0000    -0.4986    20.7737    41.5367     3.0337    14.4503    14.4503     1.7063     0.0000     1.0000     0.0395     0.000
    281    -0.0001    -0.0001     2.1501     0.0000     30.000  33221.000 224034.000     32.469    41.5367   106.7571   -70.3038    -1.9995     0.0009    26.0000     4.0000     9.0000    22.0000    26.0000    10.0000     5.0000    20.0000     3.0005     1.0000    -0.4986    20.7737    41.5367     3.0408    14.4503    14.4503     1.7063     0.0000     1.0000     0.0397     0.000
    282    -0.0001    -0.0001     2.1551     0.0000     30.000  18725.000 225556.000     32.689    41.5367   106.6626   -70.4919    -1.9995     0.0009    26.0000     4.0000     9.0000    22.0000    26.0000    10.0000     5.0000    20.0000     3.0005     1.0000    -0.4985    20.7737    41.5367     3.0479    14.4503    14.4503     1.7063     0.0000     1.0000     0.0397     0.000
    283    -0.0001    -0.0001     2.1601     0.0000     30.000   8727.000 223329.000     32.367    41.5367   106.5686   -70.6788    -1.9995     0.0009    26.0000     4.0000     9.0000    22.0000    26.0000    10.0000     5.0000    20.0000     3.0005     1.0000    -0.4986    20.7737    41.5367     3.0549    14.4503    14.4503     1.7063     0.0000     1.0000     0.0396     0.000
    284    -0.0000    -0.0000     2.1650     0.0000     30.000   4106.000 223482.000     32.389    41.5367   106.4747   -70.8636    -1.9995     0.0009    26.0000     4.0000     9.0000    22.0000    26.0000    10.0000     5.0000    20.0000     3.0005     1.0000    -0.4986    20.7737    41.5367     3.0619    14.4503    14.4503     1.7062     0.0000     1.0000     0.0396     0.000
    285     0.0000    -0.0000     2.1700     0.0000     30.000   2179.000 223292.000     32.361    41.5367   106.3797   -71.0528    -1.9995     0.0009    26.0000     4.0000     9.0000    22.0000    26.0000    10.0000     5.0000    20.0000     3.0005     1.0000    -0.4986    20.7737    41.5367     3.0690    14.4503    14.4503     1.7062     0.0000     1.0000     0.0395     0.000
    286    -0.0000    -0.0000     2.1751     0.0000     30.000   1602.000 224260.000     32.501    41.5367   106.2855   -71.2439    -1.9995     0.0009    26.0000     4.0000     9.0000    22.0000    26.0000    10.0000     5.0000    20.0000     3.0005     1.0000    -0.4986    20.7737    41.5367     3.0761    14.4503    14.4503     1.7063     0.0000     1.0000     0.0395     0.000
    287     0.0000     0.0000     2.1800     0.0000     30.000   1416.000 224505.000     32.537    41.5367   106.1907   -71.4302    -1.9995     0.0009    26.0000     4.0000     9.0000    22.0000    26.0000    10.0000     5.0000    20.0000     3.0005     1.0000    -0.4986    20.7737    41.5367     3.0831    14.4503    14.4503     1.7062     0.0000     1.0000     0.0394     0.000
    288     0.0000    -0.0000     2.1850     0.0000     30.000   1322.000 224890.000     32.593    41.5367   106.0965   -71.6193    -1.9995     0.0009    26.0000     4.0000     9.0000    22.0000    26.0000    10.0000     5.0000    20.0000     3.0005     1.0000    -0.4986    20.7737    41.5367     3.0902    14.4503    14.4503     1.7063     0.0000     1.0000     0.0394     0.000
    289    -0.0000    -0.0000     2.1900     0.0000     30.000   1193.000 223510.000     32.393    41.5367   106.0021   -71.8110    -1.9995     0.0009    26.0000     4.0000     9.0000    22.0000    26.0000    10.0000     5.0000    20.0000     3.0005     1.0000    -0.4986    20.7737    41.5367     3.0974    14.4503    14.4503     1.7062     0.0000     1.0000     0.0395     0.000
    290    -0.0001    -0.0001     2.1951     0.0000     30.000   1234.000 223237.000     32.353    41.5367   105.9070   -72.0024    -1.9995     0.0009    26.0000     4.0000     9.0000    22.0000    26.0000    10.0000     5.0000    20.0000     3.0005     1.0000    -0.4986    20.7737    41.5367     3.1045    14.4503    14.4503     1.7062     0.0000     1.0000     0.0395     0.000
    291    -0.0000    -0.0000     2.2000     0.0000     30.000   1173.000 223340.000     32.368    41.5367   105.8131   -72.1889    -1.9995     0.0009    26.0000     4.0000     9.0000    22.0000    26.0000    10.0000     5.0000    20.0000     3.0005     1.0000    -0.4987    20.7737    41.5367     3.1114    14.4503    14.4503     1.7061     0.0000     1.0000     0.0395     0.000
    292     0.0000     0.0000     2.2049     0.0000     30.000   1157.000 222746.000     32.282    41.5367   105.7179   -72.3761    -1.9995     0.0009    26.0000     4.0000     9.0000    22.0000    26.0000    10.0000     5.0000    20.0000     3.0005     1.0000    -0.4986    20.7737    41.5367     3.1184    14.4503    14.4503     1.7061     0.0000     1.0000     0.0395     0.000
    293    -0.0000    -0.0000     2.2100     0.0000     30.000   1123.000 224806.000     32.581    41.5367   105.6230   -72.5668    -1.9995     0.0009    26.0000     4.0000     9.0000    22.0000    26.0000    10.0000     5.0000    20.0000     3.0005     1.0000    -0.4986    20.7737    41.5367     3.1255    14.4503    14.4503     1.7060     0.0000     1.0000     0.0395     0.000
    294     0.0000     0.0000     2.2149     0.0000     30.000   1158.000 224080.000     32.475    41.5367   105.5272   -72.7571    -1.9995     0.0009    26.0000     4.0000     9.0000    22.0000    26.0000    10.0000     5.0000    20.0000     3.0005     1.0000    -0.4987    20.7737    41.5367     3.1326    14.4503    14.4503     1.7061     0.0000     1.0000     0.0395     0.000
    295     0.0000     0.0000     2.2200     0.0000     30.000   1149.000 224126.000     32.482    41.5367   105.4318   -72.9482    -1.9995     0.0009    26.0000     4.0000     9.0000    22.0000    26.0000    10.0000     5.0000    20.0000     3.0005     1.0000    -0.4986    20.7737    41.5367     3.1397    14.4503    14.4503     1.7061     0.0000     1.0000     0.0395     0.000
    296     0.0000     0.0000     2.2250     0.0000     30.000   1145.000 224539.000     32.542    41.5367   105.3361   -73.1394    -1.9995     0.0009    26.0000     4.0000     9.0000    22.0000    26.0000    10.0000     5.0000    20.0000     3.0005     1.0000    -0.4987    20.7737    41.5367     3.1467    14.4503    14.4503     1.7062     0.0000     1.0000     0.0395     0.000
    297     0.0000    -0.0000     2.2300    -0.0000     30.000   1126.000 225229.000     32.642    41.5367   105.2402   -73.3321    -1.9995     0.0009    26.0000     4.0000     9.0000    22.0000    26.0000    10.0000     5.0000    20.0000     3.0005     1.0000    -0.4987    20.7737    41.5367     3.1539    14.4503    14.4503     1.7062     0.0000     1.0000     0.0395     0.000
    298    -0.0000    -0.0000     2.2350     0.0000     30.000   1127.000 224867.000     32.589    41.5367   105.1449   -73.5243    -1.9995     0.0009    26.0000     4.0000     9.0000    22.0000    26.0000    10.0000     5.0000    20.0000     3.0005     1.0000    -0.4987    20.7737    41.5367     3.1610    14.4503    14.4503     1.7062     0.0000     1.0000     0.0395     0.000
    299    -0.0000    -0.0000     2.2401     0.0000     30.000   1206.000 223401.000     32.377    41.5367   105.0486   -73.7177    -1.9995     0.0009    26.0000     4.0000     9.0000    22.0000    26.0000    10.0000     5.0000    20.0000     3.0005     1.0000    -0.4987    20.7737    41.5367     3.1681    14.4503    14.4503     1.7061     0.0000     1.0000     0.0395     0.000
    300     0.0000    -0.0000     2.2450    -0.0000     30.000   1093.000 224208.000     32.494    41.5367   104.9533   -73.9060    -1.9995     0.0009    26.0000     4.0000     9.0000    22.0000    26.0000    10.0000     5.0000    20.0000     3.0005     1.0000    -0.4987    20.7737    41.5367     3.1750    14.4503    14.4503     1.7061     0.0000     1.0000     0.0393     0.000
    301     0.0000     0.0000     2.2499     0.0000     30.000   1092.000 224201.000     32.493    41.5367   104.8572   -74.0958    -1.9995     0.0009    26.0000     4.0000     9.0000    22.0000    26.0000    10.0000     5.0000    20.0000     3.0005     1.0000    -0.4988    20.7736    41.5367     3.1820    14.4503    14.4503     1.7061     0.0000     1.0000     0.0393     0.000
# Sum of Counts = 4958694
# Center of Mass = 1.979777+/-0.001260
# Full Width Half-Maximum = 0.347078+/-0.000443
# 6:37:06 PM  9/19/2023   scan completed.
