# scan = 37
# date = 9/20/2023
# time = 7:23:31 AM
# proposal = 30730
# experiment = Low Temperature Magnetic Structure of CeCl3
# experiment_number = 998
# command = scan h 1.6667 k 1.6667 l 0.25 1.75 0.005 e 0 preset time 30 
# builtin_command = scan h 1.6667 k 1.6667 l 0.25 1.75 0.005 e 0 preset time 30
# users = Adam Aczel, David Mandrus, Matthew Cothrine, Stephen Nagler
# local_contact = A. Aczel
# scan_title = CeBr3, (5/3 5/3 L) scan, T = 0.04 K
# monochromator = PG002
# analyzer = Pg002
# sense = +-+
# collimation = 40-40-40-80
# samplename = CeBr3
# sampletype = crystal
# samplemosaic = 30.000000
# latticeconstants = 7.911813,7.911813,4.442653,90.000000,90.000000,120.000000
# ubmatrix = 0.075384,0.080477,-0.177039,-0.099473,-0.099471,-0.138870,-0.075649,0.070209,0.006183
# mode = 0
# plane_normal = 0.034896,0.000010,0.999390
# ubconf = UB19Sep2023_24416PM.ini
# preset_type = normal 
# preset_channel = time
# preset_value = 30.000000
# def_x = l
# def_y = detector
# col_headers = 
#   Pt.          h          k          l          e       time   detector    monitor        mcu         m2         s1         s2        sgl        sgu   slitb_bt   slitb_lf   slitb_rt   slitb_tp   slita_bt   slita_lf   slita_rt   slita_tp        stl        stu         sz         a1         a2          q         ei         ef        vti     sample       temp dr_tsample    dr_temp
      1     1.6666     1.6667     0.2503     0.0001     30.000    945.000 226422.000     32.815    41.5367    29.1463   -60.7514    -1.9995     0.0009    26.0000     4.0000     9.0000    22.0000    26.0000    10.0000     5.0000    20.0000     3.0007     1.0000    -0.4982    20.7741    41.5368     2.6707    14.4503    14.4502     1.7032     0.0000     1.0000     0.0385     0.000
      2     1.6667     1.6667     0.2550     0.0001     30.000    934.000 225194.000     32.637    41.5367    29.2763   -60.7756    -1.9995     0.0009    26.0000     4.0000     9.0000    22.0000    26.0000    10.0000     5.0000    20.0000     3.0007     1.0000    -0.4981    20.7741    41.5368     2.6717    14.4503    14.4502     1.7032     0.0000     1.0000     0.0385     0.000
      3     1.6667     1.6667     0.2600     0.0001     30.000    998.000 225712.000     32.712    41.5367    29.4139   -60.8004    -1.9995     0.0009    26.0000     4.0000     9.0000    22.0000    26.0000    10.0000     5.0000    20.0000     3.0007     1.0000    -0.4980    20.7741    41.5368     2.6726    14.4503    14.4502     1.7033     0.0000     1.0000     0.0390     0.000
      4     1.6667     1.6667     0.2650     0.0001     30.000   1030.000 226371.000     32.807    41.5367    29.5524   -60.8239    -1.9995     0.0009    26.0000     4.0000     9.0000    22.0000    26.0000    10.0000     5.0000    20.0000     3.0007     1.0000    -0.4982    20.7740    41.5368     2.6736    14.4503    14.4502     1.7033     0.0000     1.0000     0.0391     0.000
      5     1.6667     1.6667     0.2700     0.0001     30.000    938.000 226043.000     32.760    41.5367    29.6897   -60.8502    -1.9995     0.0009    26.0000     4.0000     9.0000    22.0000    26.0000    10.0000     5.0000    20.0000     3.0007     1.0000    -0.4981    20.7740    41.5368     2.6746    14.4503    14.4502     1.7033     0.0000     1.0000     0.0391     0.000
      6     1.6667     1.6667     0.2750     0.0001     30.000    917.000 226691.000     32.854    41.5367    29.8265   -60.8760    -1.9995     0.0009    26.0000     4.0000     9.0000    22.0000    26.0000    10.0000     5.0000    20.0000     3.0007     1.0000    -0.4981    20.7740    41.5368     2.6757    14.4503    14.4502     1.7033     0.0000     1.0000     0.0391     0.000
      7     1.6667     1.6667     0.2800     0.0001     30.000    983.000 226032.000     32.758    41.5367    29.9631   -60.9012    -1.9995     0.0009    26.0000     4.0000     9.0000    22.0000    26.0000    10.0000     5.0000    20.0000     3.0007     1.0000    -0.4981    20.7740    41.5368     2.6767    14.4503    14.4502     1.7031     0.0000     1.0000     0.0391     0.000
      8     1.6667     1.6667     0.2850     0.0001     30.000   1013.000 226174.000     32.779    41.5367    30.1001   -60.9278    -1.9995     0.0009    26.0000     4.0000     9.0000    22.0000    26.0000    10.0000     5.0000    20.0000     3.0007     1.0000    -0.4981    20.7740    41.5368     2.6777    14.4503    14.4502     1.7031     0.0000     1.0000     0.0392     0.000
      9     1.6667     1.6667     0.2900     0.0001     30.000    992.000 225637.000     32.701    41.5367    30.2356   -60.9553    -1.9995     0.0009    26.0000     4.0000     9.0000    22.0000    26.0000    10.0000     5.0000    20.0000     3.0007     1.0000    -0.4981    20.7740    41.5368     2.6788    14.4503    14.4502     1.7032     0.0000     1.0000     0.0392     0.000
     10     1.6667     1.6667     0.2950     0.0001     30.000   1019.000 227196.000     32.927    41.5367    30.3713   -60.9828    -1.9995     0.0009    26.0000     4.0000     9.0000    22.0000    26.0000    10.0000     5.0000    20.0000     3.0007     1.0000    -0.4981    20.7740    41.5368     2.6799    14.4503    14.4502     1.7033     0.0000     1.0000     0.0391     0.000
     11     1.6667     1.6667     0.3000     0.0001     30.000    938.000 225979.000     32.751    41.5367    30.5068   -61.0116    -1.9995     0.0009    26.0000     4.0000     9.0000    22.0000    26.0000    10.0000     5.0000    20.0000     3.0007     1.0000    -0.4981    20.7740    41.5368     2.6810    14.4503    14.4502     1.7032     0.0000     1.0000     0.0391     0.000
     12     1.6666     1.6667     0.3050     0.0001     30.000    949.000 226063.000     32.763    41.5367    30.6417   -61.0373    -1.9995     0.0009    26.0000     4.0000     9.0000    22.0000    26.0000    10.0000     5.0000    20.0000     3.0007     1.0000    -0.4981    20.7740    41.5368     2.6821    14.4503    14.4502     1.7032     0.0000     1.0000     0.0390     0.000
     13     1.6667     1.6667     0.3100     0.0001     30.000   1000.000 225842.000     32.731    41.5367    30.7759   -61.0677    -1.9995     0.0009    26.0000     4.0000     9.0000    22.0000    26.0000    10.0000     5.0000    20.0000     3.0007     1.0000    -0.4981    20.7740    41.5368     2.6833    14.4503    14.4502     1.7032     0.0000     1.0000     0.0390     0.000
     14     1.6667     1.6667     0.3150     0.0001     30.000   1024.000 226845.000     32.876    41.5367    30.9101   -61.0966    -1.9995     0.0009    26.0000     4.0000     9.0000    22.0000    26.0000    10.0000     5.0000    20.0000     3.0008     1.0000    -0.4981    20.7740    41.5368     2.6844    14.4503    14.4502     1.7032     0.0000     1.0000     0.0390     0.000
     15     1.6667     1.6667     0.3200     0.0001     30.000    970.000 227881.000     33.026    41.5367    31.0442   -61.1269    -1.9995     0.0009    26.0000     4.0000     9.0000    22.0000    26.0000    10.0000     5.0000    20.0000     3.0007     1.0000    -0.4982    20.7740    41.5368     2.6856    14.4503    14.4502     1.7032     0.0000     1.0000     0.0393     0.000
     16     1.6667     1.6667     0.3250     0.0001     30.000   1016.000 226817.000     32.872    41.5367    31.1781   -61.1579    -1.9995     0.0009    26.0000     4.0000     9.0000    22.0000    26.0000    10.0000     5.0000    20.0000     3.0007     1.0000    -0.4980    20.7740    41.5368     2.6868    14.4503    14.4502     1.7032     0.0000     1.0000     0.0393     0.000
     17     1.6667     1.6667     0.3300     0.0001     30.000   1020.000 226014.000     32.756    41.5367    31.3109   -61.1877    -1.9995     0.0009    26.0000     4.0000     9.0000    22.0000    26.0000    10.0000     5.0000    20.0000     3.0007     1.0000    -0.4982    20.7740    41.5368     2.6880    14.4503    14.4502     1.7031     0.0000     1.0000     0.0392     0.000
     18     1.6667     1.6667     0.3350     0.0001     30.000   1059.000 227105.000     32.914    41.5367    31.4433   -61.2203    -1.9995     0.0009    26.0000     4.0000     9.0000    22.0000    26.0000    10.0000     5.0000    20.0000     3.0008     1.0000    -0.4981    20.7740    41.5368     2.6893    14.4503    14.4502     1.7030     0.0000     1.0000     0.0392     0.000
     19     1.6667     1.6667     0.3400     0.0001     30.000    896.000 227042.000     32.905    41.5367    31.5761   -61.2521    -1.9995     0.0009    26.0000     4.0000     9.0000    22.0000    26.0000    10.0000     5.0000    20.0000     3.0007     1.0000    -0.4982    20.7740    41.5368     2.6906    14.4503    14.4502     1.7030     0.0000     1.0000     0.0391     0.000
     20     1.6666     1.6666     0.3449     0.0001     30.000   1051.000 227966.000     33.039    41.5367    31.7087   -61.2793    -1.9995     0.0009    26.0000     4.0000     9.0000    22.0000    26.0000    10.0000     5.0000    20.0000     3.0007     1.0000    -0.4982    20.7740    41.5368     2.6917    14.4503    14.4502     1.7031     0.0000     1.0000     0.0391     0.000
     21     1.6667     1.6667     0.3500     0.0001     30.000   1004.000 226692.000     32.854    41.5367    31.8399   -61.3160    -1.9995     0.0009    26.0000     4.0000     9.0000    22.0000    26.0000    10.0000     5.0000    20.0000     3.0008     1.0000    -0.4983    20.7740    41.5368     2.6931    14.4503    14.4502     1.7031     0.0000     1.0000     0.0392     0.000
     22     1.6667     1.6667     0.3550     0.0000     30.000    994.000 226328.000     32.801    41.5367    31.9710   -61.3480    -1.9995     0.0009    26.0000     4.0000     9.0000    22.0000    26.0000    10.0000     5.0000    20.0000     3.0008     1.0000    -0.4982    20.7740    41.5368     2.6944    14.4503    14.4502     1.7031     0.0000     1.0000     0.0394     0.000
     23     1.6667     1.6667     0.3600     0.0001     30.000   1023.000 225825.000     32.728    41.5367    32.1024   -61.3818    -1.9995     0.0009    26.0000     4.0000     9.0000    22.0000    26.0000    10.0000     5.0000    20.0000     3.0008     1.0000    -0.4981    20.7740    41.5368     2.6957    14.4503    14.4502     1.7030     0.0000     1.0000     0.0394     0.000
     24     1.6666     1.6667     0.3649     0.0000     30.000    998.000 226438.000     32.817    41.5367    32.2322   -61.4140    -1.9995     0.0009    26.0000     4.0000     9.0000    22.0000    26.0000    10.0000     5.0000    20.0000     3.0008     1.0000    -0.4981    20.7740    41.5368     2.6970    14.4503    14.4502     1.7031     0.0000     1.0000     0.0390     0.000
     25     1.6668     1.6668     0.3701     0.0000     30.000   1022.000 226653.000     32.848    41.5367    32.3625   -61.4538    -1.9995     0.0009    26.0000     4.0000     9.0000    22.0000    26.0000    10.0000     5.0000    20.0000     3.0008     1.0000    -0.4981    20.7740    41.5368     2.6986    14.4503    14.4502     1.7031     0.0000     1.0000     0.0390     0.000
     26     1.6666     1.6667     0.3749     0.0000     30.000   1006.000 226025.000     32.757    41.5367    32.4920   -61.4831    -1.9995     0.0009    26.0000     4.0000     9.0000    22.0000    26.0000    10.0000     5.0000    20.0000     3.0008     1.0000    -0.4981    20.7740    41.5368     2.6997    14.4503    14.4502     1.7031     0.0000     1.0000     0.0391     0.000
     27     1.6667     1.6667     0.3800     0.0000     30.000    961.000 227270.000     32.938    41.5367    32.6223   -61.5197    -1.9995     0.0009    26.0000     4.0000     9.0000    22.0000    26.0000    10.0000     5.0000    20.0000     3.0007     1.0000    -0.4981    20.7740    41.5367     2.7012    14.4503    14.4503     1.7030     0.0000     1.0000     0.0391     0.000
     28     1.6667     1.6667     0.3850     0.0001     30.000   1015.000 225719.000     32.713    41.5367    32.7509   -61.5551    -1.9995     0.0009    26.0000     4.0000     9.0000    22.0000    26.0000    10.0000     5.0000    20.0000     3.0008     1.0000    -0.4982    20.7740    41.5368     2.7026    14.4503    14.4502     1.7030     0.0000     1.0000     0.0391     0.000
     29     1.6667     1.6667     0.3900     0.0000     30.000   1027.000 226406.000     32.812    41.5367    32.8801   -61.5940    -1.9995     0.0009    26.0000     4.0000     9.0000    22.0000    26.0000    10.0000     5.0000    20.0000     3.0007     1.0000    -0.4980    20.7740    41.5368     2.7041    14.4503    14.4502     1.7031     0.0000     1.0000     0.0393     0.000
     30     1.6667     1.6667     0.3950     0.0000     30.000   1026.000 226630.000     32.845    41.5367    33.0081   -61.6296    -1.9995     0.0009    26.0000     4.0000     9.0000    22.0000    26.0000    10.0000     5.0000    20.0000     3.0008     1.0000    -0.4982    20.7740    41.5367     2.7055    14.4503    14.4503     1.7031     0.0000     1.0000     0.0393     0.000
     31     1.6667     1.6667     0.4000     0.0000     30.000   1021.000 226036.000     32.759    41.5367    33.1359   -61.6664    -1.9995     0.0009    26.0000     4.0000     9.0000    22.0000    26.0000    10.0000     5.0000    20.0000     3.0008     1.0000    -0.4981    20.7740    41.5367     2.7070    14.4503    14.4503     1.7030     0.0000     1.0000     0.0392     0.000
     32     1.6667     1.6667     0.4050     0.0000     30.000   1026.000 227204.000     32.928    41.5367    33.2628   -61.7040    -1.9995     0.0009    26.0000     4.0000     9.0000    22.0000    26.0000    10.0000     5.0000    20.0000     3.0008     1.0000    -0.4983    20.7740    41.5368     2.7085    14.4503    14.4502     1.7031     0.0000     1.0000     0.0392     0.000
     33     1.6667     1.6667     0.4100     0.0000     30.000   1061.000 226975.000     32.895    41.5367    33.3909   -61.7424    -1.9995     0.0009    26.0000     4.0000     9.0000    22.0000    26.0000    10.0000     5.0000    20.0000     3.0008     1.0000    -0.4982    20.7740    41.5368     2.7100    14.4503    14.4502     1.7031     0.0000     1.0000     0.0390     0.000
     34     1.6667     1.6667     0.4150     0.0000     30.000   1019.000 225576.000     32.692    41.5367    33.5174   -61.7808    -1.9995     0.0009    26.0000     4.0000     9.0000    22.0000    26.0000    10.0000     5.0000    20.0000     3.0008     1.0000    -0.4981    20.7740    41.5367     2.7115    14.4503    14.4503     1.7031     0.0000     1.0000     0.0390     0.000
     35     1.6667     1.6667     0.4200     0.0000     30.000   1001.000 225496.000     32.681    41.5367    33.6434   -61.8196    -1.9995     0.0009    26.0000     4.0000     9.0000    22.0000    26.0000    10.0000     5.0000    20.0000     3.0008     1.0000    -0.4982    20.7740    41.5367     2.7131    14.4503    14.4503     1.7031     0.0000     1.0000     0.0394     0.000
     36     1.6667     1.6667     0.4250     0.0000     30.000   1045.000 226034.000     32.759    41.5367    33.7697   -61.8591    -1.9995     0.0009    26.0000     4.0000     9.0000    22.0000    26.0000    10.0000     5.0000    20.0000     3.0008     1.0000    -0.4981    20.7740    41.5368     2.7146    14.4503    14.4502     1.7030     0.0000     1.0000     0.0394     0.000
     37     1.6667     1.6667     0.4300     0.0000     30.000   1000.000 226327.000     32.801    41.5367    33.8947   -61.8993    -1.9995     0.0009    26.0000     4.0000     9.0000    22.0000    26.0000    10.0000     5.0000    20.0000     3.0008     1.0000    -0.4983    20.7740    41.5367     2.7162    14.4503    14.4503     1.7030     0.0000     1.0000     0.0390     0.000
     38     1.6667     1.6667     0.4350     0.0001     30.000   1008.000 226075.000     32.764    41.5367    34.0206   -61.9381    -1.9995     0.0009    26.0000     4.0000     9.0000    22.0000    26.0000    10.0000     5.0000    20.0000     3.0008     1.0000    -0.4982    20.7740    41.5368     2.7177    14.4503    14.4502     1.7030     0.0000     1.0000     0.0392     0.000
     39     1.6667     1.6667     0.4400     0.0001     30.000    967.000 226034.000     32.759    41.5367    34.1448   -61.9810    -1.9995     0.0009    26.0000     4.0000     9.0000    22.0000    26.0000    10.0000     5.0000    20.0000     3.0008     1.0000    -0.4982    20.7739    41.5368     2.7194    14.4503    14.4502     1.7030     0.0000     1.0000     0.0392     0.000
     40     1.6667     1.6667     0.4450     0.0000     30.000   1014.000 226696.000     32.854    41.5367    34.2693   -62.0198    -1.9995     0.0009    26.0000     4.0000     9.0000    22.0000    26.0000    10.0000     5.0000    20.0000     3.0008     1.0000    -0.4982    20.7740    41.5367     2.7210    14.4503    14.4503     1.7030     0.0000     1.0000     0.0392     0.000
     41     1.6667     1.6667     0.4500     0.0000     30.000   1082.000 226623.000     32.844    41.5367    34.3927   -62.0617    -1.9995     0.0009    26.0000     4.0000     9.0000    22.0000    26.0000    10.0000     5.0000    20.0000     3.0008     1.0000    -0.4982    20.7740    41.5367     2.7226    14.4503    14.4503     1.7030     0.0000     1.0000     0.0392     0.000
     42     1.6667     1.6667     0.4550     0.0000     30.000   1038.000 226235.000     32.788    41.5367    34.5170   -62.1048    -1.9995     0.0009    26.0000     4.0000     9.0000    22.0000    26.0000    10.0000     5.0000    20.0000     3.0008     1.0000    -0.4982    20.7739    41.5367     2.7243    14.4503    14.4503     1.7030     0.0000     1.0000     0.0390     0.000
     43     1.6667     1.6667     0.4600     0.0000     30.000   1018.000 226944.000     32.890    41.5367    34.6406   -62.1479    -1.9995     0.0009    26.0000     4.0000     9.0000    22.0000    26.0000    10.0000     5.0000    20.0000     3.0008     1.0000    -0.4981    20.7739    41.5367     2.7260    14.4503    14.4503     1.7031     0.0000     1.0000     0.0390     0.000
     44     1.6667     1.6668     0.4651     0.0000     30.000   1062.000 226546.000     32.833    41.5367    34.7627   -62.1929    -1.9995     0.0009    26.0000     4.0000     9.0000    22.0000    26.0000    10.0000     5.0000    20.0000     3.0008     1.0000    -0.4982    20.7740    41.5367     2.7278    14.4503    14.4503     1.7030     0.0000     1.0000     0.0392     0.000
     45     1.6667     1.6667     0.4700     0.0000     30.000   1027.000 226474.000     32.822    41.5367    34.8849   -62.2325    -1.9995     0.0009    26.0000     4.0000     9.0000    22.0000    26.0000    10.0000     5.0000    20.0000     3.0009     1.0000    -0.4982    20.7740    41.5367     2.7294    14.4503    14.4503     1.7030     0.0000     1.0000     0.0390     0.000
     46     1.6667     1.6668     0.4750     0.0000     30.000   1071.000 226277.000     32.794    41.5367    35.0072   -62.2790    -1.9995     0.0009    26.0000     4.0000     9.0000    22.0000    26.0000    10.0000     5.0000    20.0000     3.0008     1.0000    -0.4982    20.7739    41.5367     2.7312    14.4503    14.4503     1.7030     0.0000     1.0000     0.0390     0.000
     47     1.6667     1.6667     0.4800     0.0000     30.000   1163.000 226925.000     32.888    41.5367    35.1285   -62.3227    -1.9995     0.0009    26.0000     4.0000     9.0000    22.0000    26.0000    10.0000     5.0000    20.0000     3.0008     1.0000    -0.4982    20.7740    41.5367     2.7329    14.4503    14.4503     1.7030     0.0000     1.0000     0.0390     0.000
     48     1.6667     1.6667     0.4850     0.0000     30.000   1272.000 225779.000     32.722    41.5367    35.2498   -62.3658    -1.9995     0.0009    26.0000     4.0000     9.0000    22.0000    26.0000    10.0000     5.0000    20.0000     3.0009     1.0000    -0.4982    20.7740    41.5367     2.7346    14.4503    14.4503     1.7030     0.0000     1.0000     0.0390     0.000
     49     1.6667     1.6667     0.4900     0.0000     30.000   1776.000 226036.000     32.759    41.5367    35.3707   -62.4105    -1.9995     0.0009    26.0000     4.0000     9.0000    22.0000    26.0000    10.0000     5.0000    20.0000     3.0008     1.0000    -0.4982    20.7740    41.5367     2.7364    14.4503    14.4503     1.7030     0.0000     1.0000     0.0392     0.000
     50     1.6666     1.6667     0.4950     0.0000     30.000   3961.000 227858.000     33.023    41.5367    35.4911   -62.4557    -1.9995     0.0009    26.0000     4.0000     9.0000    22.0000    26.0000    10.0000     5.0000    20.0000     3.0008     1.0000    -0.4982    20.7740    41.5367     2.7382    14.4503    14.4503     1.7030     0.0000     1.0000     0.0392     0.000
     51     1.6667     1.6667     0.5000     0.0000     30.000   7409.000 226374.000     32.808    41.5367    35.6110   -62.5040    -1.9995     0.0009    26.0000     4.0000     9.0000    22.0000    26.0000    10.0000     5.0000    20.0000     3.0008     1.0000    -0.4982    20.7740    41.5367     2.7401    14.4503    14.4503     1.7030     0.0000     1.0000     0.0392     0.000
     52     1.6667     1.6667     0.5050     0.0000     30.000   7425.000 225392.000     32.666    41.5367    35.7303   -62.5498    -1.9995     0.0009    26.0000     4.0000     9.0000    22.0000    26.0000    10.0000     5.0000    20.0000     3.0007     1.0000    -0.4982    20.7740    41.5367     2.7419    14.4503    14.4503     1.7030     0.0000     1.0000     0.0392     0.000
     53     1.6667     1.6667     0.5100     0.0000     30.000   3527.000 227120.000     32.916    41.5367    35.8492   -62.5961    -1.9995     0.0009    26.0000     4.0000     9.0000    22.0000    26.0000    10.0000     5.0000    20.0000     3.0009     1.0000    -0.4983    20.7739    41.5367     2.7437    14.4503    14.4503     1.7031     0.0000     1.0000     0.0391     0.000
     54     1.6667     1.6667     0.5150     0.0000     30.000   1480.000 227220.000     32.930    41.5367    35.9679   -62.6450    -1.9995     0.0009    26.0000     4.0000     9.0000    22.0000    26.0000    10.0000     5.0000    20.0000     3.0009     1.0000    -0.4981    20.7739    41.5367     2.7456    14.4503    14.4503     1.7030     0.0000     1.0000     0.0390     0.000
     55     1.6666     1.6667     0.5200     0.0000     30.000   1140.000 226641.000     32.847    41.5367    36.0864   -62.6899    -1.9995     0.0009    26.0000     4.0000     9.0000    22.0000    26.0000    10.0000     5.0000    20.0000     3.0008     1.0000    -0.4984    20.7739    41.5367     2.7474    14.4503    14.4503     1.7030     0.0000     1.0000     0.0390     0.000
     56     1.6667     1.6667     0.5250     0.0000     30.000   1083.000 226380.000     32.809    41.5367    36.2038   -62.7397    -1.9995     0.0009    26.0000     4.0000     9.0000    22.0000    26.0000    10.0000     5.0000    20.0000     3.0009     1.0000    -0.4982    20.7739    41.5367     2.7494    14.4503    14.4503     1.7030     0.0000     1.0000     0.0393     0.000
     57     1.6667     1.6667     0.5300     0.0000     30.000   1091.000 226078.000     32.765    41.5367    36.3215   -62.7889    -1.9995     0.0009    26.0000     4.0000     9.0000    22.0000    26.0000    10.0000     5.0000    20.0000     3.0007     1.0000    -0.4982    20.7739    41.5367     2.7513    14.4503    14.4503     1.7030     0.0000     1.0000     0.0393     0.000
     58     1.6667     1.6667     0.5350     0.0000     30.000   1061.000 225891.000     32.738    41.5367    36.4382   -62.8377    -1.9995     0.0009    26.0000     4.0000     9.0000    22.0000    26.0000    10.0000     5.0000    20.0000     3.0008     1.0000    -0.4983    20.7739    41.5367     2.7532    14.4503    14.4503     1.7030     0.0000     1.0000     0.0391     0.000
     59     1.6667     1.6667     0.5400     0.0000     30.000   1068.000 225745.000     32.717    41.5367    36.5551   -62.8874    -1.9995     0.0009    26.0000     4.0000     9.0000    22.0000    26.0000    10.0000     5.0000    20.0000     3.0009     1.0000    -0.4984    20.7739    41.5367     2.7552    14.4503    14.4503     1.7031     0.0000     1.0000     0.0391     0.000
     60     1.6667     1.6667     0.5450     0.0000     30.000   1040.000 225280.000     32.649    41.5367    36.6715   -62.9372    -1.9995     0.0009    26.0000     4.0000     9.0000    22.0000    26.0000    10.0000     5.0000    20.0000     3.0008     1.0000    -0.4982    20.7739    41.5367     2.7571    14.4503    14.4503     1.7031     0.0000     1.0000     0.0392     0.000
     61     1.6667     1.6667     0.5500     0.0000     30.000   1089.000 226634.000     32.846    41.5367    36.7868   -62.9880    -1.9995     0.0009    26.0000     4.0000     9.0000    22.0000    26.0000    10.0000     5.0000    20.0000     3.0008     1.0000    -0.4981    20.7739    41.5367     2.7591    14.4503    14.4503     1.7030     0.0000     1.0000     0.0392     0.000
     62     1.6667     1.6667     0.5550     0.0000     30.000   1112.000 226658.000     32.849    41.5367    36.9020   -63.0386    -1.9995     0.0009    26.0000     4.0000     9.0000    22.0000    26.0000    10.0000     5.0000    20.0000     3.0008     1.0000    -0.4984    20.7739    41.5367     2.7611    14.4503    14.4503     1.7031     0.0000     1.0000     0.0392     0.000
     63     1.6667     1.6667     0.5600     0.0000     30.000   1051.000 226196.000     32.782    41.5367    37.0170   -63.0904    -1.9995     0.0009    26.0000     4.0000     9.0000    22.0000    26.0000    10.0000     5.0000    20.0000     3.0009     1.0000    -0.4982    20.7739    41.5367     2.7631    14.4503    14.4503     1.7030     0.0000     1.0000     0.0389     0.000
     64     1.6667     1.6667     0.5650     0.0000     30.000   1048.000 225768.000     32.720    41.5367    37.1312   -63.1417    -1.9995     0.0009    26.0000     4.0000     9.0000    22.0000    26.0000    10.0000     5.0000    20.0000     3.0008     1.0000    -0.4984    20.7739    41.5367     2.7652    14.4503    14.4503     1.7030     0.0000     1.0000     0.0389     0.000
     65     1.6667     1.6667     0.5700     0.0000     30.000   1077.000 227434.000     32.961    41.5367    37.2457   -63.1946    -1.9995     0.0009    26.0000     4.0000     9.0000    22.0000    26.0000    10.0000     5.0000    20.0000     3.0008     1.0000    -0.4982    20.7739    41.5367     2.7672    14.4503    14.4503     1.7029     0.0000     1.0000     0.0391     0.000
     66     1.6667     1.6667     0.5750     0.0000     30.000   1059.000 226255.000     32.791    41.5367    37.3595   -63.2471    -1.9995     0.0009    26.0000     4.0000     9.0000    22.0000    26.0000    10.0000     5.0000    20.0000     3.0008     1.0000    -0.4983    20.7739    41.5367     2.7693    14.4503    14.4503     1.7029     0.0000     1.0000     0.0391     0.000
     67     1.6667     1.6667     0.5800     0.0000     30.000   1045.000 226623.000     32.844    41.5367    37.4722   -63.3002    -1.9995     0.0009    26.0000     4.0000     9.0000    22.0000    26.0000    10.0000     5.0000    20.0000     3.0008     1.0000    -0.4984    20.7739    41.5367     2.7714    14.4503    14.4503     1.7028     0.0000     1.0000     0.0390     0.000
     68     1.6667     1.6667     0.5850     0.0000     30.000   1024.000 226517.000     32.829    41.5367    37.5855   -63.3542    -1.9995     0.0009    26.0000     4.0000     9.0000    22.0000    26.0000    10.0000     5.0000    20.0000     3.0008     1.0000    -0.4982    20.7739    41.5367     2.7735    14.4503    14.4503     1.7028     0.0000     1.0000     0.0390     0.000
     69     1.6667     1.6667     0.5900     0.0000     30.000   1083.000 227096.000     32.912    41.5367    37.6976   -63.4084    -1.9995     0.0009    26.0000     4.0000     9.0000    22.0000    26.0000    10.0000     5.0000    20.0000     3.0009     1.0000    -0.4982    20.7739    41.5367     2.7756    14.4503    14.4503     1.7028     0.0000     1.0000     0.0391     0.000
     70     1.6667     1.6667     0.5950     0.0000     30.000   1007.000 226077.000     32.765    41.5367    37.8095   -63.4633    -1.9995     0.0009    26.0000     4.0000     9.0000    22.0000    26.0000    10.0000     5.0000    20.0000     3.0008     1.0000    -0.4982    20.7739    41.5367     2.7778    14.4503    14.4503     1.7028     0.0000     1.0000     0.0391     0.000
     71     1.6667     1.6667     0.6000     0.0000     30.000    993.000 226080.000     32.765    41.5367    37.9211   -63.5174    -1.9995     0.0009    26.0000     4.0000     9.0000    22.0000    26.0000    10.0000     5.0000    20.0000     3.0009     1.0000    -0.4984    20.7739    41.5367     2.7799    14.4503    14.4503     1.7028     0.0000     1.0000     0.0391     0.000
     72     1.6667     1.6667     0.6050     0.0000     30.000    991.000 226426.000     32.815    41.5367    38.0313   -63.5735    -1.9995     0.0009    26.0000     4.0000     9.0000    22.0000    26.0000    10.0000     5.0000    20.0000     3.0008     1.0000    -0.4983    20.7739    41.5367     2.7821    14.4503    14.4503     1.7028     0.0000     1.0000     0.0392     0.000
     73     1.6667     1.6667     0.6100     0.0000     30.000   1118.000 227541.000     32.977    41.5367    38.1419   -63.6293    -1.9995     0.0009    26.0000     4.0000     9.0000    22.0000    26.0000    10.0000     5.0000    20.0000     3.0008     1.0000    -0.4983    20.7739    41.5367     2.7843    14.4503    14.4503     1.7028     0.0000     1.0000     0.0392     0.000
     74     1.6667     1.6667     0.6150     0.0000     30.000   1040.000 226336.000     32.802    41.5367    38.2522   -63.6854    -1.9995     0.0009    26.0000     4.0000     9.0000    22.0000    26.0000    10.0000     5.0000    20.0000     3.0008     1.0000    -0.4981    20.7739    41.5367     2.7865    14.4503    14.4503     1.7028     0.0000     1.0000     0.0390     0.000
     75     1.6667     1.6667     0.6200     0.0000     30.000   1072.000 226576.000     32.837    41.5367    38.3620   -63.7422    -1.9995     0.0009    26.0000     4.0000     9.0000    22.0000    26.0000    10.0000     5.0000    20.0000     3.0008     1.0000    -0.4984    20.7739    41.5367     2.7887    14.4503    14.4503     1.7028     0.0000     1.0000     0.0390     0.000
     76     1.6667     1.6667     0.6250     0.0000     30.000   1033.000 226275.000     32.793    41.5367    38.4715   -63.7996    -1.9995     0.0009    26.0000     4.0000     9.0000    22.0000    26.0000    10.0000     5.0000    20.0000     3.0008     1.0000    -0.4983    20.7739    41.5367     2.7909    14.4503    14.4503     1.7029     0.0000     1.0000     0.0390     0.000
     77     1.6667     1.6667     0.6300     0.0000     30.000   1081.000 226699.000     32.855    41.5367    38.5809   -63.8564    -1.9995     0.0009    26.0000     4.0000     9.0000    22.0000    26.0000    10.0000     5.0000    20.0000     3.0009     1.0000    -0.4984    20.7739    41.5367     2.7932    14.4503    14.4503     1.7028     0.0000     1.0000     0.0390     0.000
     78     1.6667     1.6667     0.6350     0.0000     30.000   1051.000 226579.000     32.838    41.5367    38.6892   -63.9146    -1.9995     0.0009    26.0000     4.0000     9.0000    22.0000    26.0000    10.0000     5.0000    20.0000     3.0008     1.0000    -0.4982    20.7739    41.5367     2.7955    14.4503    14.4503     1.7028     0.0000     1.0000     0.0390     0.000
     79     1.6667     1.6667     0.6400     0.0000     30.000   1087.000 226936.000     32.889    41.5367    38.7970   -63.9721    -1.9995     0.0009    26.0000     4.0000     9.0000    22.0000    26.0000    10.0000     5.0000    20.0000     3.0009     1.0000    -0.4984    20.7739    41.5367     2.7977    14.4503    14.4503     1.7029     0.0000     1.0000     0.0389     0.000
     80     1.6667     1.6667     0.6450     0.0000     30.000   1084.000 227106.000     32.914    41.5367    38.9044   -64.0315    -1.9995     0.0009    26.0000     4.0000     9.0000    22.0000    26.0000    10.0000     5.0000    20.0000     3.0009     1.0000    -0.4983    20.7739    41.5367     2.8000    14.4503    14.4503     1.7029     0.0000     1.0000     0.0389     0.000
     81     1.6667     1.6667     0.6500     0.0000     30.000   1004.000 227880.000     33.026    41.5367    39.0112   -64.0901    -1.9995     0.0009    26.0000     4.0000     9.0000    22.0000    26.0000    10.0000     5.0000    20.0000     3.0008     1.0000    -0.4984    20.7739    41.5367     2.8023    14.4503    14.4503     1.7030     0.0000     1.0000     0.0388     0.000
     82     1.6667     1.6667     0.6550     0.0000     30.000   1101.000 226428.000     32.816    41.5367    39.1188   -64.1495    -1.9995     0.0009    26.0000     4.0000     9.0000    22.0000    26.0000    10.0000     5.0000    20.0000     3.0009     1.0000    -0.4983    20.7739    41.5367     2.8046    14.4503    14.4503     1.7029     0.0000     1.0000     0.0388     0.000
     83     1.6667     1.6667     0.6600     0.0000     30.000   1045.000 225852.000     32.732    41.5367    39.2248   -64.2087    -1.9995     0.0009    26.0000     4.0000     9.0000    22.0000    26.0000    10.0000     5.0000    20.0000     3.0008     1.0000    -0.4984    20.7739    41.5367     2.8069    14.4503    14.4503     1.7028     0.0000     1.0000     0.0390     0.000
     84     1.6667     1.6667     0.6650     0.0000     30.000   1126.000 226029.000     32.758    41.5367    39.3304   -64.2697    -1.9995     0.0009    26.0000     4.0000     9.0000    22.0000    26.0000    10.0000     5.0000    20.0000     3.0009     1.0000    -0.4984    20.7739    41.5367     2.8093    14.4503    14.4503     1.7028     0.0000     1.0000     0.0390     0.000
     85     1.6667     1.6667     0.6700     0.0000     30.000   1092.000 226879.000     32.881    41.5367    39.4356   -64.3302    -1.9995     0.0009    26.0000     4.0000     9.0000    22.0000    26.0000    10.0000     5.0000    20.0000     3.0009     1.0000    -0.4985    20.7739    41.5367     2.8117    14.4503    14.4503     1.7029     0.0000     1.0000     0.0392     0.000
     86     1.6667     1.6667     0.6750     0.0000     30.000   1028.000 227231.000     32.932    41.5367    39.5409   -64.3917    -1.9995     0.0009    26.0000     4.0000     9.0000    22.0000    26.0000    10.0000     5.0000    20.0000     3.0008     1.0000    -0.4982    20.7739    41.5367     2.8141    14.4503    14.4503     1.7029     0.0000     1.0000     0.0391     0.000
     87     1.6667     1.6667     0.6800     0.0000     30.000   1051.000 226734.000     32.860    41.5367    39.6452   -64.4531    -1.9995     0.0009    26.0000     4.0000     9.0000    22.0000    26.0000    10.0000     5.0000    20.0000     3.0009     1.0000    -0.4985    20.7739    41.5367     2.8165    14.4503    14.4503     1.7029     0.0000     1.0000     0.0391     0.000
     88     1.6667     1.6667     0.6850     0.0000     30.000   1054.000 226831.000     32.874    41.5367    39.7494   -64.5159    -1.9995     0.0009    26.0000     4.0000     9.0000    22.0000    26.0000    10.0000     5.0000    20.0000     3.0008     1.0000    -0.4982    20.7739    41.5367     2.8189    14.4503    14.4503     1.7029     0.0000     1.0000     0.0388     0.000
     89     1.6667     1.6667     0.6900     0.0000     30.000   1099.000 226915.000     32.886    41.5367    39.8521   -64.5778    -1.9995     0.0009    26.0000     4.0000     9.0000    22.0000    26.0000    10.0000     5.0000    20.0000     3.0008     1.0000    -0.4984    20.7739    41.5367     2.8213    14.4503    14.4503     1.7029     0.0000     1.0000     0.0388     0.000
     90     1.6667     1.6667     0.6950     0.0000     30.000   1076.000 226009.000     32.755    41.5367    39.9560   -64.6415    -1.9995     0.0009    26.0000     4.0000     9.0000    22.0000    26.0000    10.0000     5.0000    20.0000     3.0009     1.0000    -0.4983    20.7739    41.5367     2.8238    14.4503    14.4503     1.7029     0.0000     1.0000     0.0387     0.000
     91     1.6667     1.6667     0.7000     0.0000     30.000   1068.000 226358.000     32.806    41.5367    40.0589   -64.7060    -1.9995     0.0009    26.0000     4.0000     9.0000    22.0000    26.0000    10.0000     5.0000    20.0000     3.0008     1.0000    -0.4984    20.7739    41.5367     2.8263    14.4503    14.4503     1.7030     0.0000     1.0000     0.0387     0.000
     92     1.6667     1.6667     0.7050     0.0000     30.000   1060.000 226143.000     32.774    41.5367    40.1604   -64.7690    -1.9995     0.0009    26.0000     4.0000     9.0000    22.0000    26.0000    10.0000     5.0000    20.0000     3.0008     1.0000    -0.4985    20.7739    41.5367     2.8288    14.4503    14.4503     1.7029     0.0000     1.0000     0.0389     0.000
     93     1.6667     1.6667     0.7100     0.0000     30.000   1087.000 226456.000     32.820    41.5367    40.2621   -64.8325    -1.9995     0.0009    26.0000     4.0000     9.0000    22.0000    26.0000    10.0000     5.0000    20.0000     3.0008     1.0000    -0.4984    20.7739    41.5367     2.8313    14.4503    14.4503     1.7028     0.0000     1.0000     0.0389     0.000
     94     1.6667     1.6667     0.7150     0.0000     30.000   1082.000 226583.000     32.838    41.5367    40.3639   -64.8972    -1.9995     0.0009    26.0000     4.0000     9.0000    22.0000    26.0000    10.0000     5.0000    20.0000     3.0008     1.0000    -0.4982    20.7739    41.5367     2.8338    14.4503    14.4503     1.7029     0.0000     1.0000     0.0388     0.000
     95     1.6667     1.6667     0.7200     0.0000     30.000   1056.000 226139.000     32.774    41.5367    40.4648   -64.9625    -1.9995     0.0009    26.0000     4.0000     9.0000    22.0000    26.0000    10.0000     5.0000    20.0000     3.0008     1.0000    -0.4984    20.7739    41.5367     2.8363    14.4503    14.4503     1.7029     0.0000     1.0000     0.0388     0.000
     96     1.6667     1.6667     0.7250     0.0000     30.000   1101.000 226688.000     32.853    41.5367    40.5653   -65.0276    -1.9995     0.0009    26.0000     4.0000     9.0000    22.0000    26.0000    10.0000     5.0000    20.0000     3.0009     1.0000    -0.4983    20.7739    41.5367     2.8388    14.4503    14.4503     1.7028     0.0000     1.0000     0.0388     0.000
     97     1.6667     1.6667     0.7300     0.0000     30.000   1039.000 226736.000     32.860    41.5367    40.6654   -65.0937    -1.9995     0.0009    26.0000     4.0000     9.0000    22.0000    26.0000    10.0000     5.0000    20.0000     3.0008     1.0000    -0.4985    20.7739    41.5367     2.8414    14.4503    14.4503     1.7029     0.0000     1.0000     0.0391     0.000
     98     1.6667     1.6667     0.7350     0.0000     30.000   1105.000 225921.000     32.742    41.5367    40.7647   -65.1603    -1.9995     0.0009    26.0000     4.0000     9.0000    22.0000    26.0000    10.0000     5.0000    20.0000     3.0008     1.0000    -0.4984    20.7739    41.5367     2.8440    14.4503    14.4503     1.7029     0.0000     1.0000     0.0391     0.000
     99     1.6667     1.6667     0.7400     0.0000     30.000   1136.000 227327.000     32.946    41.5367    40.8638   -65.2277    -1.9995     0.0009    26.0000     4.0000     9.0000    22.0000    26.0000    10.0000     5.0000    20.0000     3.0008     1.0000    -0.4984    20.7739    41.5367     2.8466    14.4503    14.4503     1.7029     0.0000     1.0000     0.0392     0.000
    100     1.6667     1.6667     0.7450     0.0000     30.000   1042.000 226981.000     32.896    41.5367    40.9623   -65.2953    -1.9995     0.0009    26.0000     4.0000     9.0000    22.0000    26.0000    10.0000     5.0000    20.0000     3.0009     1.0000    -0.4982    20.7739    41.5367     2.8492    14.4503    14.4503     1.7029     0.0000     1.0000     0.0392     0.000
    101     1.6667     1.6667     0.7500     0.0000     30.000   1056.000 226657.000     32.849    41.5367    41.0603   -65.3625    -1.9995     0.0009    26.0000     4.0000     9.0000    22.0000    26.0000    10.0000     5.0000    20.0000     3.0008     1.0000    -0.4984    20.7739    41.5367     2.8518    14.4503    14.4503     1.7029     0.0000     1.0000     0.0387     0.000
    102     1.6667     1.6667     0.7550     0.0000     30.000   1044.000 227562.000     32.980    41.5367    41.1587   -65.4311    -1.9995     0.0009    26.0000     4.0000     9.0000    22.0000    26.0000    10.0000     5.0000    20.0000     3.0008     1.0000    -0.4983    20.7738    41.5367     2.8545    14.4503    14.4503     1.7028     0.0000     1.0000     0.0387     0.000
    103     1.6667     1.6667     0.7600     0.0000     30.000   1017.000 226685.000     32.853    41.5367    41.2555   -65.4993    -1.9995     0.0009    26.0000     4.0000     9.0000    22.0000    26.0000    10.0000     5.0000    20.0000     3.0008     1.0000    -0.4984    20.7739    41.5367     2.8571    14.4503    14.4503     1.7027     0.0000     1.0000     0.0387     0.000
    104     1.6667     1.6667     0.7650     0.0000     30.000   1073.000 226350.000     32.804    41.5367    41.3523   -65.5677    -1.9995     0.0009    26.0000     4.0000     9.0000    22.0000    26.0000    10.0000     5.0000    20.0000     3.0008     1.0000    -0.4985    20.7739    41.5367     2.8598    14.4503    14.4503     1.7028     0.0000     1.0000     0.0388     0.000
    105     1.6667     1.6667     0.7700     0.0000     30.000   1071.000 225787.000     32.723    41.5367    41.4493   -65.6361    -1.9995     0.0009    26.0000     4.0000     9.0000    22.0000    26.0000    10.0000     5.0000    20.0000     3.0009     1.0000    -0.4985    20.7739    41.5367     2.8625    14.4503    14.4503     1.7028     0.0000     1.0000     0.0388     0.000
    106     1.6667     1.6667     0.7750     0.0000     30.000   1120.000 226270.000     32.793    41.5367    41.5452   -65.7054    -1.9995     0.0009    26.0000     4.0000     9.0000    22.0000    26.0000    10.0000     5.0000    20.0000     3.0008     1.0000    -0.4984    20.7739    41.5367     2.8651    14.4503    14.4503     1.7028     0.0000     1.0000     0.0389     0.000
    107     1.6666     1.6667     0.7799     0.0000     30.000   1132.000 226711.000     32.857    41.5367    41.6405   -65.7740    -1.9995     0.0009    26.0000     4.0000     9.0000    22.0000    26.0000    10.0000     5.0000    20.0000     3.0008     1.0000    -0.4984    20.7738    41.5367     2.8678    14.4503    14.4503     1.7028     0.0000     1.0000     0.0389     0.000
    108     1.6667     1.6667     0.7850     0.0000     30.000   1136.000 226245.000     32.789    41.5367    41.7359   -65.8471    -1.9995     0.0009    26.0000     4.0000     9.0000    22.0000    26.0000    10.0000     5.0000    20.0000     3.0009     1.0000    -0.4984    20.7738    41.5367     2.8706    14.4503    14.4503     1.7029     0.0000     1.0000     0.0389     0.000
    109     1.6667     1.6667     0.7900     0.0000     30.000   1127.000 226147.000     32.775    41.5367    41.8301   -65.9167    -1.9995     0.0009    26.0000     4.0000     9.0000    22.0000    26.0000    10.0000     5.0000    20.0000     3.0008     1.0000    -0.4982    20.7738    41.5367     2.8733    14.4503    14.4503     1.7029     0.0000     1.0000     0.0389     0.000
    110     1.6667     1.6667     0.7950     0.0000     30.000   1103.000 227594.000     32.985    41.5367    41.9243   -65.9878    -1.9995     0.0009    26.0000     4.0000     9.0000    22.0000    26.0000    10.0000     5.0000    20.0000     3.0009     1.0000    -0.4984    20.7739    41.5367     2.8761    14.4503    14.4503     1.7029     0.0000     1.0000     0.0387     0.000
    111     1.6667     1.6667     0.8000     0.0000     30.000   1114.000 227237.000     32.933    41.5367    42.0184   -66.0594    -1.9995     0.0009    26.0000     4.0000     9.0000    22.0000    26.0000    10.0000     5.0000    20.0000     3.0009     1.0000    -0.4986    20.7739    41.5367     2.8788    14.4503    14.4503     1.7029     0.0000     1.0000     0.0389     0.000
    112     1.6667     1.6667     0.8049     0.0000     30.000   1124.000 226948.000     32.891    41.5367    42.1104   -66.1317    -1.9995     0.0009    26.0000     4.0000     9.0000    22.0000    26.0000    10.0000     5.0000    20.0000     3.0008     1.0000    -0.4983    20.7739    41.5367     2.8816    14.4503    14.4503     1.7029     0.0000     1.0000     0.0389     0.000
    113     1.6667     1.6667     0.8100     0.0000     30.000   1112.000 227265.000     32.937    41.5367    42.2040   -66.2045    -1.9995     0.0009    26.0000     4.0000     9.0000    22.0000    26.0000    10.0000     5.0000    20.0000     3.0008     1.0000    -0.4985    20.7738    41.5367     2.8844    14.4503    14.4503     1.7028     0.0000     1.0000     0.0387     0.000
    114     1.6667     1.6667     0.8150     0.0000     30.000   1135.000 226169.000     32.778    41.5367    42.2963   -66.2784    -1.9995     0.0009    26.0000     4.0000     9.0000    22.0000    26.0000    10.0000     5.0000    20.0000     3.0007     1.0000    -0.4984    20.7739    41.5367     2.8873    14.4503    14.4503     1.7029     0.0000     1.0000     0.0387     0.000
    115     1.6667     1.6667     0.8200     0.0000     30.000   1094.000 226416.000     32.814    41.5367    42.3882   -66.3503    -1.9995     0.0009    26.0000     4.0000     9.0000    22.0000    26.0000    10.0000     5.0000    20.0000     3.0008     1.0000    -0.4983    20.7738    41.5367     2.8901    14.4503    14.4503     1.7029     0.0000     1.0000     0.0388     0.000
    116     1.6667     1.6667     0.8250     0.0000     30.000   1179.000 225953.000     32.747    41.5367    42.4797   -66.4245    -1.9995     0.0009    26.0000     4.0000     9.0000    22.0000    26.0000    10.0000     5.0000    20.0000     3.0008     1.0000    -0.4984    20.7738    41.5367     2.8929    14.4503    14.4503     1.7029     0.0000     1.0000     0.0388     0.000
    117     1.6667     1.6667     0.8300     0.0000     30.000   1177.000 225774.000     32.721    41.5367    42.5702   -66.4990    -1.9995     0.0009    26.0000     4.0000     9.0000    22.0000    26.0000    10.0000     5.0000    20.0000     3.0008     1.0000    -0.4982    20.7738    41.5367     2.8958    14.4503    14.4503     1.7030     0.0000     1.0000     0.0385     0.000
    118     1.6667     1.6667     0.8350     0.0000     30.000   1216.000 226411.000     32.813    41.5367    42.6607   -66.5737    -1.9995     0.0009    26.0000     4.0000     9.0000    22.0000    26.0000    10.0000     5.0000    20.0000     3.0008     1.0000    -0.4985    20.7739    41.5367     2.8987    14.4503    14.4503     1.7030     0.0000     1.0000     0.0389     0.000
    119     1.6667     1.6667     0.8400     0.0000     30.000   1160.000 227287.000     32.940    41.5367    42.7504   -66.6489    -1.9995     0.0009    26.0000     4.0000     9.0000    22.0000    26.0000    10.0000     5.0000    20.0000     3.0008     1.0000    -0.4986    20.7738    41.5367     2.9016    14.4503    14.4503     1.7031     0.0000     1.0000     0.0389     0.000
    120     1.6667     1.6667     0.8450     0.0000     30.000   1220.000 226444.000     32.818    41.5367    42.8403   -66.7245    -1.9995     0.0009    26.0000     4.0000     9.0000    22.0000    26.0000    10.0000     5.0000    20.0000     3.0009     1.0000    -0.4983    20.7738    41.5367     2.9045    14.4503    14.4503     1.7031     0.0000     1.0000     0.0386     0.000
    121     1.6667     1.6667     0.8500     0.0000     30.000   1182.000 226698.000     32.855    41.5367    42.9297   -66.8007    -1.9995     0.0009    26.0000     4.0000     9.0000    22.0000    26.0000    10.0000     5.0000    20.0000     3.0009     1.0000    -0.4986    20.7738    41.5367     2.9074    14.4503    14.4503     1.7030     0.0000     1.0000     0.0386     0.000
    122     1.6667     1.6667     0.8550     0.0000     30.000   1220.000 227067.000     32.908    41.5367    43.0187   -66.8766    -1.9995     0.0009    26.0000     4.0000     9.0000    22.0000    26.0000    10.0000     5.0000    20.0000     3.0008     1.0000    -0.4985    20.7738    41.5367     2.9103    14.4503    14.4503     1.7031     0.0000     1.0000     0.0385     0.000
    123     1.6667     1.6667     0.8600     0.0000     30.000   1253.000 225716.000     32.712    41.5367    43.1068   -66.9537    -1.9995     0.0009    26.0000     4.0000     9.0000    22.0000    26.0000    10.0000     5.0000    20.0000     3.0008     1.0000    -0.4984    20.7738    41.5367     2.9133    14.4503    14.4503     1.7030     0.0000     1.0000     0.0385     0.000
    124     1.6667     1.6667     0.8650     0.0000     30.000   1307.000 226828.000     32.874    41.5367    43.1942   -67.0312    -1.9995     0.0009    26.0000     4.0000     9.0000    22.0000    26.0000    10.0000     5.0000    20.0000     3.0008     1.0000    -0.4986    20.7738    41.5367     2.9163    14.4503    14.4503     1.7030     0.0000     1.0000     0.0385     0.000
    125     1.6667     1.6667     0.8700     0.0000     30.000   1305.000 226899.000     32.884    41.5367    43.2811   -67.1088    -1.9995     0.0009    26.0000     4.0000     9.0000    22.0000    26.0000    10.0000     5.0000    20.0000     3.0008     1.0000    -0.4982    20.7738    41.5367     2.9193    14.4503    14.4503     1.7030     0.0000     1.0000     0.0385     0.000
    126     1.6667     1.6667     0.8750     0.0000     30.000   1254.000 227773.000     33.011    41.5367    43.3685   -67.1859    -1.9995     0.0009    26.0000     4.0000     9.0000    22.0000    26.0000    10.0000     5.0000    20.0000     3.0008     1.0000    -0.4986    20.7738    41.5367     2.9222    14.4503    14.4503     1.7030     0.0000     1.0000     0.0387     0.000
    127     1.6667     1.6667     0.8800     0.0000     30.000   1368.000 226874.000     32.880    41.5367    43.4548   -67.2635    -1.9995     0.0009    26.0000     4.0000     9.0000    22.0000    26.0000    10.0000     5.0000    20.0000     3.0008     1.0000    -0.4984    20.7738    41.5367     2.9252    14.4503    14.4503     1.7030     0.0000     1.0000     0.0387     0.000
    128     1.6667     1.6667     0.8850     0.0000     30.000   1303.000 226333.000     32.802    41.5367    43.5405   -67.3415    -1.9995     0.0009    26.0000     4.0000     9.0000    22.0000    26.0000    10.0000     5.0000    20.0000     3.0008     1.0000    -0.4984    20.7738    41.5367     2.9282    14.4503    14.4503     1.7029     0.0000     1.0000     0.0387     0.000
    129     1.6667     1.6667     0.8900     0.0000     30.000   1414.000 226007.000     32.755    41.5367    43.6261   -67.4199    -1.9995     0.0009    26.0000     4.0000     9.0000    22.0000    26.0000    10.0000     5.0000    20.0000     3.0008     1.0000    -0.4983    20.7738    41.5367     2.9312    14.4503    14.4503     1.7030     0.0000     1.0000     0.0386     0.000
    130     1.6667     1.6667     0.8949     0.0000     30.000   1437.000 226640.000     32.846    41.5367    43.7107   -67.4986    -1.9995     0.0009    26.0000     4.0000     9.0000    22.0000    26.0000    10.0000     5.0000    20.0000     3.0008     1.0000    -0.4983    20.7738    41.5367     2.9342    14.4503    14.4503     1.7030     0.0000     1.0000     0.0386     0.000
    131     1.6667     1.6667     0.9000     0.0000     30.000   1347.000 227068.000     32.908    41.5367    43.7958   -67.5790    -1.9995     0.0009    26.0000     4.0000     9.0000    22.0000    26.0000    10.0000     5.0000    20.0000     3.0008     1.0000    -0.4984    20.7738    41.5367     2.9373    14.4503    14.4503     1.7029     0.0000     1.0000     0.0387     0.000
    132     1.6667     1.6667     0.9050     0.0000     30.000   1479.000 226159.000     32.777    41.5367    43.8799   -67.6590    -1.9995     0.0009    26.0000     4.0000     9.0000    22.0000    26.0000    10.0000     5.0000    20.0000     3.0008     1.0000    -0.4986    20.7738    41.5367     2.9404    14.4503    14.4503     1.7028     0.0000     1.0000     0.0387     0.000
    133     1.6667     1.6667     0.9100     0.0000     30.000   1430.000 225994.000     32.753    41.5367    43.9634   -67.7399    -1.9995     0.0009    26.0000     4.0000     9.0000    22.0000    26.0000    10.0000     5.0000    20.0000     3.0008     1.0000    -0.4984    20.7738    41.5367     2.9435    14.4503    14.4503     1.7028     0.0000     1.0000     0.0386     0.000
    134     1.6667     1.6667     0.9150     0.0000     30.000   1492.000 227030.000     32.903    41.5367    44.0468   -67.8211    -1.9995     0.0009    26.0000     4.0000     9.0000    22.0000    26.0000    10.0000     5.0000    20.0000     3.0008     1.0000    -0.4986    20.7738    41.5367     2.9466    14.4503    14.4503     1.7029     0.0000     1.0000     0.0390     0.000
    135     1.6667     1.6667     0.9200     0.0000     30.000   1550.000 226070.000     32.764    41.5367    44.1289   -67.9026    -1.9995     0.0009    26.0000     4.0000     9.0000    22.0000    26.0000    10.0000     5.0000    20.0000     3.0008     1.0000    -0.4985    20.7738    41.5367     2.9497    14.4503    14.4503     1.7029     0.0000     1.0000     0.0390     0.000
    136     1.6667     1.6667     0.9250     0.0000     30.000   1488.000 226524.000     32.830    41.5367    44.2113   -67.9855    -1.9995     0.0009    26.0000     4.0000     9.0000    22.0000    26.0000    10.0000     5.0000    20.0000     3.0008     1.0000    -0.4984    20.7738    41.5367     2.9528    14.4503    14.4503     1.7029     0.0000     1.0000     0.0386     0.000
    137     1.6667     1.6667     0.9300     0.0000     30.000   1610.000 227536.000     32.976    41.5367    44.2934   -68.0673    -1.9995     0.0009    26.0000     4.0000     9.0000    22.0000    26.0000    10.0000     5.0000    20.0000     3.0008     1.0000    -0.4986    20.7738    41.5367     2.9560    14.4503    14.4503     1.7029     0.0000     1.0000     0.0386     0.000
    138     1.6667     1.6667     0.9350     0.0000     30.000   1727.000 226845.000     32.876    41.5367    44.3743   -68.1505    -1.9995     0.0009    26.0000     4.0000     9.0000    22.0000    26.0000    10.0000     5.0000    20.0000     3.0008     1.0000    -0.4985    20.7738    41.5367     2.9591    14.4503    14.4503     1.7030     0.0000     1.0000     0.0391     0.000
    139     1.6667     1.6667     0.9400     0.0000     30.000   1799.000 226035.000     32.759    41.5367    44.4555   -68.2328    -1.9995     0.0009    26.0000     4.0000     9.0000    22.0000    26.0000    10.0000     5.0000    20.0000     3.0008     1.0000    -0.4984    20.7738    41.5367     2.9623    14.4503    14.4503     1.7029     0.0000     1.0000     0.0391     0.000
    140     1.6667     1.6667     0.9450     0.0000     30.000   2214.000 226807.000     32.871    41.5367    44.5362   -68.3170    -1.9995     0.0009    26.0000     4.0000     9.0000    22.0000    26.0000    10.0000     5.0000    20.0000     3.0008     1.0000    -0.4985    20.7738    41.5367     2.9655    14.4503    14.4503     1.7028     0.0000     1.0000     0.0384     0.000
    141     1.6667     1.6667     0.9500     0.0000     30.000   2822.000 226139.000     32.774    41.5367    44.6160   -68.4015    -1.9995     0.0009    26.0000     4.0000     9.0000    22.0000    26.0000    10.0000     5.0000    20.0000     3.0008     1.0000    -0.4984    20.7738    41.5367     2.9687    14.4503    14.4503     1.7028     0.0000     1.0000     0.0384     0.000
    142     1.6667     1.6667     0.9550     0.0000     30.000   3859.000 226438.000     32.817    41.5367    44.6955   -68.4854    -1.9995     0.0009    26.0000     4.0000     9.0000    22.0000    26.0000    10.0000     5.0000    20.0000     3.0007     1.0000    -0.4985    20.7738    41.5367     2.9719    14.4503    14.4503     1.7028     0.0000     1.0000     0.0388     0.000
    143     1.6667     1.6667     0.9601     0.0000     30.000   5923.000 226451.000     32.819    41.5367    44.7745   -68.5708    -1.9995     0.0009    26.0000     4.0000     9.0000    22.0000    26.0000    10.0000     5.0000    20.0000     3.0008     1.0000    -0.4987    20.7738    41.5367     2.9752    14.4503    14.4503     1.7028     0.0000     1.0000     0.0389     0.000
    144     1.6667     1.6668     0.9651     0.0000     30.000   8974.000 226725.000     32.859    41.5367    44.8528   -68.6562    -1.9995     0.0009    26.0000     4.0000     9.0000    22.0000    26.0000    10.0000     5.0000    20.0000     3.0008     1.0000    -0.4984    20.7738    41.5367     2.9784    14.4503    14.4503     1.7029     0.0000     1.0000     0.0389     0.000
    145     1.6667     1.6667     0.9700     0.0000     30.000  13509.000 226712.000     32.857    41.5367    44.9307   -68.7409    -1.9995     0.0009    26.0000     4.0000     9.0000    22.0000    26.0000    10.0000     5.0000    20.0000     3.0008     1.0000    -0.4986    20.7738    41.5367     2.9816    14.4503    14.4503     1.7029     0.0000     1.0000     0.0386     0.000
    146     1.6667     1.6667     0.9750     0.0000     30.000  19508.000 226481.000     32.823    41.5367    45.0085   -68.8260    -1.9995     0.0009    26.0000     4.0000     9.0000    22.0000    26.0000    10.0000     5.0000    20.0000     3.0008     1.0000    -0.4985    20.7738    41.5367     2.9849    14.4503    14.4503     1.7029     0.0000     1.0000     0.0386     0.000
    147     1.6667     1.6667     0.9800     0.0000     30.000  26869.000 226695.000     32.854    41.5367    45.0862   -68.9112    -1.9995     0.0009    26.0000     4.0000     9.0000    22.0000    26.0000    10.0000     5.0000    20.0000     3.0008     1.0000    -0.4984    20.7738    41.5367     2.9881    14.4503    14.4503     1.7029     0.0000     1.0000     0.0385     0.000
    148     1.6667     1.6667     0.9850     0.0000     30.000  34890.000 225664.000     32.705    41.5367    45.1626   -68.9960    -1.9995     0.0009    26.0000     4.0000     9.0000    22.0000    26.0000    10.0000     5.0000    20.0000     3.0009     1.0000    -0.4985    20.7738    41.5367     2.9913    14.4503    14.4503     1.7029     0.0000     1.0000     0.0385     0.000
    149     1.6667     1.6667     0.9900     0.0000     30.000  43640.000 225841.000     32.731    41.5367    45.2390   -69.0845    -1.9995     0.0009    26.0000     4.0000     9.0000    22.0000    26.0000    10.0000     5.0000    20.0000     3.0008     1.0000    -0.4984    20.7738    41.5367     2.9947    14.4503    14.4503     1.7029     0.0000     1.0000     0.0386     0.000
    150     1.6667     1.6667     0.9950     0.0000     30.000  52784.000 226322.000     32.800    41.5367    45.3147   -69.1708    -1.9995     0.0009    26.0000     4.0000     9.0000    22.0000    26.0000    10.0000     5.0000    20.0000     3.0007     1.0000    -0.4984    20.7738    41.5367     2.9980    14.4503    14.4503     1.7028     0.0000     1.0000     0.0385     0.000
    151     1.6667     1.6667     1.0000     0.0000     30.000  61960.000 225840.000     32.730    41.5367    45.3897   -69.2584    -1.9995     0.0009    26.0000     4.0000     9.0000    22.0000    26.0000    10.0000     5.0000    20.0000     3.0008     1.0000    -0.4987    20.7738    41.5367     3.0013    14.4503    14.4503     1.7028     0.0000     1.0000     0.0385     0.000
    152     1.6667     1.6667     1.0050     0.0000     30.000  69768.000 226039.000     32.759    41.5367    45.4649   -69.3466    -1.9995     0.0009    26.0000     4.0000     9.0000    22.0000    26.0000    10.0000     5.0000    20.0000     3.0008     1.0000    -0.4984    20.7738    41.5367     3.0046    14.4503    14.4503     1.7028     0.0000     1.0000     0.0384     0.000
    153     1.6667     1.6667     1.0100     0.0000     30.000  77465.000 226591.000     32.839    41.5367    45.5395   -69.4348    -1.9995     0.0009    26.0000     4.0000     9.0000    22.0000    26.0000    10.0000     5.0000    20.0000     3.0008     1.0000    -0.4986    20.7738    41.5367     3.0080    14.4503    14.4503     1.7028     0.0000     1.0000     0.0384     0.000
    154     1.6667     1.6667     1.0150     0.0000     30.000  82858.000 226351.000     32.804    41.5367    45.6135   -69.5238    -1.9995     0.0009    26.0000     4.0000     9.0000    22.0000    26.0000    10.0000     5.0000    20.0000     3.0008     1.0000    -0.4985    20.7738    41.5367     3.0114    14.4503    14.4503     1.7028     0.0000     1.0000     0.0384     0.000
    155     1.6667     1.6667     1.0200     0.0000     30.000  85233.000 225925.000     32.743    41.5367    45.6872   -69.6131    -1.9995     0.0009    26.0000     4.0000     9.0000    22.0000    26.0000    10.0000     5.0000    20.0000     3.0007     1.0000    -0.4985    20.7737    41.5367     3.0147    14.4503    14.4503     1.7028     0.0000     1.0000     0.0384     0.000
    156     1.6667     1.6667     1.0250     0.0000     30.000  85441.000 226771.000     32.865    41.5367    45.7601   -69.7022    -1.9995     0.0009    26.0000     4.0000     9.0000    22.0000    26.0000    10.0000     5.0000    20.0000     3.0008     1.0000    -0.4986    20.7738    41.5367     3.0181    14.4503    14.4503     1.7029     0.0000     1.0000     0.0387     0.000
    157     1.6667     1.6667     1.0300     0.0000     30.000  81882.000 227746.000     33.007    41.5367    45.8324   -69.7928    -1.9995     0.0009    26.0000     4.0000     9.0000    22.0000    26.0000    10.0000     5.0000    20.0000     3.0007     1.0000    -0.4985    20.7738    41.5367     3.0215    14.4503    14.4503     1.7028     0.0000     1.0000     0.0387     0.000
    158     1.6667     1.6667     1.0350     0.0000     30.000  77117.000 225809.000     32.726    41.5367    45.9050   -69.8828    -1.9995     0.0009    26.0000     4.0000     9.0000    22.0000    26.0000    10.0000     5.0000    20.0000     3.0008     1.0000    -0.4984    20.7738    41.5367     3.0249    14.4503    14.4503     1.7028     0.0000     1.0000     0.0386     0.000
    159     1.6667     1.6667     1.0400     0.0000     30.000  70122.000 226144.000     32.774    41.5367    45.9771   -69.9754    -1.9995     0.0009    26.0000     4.0000     9.0000    22.0000    26.0000    10.0000     5.0000    20.0000     3.0008     1.0000    -0.4986    20.7737    41.5367     3.0284    14.4503    14.4503     1.7028     0.0000     1.0000     0.0388     0.000
    160     1.6667     1.6667     1.0450     0.0000     30.000  63231.000 226557.000     32.834    41.5367    46.0478   -70.0670    -1.9995     0.0009    26.0000     4.0000     9.0000    22.0000    26.0000    10.0000     5.0000    20.0000     3.0008     1.0000    -0.4984    20.7737    41.5367     3.0319    14.4503    14.4503     1.7028     0.0000     1.0000     0.0388     0.000
    161     1.6667     1.6667     1.0500     0.0000     30.000  55297.000 226531.000     32.831    41.5367    46.1186   -70.1575    -1.9995     0.0009    26.0000     4.0000     9.0000    22.0000    26.0000    10.0000     5.0000    20.0000     3.0008     1.0000    -0.4986    20.7737    41.5367     3.0353    14.4503    14.4503     1.7028     0.0000     1.0000     0.0389     0.000
    162     1.6667     1.6668     1.0551     0.0000     30.000  47089.000 227025.000     32.902    41.5367    46.1886   -70.2515    -1.9995     0.0009    26.0000     4.0000     9.0000    22.0000    26.0000    10.0000     5.0000    20.0000     3.0008     1.0000    -0.4987    20.7737    41.5367     3.0389    14.4503    14.4503     1.7028     0.0000     1.0000     0.0389     0.000
    163     1.6667     1.6667     1.0601     0.0000     30.000  38400.000 226841.000     32.876    41.5367    46.2587   -70.3436    -1.9995     0.0009    26.0000     4.0000     9.0000    22.0000    26.0000    10.0000     5.0000    20.0000     3.0008     1.0000    -0.4984    20.7737    41.5367     3.0423    14.4503    14.4503     1.7028     0.0000     1.0000     0.0385     0.000
    164     1.6667     1.6667     1.0650     0.0000     30.000  30229.000 226314.000     32.799    41.5367    46.3282   -70.4354    -1.9995     0.0009    26.0000     4.0000     9.0000    22.0000    26.0000    10.0000     5.0000    20.0000     3.0008     1.0000    -0.4986    20.7737    41.5367     3.0458    14.4503    14.4503     1.7028     0.0000     1.0000     0.0385     0.000
    165     1.6667     1.6667     1.0700     0.0000     30.000  22737.000 226257.000     32.791    41.5367    46.3976   -70.5278    -1.9995     0.0009    26.0000     4.0000     9.0000    22.0000    26.0000    10.0000     5.0000    20.0000     3.0008     1.0000    -0.4987    20.7737    41.5367     3.0493    14.4503    14.4503     1.7028     0.0000     1.0000     0.0389     0.000
    166     1.6667     1.6667     1.0750     0.0000     30.000  16394.000 225748.000     32.717    41.5367    46.4658   -70.6218    -1.9995     0.0009    26.0000     4.0000     9.0000    22.0000    26.0000    10.0000     5.0000    20.0000     3.0008     1.0000    -0.4984    20.7737    41.5367     3.0528    14.4503    14.4503     1.7029     0.0000     1.0000     0.0387     0.000
    167     1.6667     1.6667     1.0800     0.0000     30.000  11321.000 227856.000     33.023    41.5367    46.5340   -70.7140    -1.9995     0.0009    26.0000     4.0000     9.0000    22.0000    26.0000    10.0000     5.0000    20.0000     3.0008     1.0000    -0.4984    20.7737    41.5367     3.0563    14.4503    14.4503     1.7029     0.0000     1.0000     0.0387     0.000
    168     1.6667     1.6667     1.0850     0.0000     30.000   7518.000 226209.000     32.784    41.5367    46.6013   -70.8088    -1.9995     0.0009    26.0000     4.0000     9.0000    22.0000    26.0000    10.0000     5.0000    20.0000     3.0008     1.0000    -0.4984    20.7737    41.5367     3.0598    14.4503    14.4503     1.7029     0.0000     1.0000     0.0387     0.000
    169     1.6667     1.6667     1.0900     0.0000     30.000   4992.000 226705.000     32.856    41.5367    46.6685   -70.9035    -1.9995     0.0009    26.0000     4.0000     9.0000    22.0000    26.0000    10.0000     5.0000    20.0000     3.0008     1.0000    -0.4984    20.7737    41.5367     3.0634    14.4503    14.4503     1.7029     0.0000     1.0000     0.0387     0.000
    170     1.6667     1.6667     1.0950     0.0000     30.000   3412.000 227122.000     32.916    41.5367    46.7355   -70.9980    -1.9995     0.0009    26.0000     4.0000     9.0000    22.0000    26.0000    10.0000     5.0000    20.0000     3.0008     1.0000    -0.4988    20.7737    41.5367     3.0669    14.4503    14.4503     1.7029     0.0000     1.0000     0.0386     0.000
    171     1.6667     1.6667     1.1000     0.0000     30.000   2546.000 225812.000     32.726    41.5367    46.8011   -71.0941    -1.9995     0.0009    26.0000     4.0000     9.0000    22.0000    26.0000    10.0000     5.0000    20.0000     3.0007     1.0000    -0.4985    20.7737    41.5367     3.0705    14.4503    14.4503     1.7029     0.0000     1.0000     0.0386     0.000
    172     1.6667     1.6667     1.1050     0.0000     30.000   2149.000 225927.000     32.743    41.5367    46.8671   -71.1892    -1.9995     0.0009    26.0000     4.0000     9.0000    22.0000    26.0000    10.0000     5.0000    20.0000     3.0008     1.0000    -0.4987    20.7737    41.5367     3.0741    14.4503    14.4503     1.7029     0.0000     1.0000     0.0385     0.000
    173     1.6667     1.6667     1.1100     0.0000     30.000   1761.000 226988.000     32.897    41.5367    46.9323   -71.2869    -1.9995     0.0009    26.0000     4.0000     9.0000    22.0000    26.0000    10.0000     5.0000    20.0000     3.0008     1.0000    -0.4986    20.7737    41.5367     3.0778    14.4503    14.4503     1.7030     0.0000     1.0000     0.0385     0.000
    174     1.6667     1.6667     1.1150     0.0000     30.000   1675.000 225627.000     32.700    41.5367    46.9974   -71.3820    -1.9995     0.0009    26.0000     4.0000     9.0000    22.0000    26.0000    10.0000     5.0000    20.0000     3.0007     1.0000    -0.4985    20.7737    41.5367     3.0813    14.4503    14.4503     1.7029     0.0000     1.0000     0.0387     0.000
    175     1.6667     1.6667     1.1200     0.0000     30.000   1607.000 226842.000     32.876    41.5367    47.0614   -71.4785    -1.9995     0.0009    26.0000     4.0000     9.0000    22.0000    26.0000    10.0000     5.0000    20.0000     3.0008     1.0000    -0.4987    20.7737    41.5367     3.0849    14.4503    14.4503     1.7029     0.0000     1.0000     0.0388     0.000
    176     1.6667     1.6667     1.1250     0.0000     30.000   1524.000 227078.000     32.910    41.5367    47.1258   -71.5764    -1.9995     0.0009    26.0000     4.0000     9.0000    22.0000    26.0000    10.0000     5.0000    20.0000     3.0007     1.0000    -0.4987    20.7737    41.5367     3.0886    14.4503    14.4503     1.7030     0.0000     1.0000     0.0388     0.000
    177     1.6667     1.6667     1.1300     0.0000     30.000   1491.000 225906.000     32.740    41.5367    47.1887   -71.6738    -1.9995     0.0009    26.0000     4.0000     9.0000    22.0000    26.0000    10.0000     5.0000    20.0000     3.0007     1.0000    -0.4985    20.7737    41.5367     3.0922    14.4503    14.4503     1.7030     0.0000     1.0000     0.0386     0.000
    178     1.6667     1.6667     1.1350     0.0000     30.000   1503.000 226034.000     32.759    41.5367    47.2520   -71.7721    -1.9995     0.0009    26.0000     4.0000     9.0000    22.0000    26.0000    10.0000     5.0000    20.0000     3.0007     1.0000    -0.4986    20.7737    41.5367     3.0959    14.4503    14.4503     1.7028     0.0000     1.0000     0.0386     0.000
    179     1.6667     1.6667     1.1400     0.0000     30.000   1449.000 226357.000     32.805    41.5367    47.3148   -71.8714    -1.9995     0.0009    26.0000     4.0000     9.0000    22.0000    26.0000    10.0000     5.0000    20.0000     3.0007     1.0000    -0.4984    20.7737    41.5367     3.0996    14.4503    14.4503     1.7028     0.0000     1.0000     0.0385     0.000
    180     1.6667     1.6667     1.1451     0.0000     30.000   1403.000 226659.000     32.849    41.5367    47.3773   -71.9702    -1.9995     0.0009    26.0000     4.0000     9.0000    22.0000    26.0000    10.0000     5.0000    20.0000     3.0007     1.0000    -0.4985    20.7737    41.5367     3.1033    14.4503    14.4503     1.7028     0.0000     1.0000     0.0385     0.000
    181     1.6667     1.6667     1.1500     0.0000     30.000   1475.000 225689.000     32.709    41.5367    47.4385   -72.0692    -1.9995     0.0009    26.0000     4.0000     9.0000    22.0000    26.0000    10.0000     5.0000    20.0000     3.0008     1.0000    -0.4988    20.7737    41.5367     3.1070    14.4503    14.4503     1.7028     0.0000     1.0000     0.0384     0.000
    182     1.6667     1.6667     1.1550     0.0000     30.000   1342.000 225684.000     32.708    41.5367    47.4996   -72.1684    -1.9995     0.0009    26.0000     4.0000     9.0000    22.0000    26.0000    10.0000     5.0000    20.0000     3.0007     1.0000    -0.4985    20.7737    41.5367     3.1107    14.4503    14.4503     1.7028     0.0000     1.0000     0.0388     0.000
    183     1.6667     1.6667     1.1599     0.0000     30.000   1482.000 226304.000     32.798    41.5367    47.5602   -72.2651    -1.9995     0.0009    26.0000     4.0000     9.0000    22.0000    26.0000    10.0000     5.0000    20.0000     3.0008     1.0000    -0.4987    20.7737    41.5367     3.1143    14.4503    14.4503     1.7028     0.0000     1.0000     0.0388     0.000
    184     1.6667     1.6667     1.1650     0.0000     30.000   1390.000 227710.000     33.001    41.5367    47.6208   -72.3665    -1.9995     0.0009    26.0000     4.0000     9.0000    22.0000    26.0000    10.0000     5.0000    20.0000     3.0008     1.0000    -0.4988    20.7737    41.5367     3.1181    14.4503    14.4503     1.7028     0.0000     1.0000     0.0383     0.000
    185     1.6667     1.6667     1.1700     0.0000     30.000   1471.000 226685.000     32.853    41.5367    47.6806   -72.4678    -1.9995     0.0009    26.0000     4.0000     9.0000    22.0000    26.0000    10.0000     5.0000    20.0000     3.0008     1.0000    -0.4985    20.7737    41.5367     3.1218    14.4503    14.4503     1.7028     0.0000     1.0000     0.0383     0.000
    186     1.6667     1.6667     1.1749     0.0000     30.000   1415.000 226680.000     32.852    41.5367    47.7398   -72.5678    -1.9995     0.0009    26.0000     4.0000     9.0000    22.0000    26.0000    10.0000     5.0000    20.0000     3.0008     1.0000    -0.4987    20.7736    41.5367     3.1255    14.4503    14.4503     1.7029     0.0000     1.0000     0.0383     0.000
    187     1.6667     1.6667     1.1800     0.0000     30.000   1359.000 226206.000     32.783    41.5367    47.7989   -72.6696    -1.9995     0.0009    26.0000     4.0000     9.0000    22.0000    26.0000    10.0000     5.0000    20.0000     3.0008     1.0000    -0.4987    20.7736    41.5367     3.1293    14.4503    14.4503     1.7029     0.0000     1.0000     0.0383     0.000
    188     1.6667     1.6667     1.1850     0.0000     30.000   1360.000 227401.000     32.957    41.5367    47.8576   -72.7718    -1.9995     0.0009    26.0000     4.0000     9.0000    22.0000    26.0000    10.0000     5.0000    20.0000     3.0007     1.0000    -0.4985    20.7736    41.5367     3.1331    14.4503    14.4503     1.7028     0.0000     1.0000     0.0384     0.000
    189     1.6667     1.6667     1.1900     0.0000     30.000   1353.000 225826.000     32.728    41.5367    47.9162   -72.8739    -1.9995     0.0009    26.0000     4.0000     9.0000    22.0000    26.0000    10.0000     5.0000    20.0000     3.0007     1.0000    -0.4987    20.7737    41.5367     3.1369    14.4503    14.4503     1.7028     0.0000     1.0000     0.0384     0.000
    190     1.6667     1.6667     1.1950     0.0000     30.000   1307.000 226728.000     32.859    41.5367    47.9735   -72.9761    -1.9995     0.0009    26.0000     4.0000     9.0000    22.0000    26.0000    10.0000     5.0000    20.0000     3.0007     1.0000    -0.4985    20.7736    41.5367     3.1407    14.4503    14.4503     1.7029     0.0000     1.0000     0.0386     0.000
    191     1.6667     1.6667     1.2000     0.0000     30.000   1400.000 225947.000     32.746    41.5367    48.0301   -73.0797    -1.9995     0.0009    26.0000     4.0000     9.0000    22.0000    26.0000    10.0000     5.0000    20.0000     3.0008     1.0000    -0.4986    20.7736    41.5367     3.1445    14.4503    14.4503     1.7028     0.0000     1.0000     0.0385     0.000
    192     1.6667     1.6667     1.2050     0.0000     30.000   1330.000 227184.000     32.925    41.5367    48.0873   -73.1825    -1.9995     0.0009    26.0000     4.0000     9.0000    22.0000    26.0000    10.0000     5.0000    20.0000     3.0007     1.0000    -0.4986    20.7736    41.5367     3.1483    14.4503    14.4503     1.7028     0.0000     1.0000     0.0385     0.000
    193     1.6667     1.6667     1.2100     0.0000     30.000   1365.000 225817.000     32.727    41.5367    48.1433   -73.2871    -1.9995     0.0009    26.0000     4.0000     9.0000    22.0000    26.0000    10.0000     5.0000    20.0000     3.0008     1.0000    -0.4986    20.7736    41.5367     3.1522    14.4503    14.4503     1.7028     0.0000     1.0000     0.0387     0.000
    194     1.6667     1.6667     1.2150     0.0000     30.000   1387.000 226234.000     32.788    41.5367    48.1989   -73.3908    -1.9995     0.0009    26.0000     4.0000     9.0000    22.0000    26.0000    10.0000     5.0000    20.0000     3.0007     1.0000    -0.4985    20.7736    41.5367     3.1560    14.4503    14.4503     1.7029     0.0000     1.0000     0.0387     0.000
    195     1.6667     1.6667     1.2201    -0.0000     30.000   1327.000 226704.000     32.856    41.5367    48.2550   -73.4971    -1.9995     0.0009    26.0000     4.0000     9.0000    22.0000    26.0000    10.0000     5.0000    20.0000     3.0007     1.0000    -0.4987    20.7736    41.5367     3.1600    14.4503    14.4503     1.7029     0.0000     1.0000     0.0385     0.000
    196     1.6667     1.6667     1.2250     0.0000     30.000   1401.000 226074.000     32.764    41.5367    48.3093   -73.6007    -1.9995     0.0009    26.0000     4.0000     9.0000    22.0000    26.0000    10.0000     5.0000    20.0000     3.0007     1.0000    -0.4985    20.7736    41.5367     3.1638    14.4503    14.4503     1.7028     0.0000     1.0000     0.0385     0.000
    197     1.6667     1.6667     1.2300    -0.0000     30.000   1344.000 226236.000     32.788    41.5367    48.3636   -73.7064    -1.9995     0.0009    26.0000     4.0000     9.0000    22.0000    26.0000    10.0000     5.0000    20.0000     3.0007     1.0000    -0.4987    20.7736    41.5367     3.1677    14.4503    14.4503     1.7028     0.0000     1.0000     0.0386     0.000
    198     1.6667     1.6667     1.2350    -0.0000     30.000   1384.000 226236.000     32.788    41.5367    48.4180   -73.8111    -1.9995     0.0009    26.0000     4.0000     9.0000    22.0000    26.0000    10.0000     5.0000    20.0000     3.0008     1.0000    -0.4986    20.7736    41.5367     3.1716    14.4503    14.4503     1.7028     0.0000     1.0000     0.0385     0.000
    199     1.6667     1.6667     1.2400    -0.0000     30.000   1273.000 227130.000     32.917    41.5367    48.4718   -73.9148    -1.9995     0.0009    26.0000     4.0000     9.0000    22.0000    26.0000    10.0000     5.0000    20.0000     3.0007     1.0000    -0.4985    20.7736    41.5367     3.1754    14.4503    14.4503     1.7028     0.0000     1.0000     0.0385     0.000
    200     1.6666     1.6667     1.2450     0.0003     30.000   1315.000 226131.000     32.773    41.5367    48.5247   -74.0211    -1.9995     0.0009    26.0000     4.0000     9.0000    22.0000    26.0000    10.0000     5.0000    20.0000     3.0008     1.0000    -0.4986    20.7736    41.5372     3.1793    14.4503    14.4500     1.7028     0.0000     1.0000     0.0385     0.000
    201     1.6666     1.6667     1.2500     0.0001     30.000   1336.000 225950.000     32.746    41.5367    48.5779   -74.1275    -1.9995     0.0009    26.0000     4.0000     9.0000    22.0000    26.0000    10.0000     5.0000    20.0000     3.0007     1.0000    -0.4988    20.7736    41.5369     3.1832    14.4503    14.4502     1.7027     0.0000     1.0000     0.0385     0.000
    202     1.6667     1.6667     1.2549     0.0001     30.000   1318.000 227092.000     32.912    41.5367    48.6293   -74.2343    -1.9995     0.0009    26.0000     4.0000     9.0000    22.0000    26.0000    10.0000     5.0000    20.0000     3.0007     1.0000    -0.4986    20.7736    41.5369     3.1871    14.4503    14.4502     1.7027     0.0000     1.0000     0.0387     0.000
    203     1.6667     1.6667     1.2600     0.0001     30.000   1393.000 226919.000     32.887    41.5367    48.6814   -74.3420    -1.9995     0.0009    26.0000     4.0000     9.0000    22.0000    26.0000    10.0000     5.0000    20.0000     3.0007     1.0000    -0.4986    20.7736    41.5368     3.1911    14.4503    14.4502     1.7027     0.0000     1.0000     0.0387     0.000
    204     1.6667     1.6667     1.2650     0.0001     30.000   1279.000 226267.000     32.792    41.5367    48.7329   -74.4496    -1.9995     0.0009    26.0000     4.0000     9.0000    22.0000    26.0000    10.0000     5.0000    20.0000     3.0007     1.0000    -0.4988    20.7736    41.5368     3.1950    14.4503    14.4502     1.7027     0.0000     1.0000     0.0385     0.000
    205     1.6667     1.6667     1.2700     0.0001     30.000   1363.000 226615.000     32.843    41.5367    48.7836   -74.5596    -1.9995     0.0009    26.0000     4.0000     9.0000    22.0000    26.0000    10.0000     5.0000    20.0000     3.0007     1.0000    -0.4985    20.7736    41.5368     3.1991    14.4503    14.4502     1.7027     0.0000     1.0000     0.0384     0.000
    206     1.6667     1.6667     1.2750     0.0001     30.000   1296.000 226449.000     32.819    41.5367    48.8344   -74.6675    -1.9995     0.0009    26.0000     4.0000     9.0000    22.0000    26.0000    10.0000     5.0000    20.0000     3.0008     1.0000    -0.4987    20.7736    41.5368     3.2030    14.4503    14.4502     1.7027     0.0000     1.0000     0.0384     0.000
    207     1.6667     1.6667     1.2800     0.0001     30.000   1333.000 227055.000     32.907    41.5367    48.8842   -74.7762    -1.9995     0.0009    26.0000     4.0000     9.0000    22.0000    26.0000    10.0000     5.0000    20.0000     3.0007     1.0000    -0.4985    20.7736    41.5368     3.2070    14.4503    14.4502     1.7028     0.0000     1.0000     0.0384     0.000
    208     1.6667     1.6667     1.2851     0.0001     30.000   1372.000 225247.000     32.644    41.5367    48.9338   -74.8879    -1.9995     0.0009    26.0000     4.0000     9.0000    22.0000    26.0000    10.0000     5.0000    20.0000     3.0007     1.0000    -0.4986    20.7736    41.5368     3.2111    14.4503    14.4502     1.7027     0.0000     1.0000     0.0384     0.000
    209     1.6667     1.6667     1.2901     0.0001     30.000   1322.000 226519.000     32.829    41.5367    48.9828   -74.9976    -1.9995     0.0009    26.0000     4.0000     9.0000    22.0000    26.0000    10.0000     5.0000    20.0000     3.0007     1.0000    -0.4988    20.7736    41.5368     3.2151    14.4503    14.4502     1.7027     0.0000     1.0000     0.0384     0.000
    210     1.6667     1.6667     1.2950     0.0001     30.000   1275.000 226806.000     32.870    41.5367    49.0312   -75.1068    -1.9995     0.0009    26.0000     4.0000     9.0000    22.0000    26.0000    10.0000     5.0000    20.0000     3.0008     1.0000    -0.4986    20.7736    41.5368     3.2191    14.4503    14.4502     1.7028     0.0000     1.0000     0.0384     0.000
    211     1.6667     1.6667     1.3001     0.0001     30.000   1341.000 226783.000     32.867    41.5367    49.0794   -75.2182    -1.9995     0.0009    26.0000     4.0000     9.0000    22.0000    26.0000    10.0000     5.0000    20.0000     3.0008     1.0000    -0.4988    20.7736    41.5368     3.2232    14.4503    14.4502     1.7028     0.0000     1.0000     0.0385     0.000
    212     1.6667     1.6667     1.3051     0.0000     30.000   1350.000 225816.000     32.727    41.5367    49.1274   -75.3282    -1.9995     0.0009    26.0000     4.0000     9.0000    22.0000    26.0000    10.0000     5.0000    20.0000     3.0007     1.0000    -0.4986    20.7735    41.5368     3.2272    14.4503    14.4502     1.7028     0.0000     1.0000     0.0385     0.000
    213     1.6667     1.6667     1.3101     0.0000     30.000   1303.000 225554.000     32.689    41.5367    49.1751   -75.4392    -1.9995     0.0009    26.0000     4.0000     9.0000    22.0000    26.0000    10.0000     5.0000    20.0000     3.0008     1.0000    -0.4986    20.7736    41.5368     3.2312    14.4503    14.4502     1.7028     0.0000     1.0000     0.0384     0.000
    214     1.6667     1.6667     1.3150     0.0000     30.000   1328.000 226609.000     32.842    41.5367    49.2217   -75.5471    -1.9995     0.0009    26.0000     4.0000     9.0000    22.0000    26.0000    10.0000     5.0000    20.0000     3.0008     1.0000    -0.4987    20.7736    41.5367     3.2352    14.4503    14.4503     1.7028     0.0000     1.0000     0.0382     0.000
    215     1.6667     1.6667     1.3200     0.0000     30.000   1338.000 226801.000     32.870    41.5367    49.2677   -75.6616    -1.9995     0.0009    26.0000     4.0000     9.0000    22.0000    26.0000    10.0000     5.0000    20.0000     3.0007     1.0000    -0.4986    20.7736    41.5367     3.2393    14.4503    14.4503     1.7028     0.0000     1.0000     0.0382     0.000
    216     1.6667     1.6667     1.3250     0.0000     30.000   1304.000 226788.000     32.868    41.5367    49.3144   -75.7714    -1.9995     0.0009    26.0000     4.0000     9.0000    22.0000    26.0000    10.0000     5.0000    20.0000     3.0007     1.0000    -0.4985    20.7735    41.5368     3.2433    14.4503    14.4502     1.7027     0.0000     1.0000     0.0382     0.000
    217     1.6667     1.6667     1.3299     0.0000     30.000   1359.000 226444.000     32.818    41.5367    49.3595   -75.8830    -1.9995     0.0009    26.0000     4.0000     9.0000    22.0000    26.0000    10.0000     5.0000    20.0000     3.0008     1.0000    -0.4987    20.7735    41.5368     3.2474    14.4503    14.4502     1.7026     0.0000     1.0000     0.0382     0.000
    218     1.6667     1.6667     1.3350     0.0000     30.000   1274.000 225817.000     32.727    41.5367    49.4048   -75.9967    -1.9995     0.0009    26.0000     4.0000     9.0000    22.0000    26.0000    10.0000     5.0000    20.0000     3.0007     1.0000    -0.4986    20.7735    41.5367     3.2515    14.4503    14.4503     1.7026     0.0000     1.0000     0.0384     0.000
    219     1.6667     1.6667     1.3400     0.0000     30.000   1364.000 225551.000     32.689    41.5367    49.4493   -76.1104    -1.9995     0.0009    26.0000     4.0000     9.0000    22.0000    26.0000    10.0000     5.0000    20.0000     3.0008     1.0000    -0.4986    20.7735    41.5367     3.2556    14.4503    14.4503     1.7026     0.0000     1.0000     0.0384     0.000
    220     1.6667     1.6667     1.3450     0.0000     30.000   1353.000 226208.000     32.784    41.5367    49.4940   -76.2242    -1.9995     0.0009    26.0000     4.0000     9.0000    22.0000    26.0000    10.0000     5.0000    20.0000     3.0007     1.0000    -0.4986    20.7735    41.5367     3.2598    14.4503    14.4503     1.7026     0.0000     1.0000     0.0383     0.000
    221     1.6667     1.6667     1.3500     0.0000     30.000   1379.000 225745.000     32.717    41.5367    49.5378   -76.3373    -1.9995     0.0009    26.0000     4.0000     9.0000    22.0000    26.0000    10.0000     5.0000    20.0000     3.0008     1.0000    -0.4986    20.7735    41.5367     3.2639    14.4503    14.4503     1.7025     0.0000     1.0000     0.0382     0.000
    222     1.6667     1.6667     1.3550     0.0000     30.000   1276.000 225963.000     32.748    41.5367    49.5812   -76.4520    -1.9995     0.0009    26.0000     4.0000     9.0000    22.0000    26.0000    10.0000     5.0000    20.0000     3.0007     1.0000    -0.4986    20.7735    41.5367     3.2680    14.4503    14.4503     1.7026     0.0000     1.0000     0.0382     0.000
    223     1.6667     1.6667     1.3600     0.0000     30.000   1297.000 226461.000     32.820    41.5367    49.6240   -76.5667    -1.9995     0.0009    26.0000     4.0000     9.0000    22.0000    26.0000    10.0000     5.0000    20.0000     3.0007     1.0000    -0.4987    20.7735    41.5367     3.2722    14.4503    14.4503     1.7026     0.0000     1.0000     0.0383     0.000
    224     1.6667     1.6667     1.3650     0.0000     30.000   1369.000 226222.000     32.786    41.5367    49.6667   -76.6835    -1.9995     0.0009    26.0000     4.0000     9.0000    22.0000    26.0000    10.0000     5.0000    20.0000     3.0008     1.0000    -0.4986    20.7735    41.5367     3.2764    14.4503    14.4503     1.7026     0.0000     1.0000     0.0383     0.000
    225     1.6667     1.6667     1.3700     0.0000     30.000   1353.000 225606.000     32.697    41.5367    49.7083   -76.7975    -1.9995     0.0009    26.0000     4.0000     9.0000    22.0000    26.0000    10.0000     5.0000    20.0000     3.0007     1.0000    -0.4988    20.7735    41.5367     3.2805    14.4503    14.4503     1.7026     0.0000     1.0000     0.0382     0.000
    226     1.6667     1.6667     1.3750     0.0000     30.000   1281.000 225437.000     32.672    41.5367    49.7500   -76.9127    -1.9995     0.0009    26.0000     4.0000     9.0000    22.0000    26.0000    10.0000     5.0000    20.0000     3.0007     1.0000    -0.4988    20.7735    41.5367     3.2847    14.4503    14.4503     1.7025     0.0000     1.0000     0.0382     0.000
    227     1.6667     1.6667     1.3800     0.0000     30.000   1333.000 225912.000     32.741    41.5367    49.7911   -77.0295    -1.9995     0.0009    26.0000     4.0000     9.0000    22.0000    26.0000    10.0000     5.0000    20.0000     3.0007     1.0000    -0.4986    20.7735    41.5367     3.2889    14.4503    14.4503     1.7026     0.0000     1.0000     0.0382     0.000
    228     1.6667     1.6667     1.3850     0.0000     30.000   1302.000 226467.000     32.821    41.5367    49.8320   -77.1468    -1.9995     0.0009    26.0000     4.0000     9.0000    22.0000    26.0000    10.0000     5.0000    20.0000     3.0008     1.0000    -0.4988    20.7735    41.5367     3.2931    14.4503    14.4503     1.7026     0.0000     1.0000     0.0382     0.000
    229     1.6667     1.6667     1.3900     0.0000     30.000   1360.000 226189.000     32.781    41.5367    49.8726   -77.2629    -1.9995     0.0009    26.0000     4.0000     9.0000    22.0000    26.0000    10.0000     5.0000    20.0000     3.0007     1.0000    -0.4988    20.7735    41.5367     3.2973    14.4503    14.4503     1.7026     0.0000     1.0000     0.0386     0.000
    230     1.6667     1.6667     1.3950     0.0000     30.000   1307.000 225767.000     32.720    41.5367    49.9123   -77.3807    -1.9995     0.0009    26.0000     4.0000     9.0000    22.0000    26.0000    10.0000     5.0000    20.0000     3.0008     1.0000    -0.4986    20.7735    41.5367     3.3015    14.4503    14.4503     1.7026     0.0000     1.0000     0.0383     0.000
    231     1.6667     1.6667     1.4000     0.0000     30.000   1291.000 226184.000     32.780    41.5367    49.9517   -77.4976    -1.9995     0.0009    26.0000     4.0000     9.0000    22.0000    26.0000    10.0000     5.0000    20.0000     3.0007     1.0000    -0.4987    20.7735    41.5367     3.3058    14.4503    14.4503     1.7026     0.0000     1.0000     0.0383     0.000
    232     1.6667     1.6667     1.4050     0.0000     30.000   1354.000 226775.000     32.866    41.5367    49.9906   -77.6161    -1.9995     0.0009    26.0000     4.0000     9.0000    22.0000    26.0000    10.0000     5.0000    20.0000     3.0007     1.0000    -0.4986    20.7734    41.5367     3.3100    14.4503    14.4503     1.7026     0.0000     1.0000     0.0387     0.000
    233     1.6667     1.6667     1.4101     0.0000     30.000   1273.000 226709.000     32.856    41.5367    50.0291   -77.7380    -1.9995     0.0009    26.0000     4.0000     9.0000    22.0000    26.0000    10.0000     5.0000    20.0000     3.0008     1.0000    -0.4986    20.7734    41.5367     3.3144    14.4503    14.4503     1.7026     0.0000     1.0000     0.0387     0.000
    234     1.6667     1.6667     1.4150     0.0000     30.000   1336.000 226945.000     32.891    41.5367    50.0671   -77.8534    -1.9995     0.0009    26.0000     4.0000     9.0000    22.0000    26.0000    10.0000     5.0000    20.0000     3.0007     1.0000    -0.4988    20.7734    41.5367     3.3185    14.4503    14.4503     1.7026     0.0000     1.0000     0.0383     0.000
    235     1.6667     1.6667     1.4200     0.0000     30.000   1320.000 226234.000     32.788    41.5367    50.1056   -77.9720    -1.9995     0.0009    26.0000     4.0000     9.0000    22.0000    26.0000    10.0000     5.0000    20.0000     3.0007     1.0000    -0.4986    20.7734    41.5367     3.3228    14.4503    14.4503     1.7025     0.0000     1.0000     0.0383     0.000
    236     1.6667     1.6667     1.4250     0.0000     30.000   1358.000 225947.000     32.746    41.5367    50.1424   -78.0916    -1.9995     0.0009    26.0000     4.0000     9.0000    22.0000    26.0000    10.0000     5.0000    20.0000     3.0007     1.0000    -0.4986    20.7734    41.5367     3.3271    14.4503    14.4503     1.7025     0.0000     1.0000     0.0386     0.000
    237     1.6667     1.6667     1.4300     0.0000     30.000   1306.000 226236.000     32.788    41.5367    50.1791   -78.2128    -1.9995     0.0009    26.0000     4.0000     9.0000    22.0000    26.0000    10.0000     5.0000    20.0000     3.0007     1.0000    -0.4987    20.7734    41.5367     3.3314    14.4503    14.4503     1.7026     0.0000     1.0000     0.0386     0.000
    238     1.6667     1.6667     1.4350     0.0000     30.000   1336.000 226870.000     32.880    41.5367    50.2161   -78.3326    -1.9995     0.0009    26.0000     4.0000     9.0000    22.0000    26.0000    10.0000     5.0000    20.0000     3.0007     1.0000    -0.4986    20.7734    41.5367     3.3357    14.4503    14.4503     1.7026     0.0000     1.0000     0.0386     0.000
    239     1.6667     1.6667     1.4401     0.0000     30.000   1397.000 226157.000     32.776    41.5367    50.2519   -78.4548    -1.9995     0.0009    26.0000     4.0000     9.0000    22.0000    26.0000    10.0000     5.0000    20.0000     3.0007     1.0000    -0.4986    20.7734    41.5367     3.3400    14.4503    14.4503     1.7026     0.0000     1.0000     0.0385     0.000
    240     1.6667     1.6667     1.4450     0.0000     30.000   1274.000 226552.000     32.834    41.5367    50.2872   -78.5754    -1.9995     0.0009    26.0000     4.0000     9.0000    22.0000    26.0000    10.0000     5.0000    20.0000     3.0007     1.0000    -0.4987    20.7734    41.5367     3.3443    14.4503    14.4503     1.7026     0.0000     1.0000     0.0385     0.000
    241     1.6667     1.6667     1.4500     0.0000     30.000   1367.000 226837.000     32.875    41.5367    50.3222   -78.6938    -1.9995     0.0009    26.0000     4.0000     9.0000    22.0000    26.0000    10.0000     5.0000    20.0000     3.0008     1.0000    -0.4986    20.7734    41.5367     3.3486    14.4503    14.4503     1.7026     0.0000     1.0000     0.0386     0.000
    242     1.6667     1.6667     1.4550     0.0000     30.000   1376.000 226891.000     32.883    41.5367    50.3571   -78.8168    -1.9995     0.0009    26.0000     4.0000     9.0000    22.0000    26.0000    10.0000     5.0000    20.0000     3.0007     1.0000    -0.4986    20.7734    41.5367     3.3530    14.4503    14.4503     1.7025     0.0000     1.0000     0.0386     0.000
    243     1.6667     1.6667     1.4600     0.0000     30.000   1429.000 225971.000     32.749    41.5367    50.3915   -78.9388    -1.9995     0.0009    26.0000     4.0000     9.0000    22.0000    26.0000    10.0000     5.0000    20.0000     3.0008     1.0000    -0.4987    20.7734    41.5367     3.3573    14.4503    14.4503     1.7026     0.0000     1.0000     0.0383     0.000
    244     1.6667     1.6667     1.4650     0.0000     30.000   1360.000 226524.000     32.830    41.5367    50.4255   -79.0599    -1.9995     0.0009    26.0000     4.0000     9.0000    22.0000    26.0000    10.0000     5.0000    20.0000     3.0007     1.0000    -0.4986    20.7734    41.5367     3.3616    14.4503    14.4503     1.7025     0.0000     1.0000     0.0383     0.000
    245     1.6667     1.6667     1.4699     0.0000     30.000   1426.000 226451.000     32.819    41.5367    50.4584   -79.1815    -1.9995     0.0009    26.0000     4.0000     9.0000    22.0000    26.0000    10.0000     5.0000    20.0000     3.0007     1.0000    -0.4986    20.7734    41.5367     3.3659    14.4503    14.4503     1.7025     0.0000     1.0000     0.0385     0.000
    246     1.6667     1.6667     1.4750     0.0000     30.000   1504.000 226839.000     32.875    41.5367    50.4918   -79.3063    -1.9995     0.0009    26.0000     4.0000     9.0000    22.0000    26.0000    10.0000     5.0000    20.0000     3.0007     1.0000    -0.4987    20.7734    41.5367     3.3704    14.4503    14.4503     1.7025     0.0000     1.0000     0.0386     0.000
    247     1.6667     1.6667     1.4800     0.0000     30.000   1544.000 226907.000     32.885    41.5367    50.5240   -79.4303    -1.9995     0.0009    26.0000     4.0000     9.0000    22.0000    26.0000    10.0000     5.0000    20.0000     3.0008     1.0000    -0.4986    20.7734    41.5367     3.3748    14.4503    14.4503     1.7024     0.0000     1.0000     0.0386     0.000
    248     1.6667     1.6667     1.4850     0.0000     30.000   1974.000 227053.000     32.906    41.5367    50.5566   -79.5542    -1.9995     0.0009    26.0000     4.0000     9.0000    22.0000    26.0000    10.0000     5.0000    20.0000     3.0008     1.0000    -0.4987    20.7733    41.5367     3.3791    14.4503    14.4503     1.7024     0.0000     1.0000     0.0384     0.000
    249     1.6667     1.6667     1.4900     0.0000     30.000   2602.000 226275.000     32.793    41.5367    50.5877   -79.6784    -1.9995     0.0009    26.0000     4.0000     9.0000    22.0000    26.0000    10.0000     5.0000    20.0000     3.0007     1.0000    -0.4988    20.7733    41.5367     3.3835    14.4503    14.4503     1.7024     0.0000     1.0000     0.0384     0.000
    250     1.6667     1.6667     1.4950     0.0000     30.000   3628.000 226926.000     32.888    41.5367    50.6189   -79.8025    -1.9995     0.0009    26.0000     4.0000     9.0000    22.0000    26.0000    10.0000     5.0000    20.0000     3.0008     1.0000    -0.4986    20.7733    41.5367     3.3879    14.4503    14.4503     1.7025     0.0000     1.0000     0.0387     0.000
    251     1.6667     1.6667     1.5001     0.0000     30.000   4746.000 227095.000     32.912    41.5367    50.6497   -79.9305    -1.9995     0.0009    26.0000     4.0000     9.0000    22.0000    26.0000    10.0000     5.0000    20.0000     3.0008     1.0000    -0.4987    20.7733    41.5367     3.3924    14.4503    14.4503     1.7025     0.0000     1.0000     0.0387     0.000
    252     1.6667     1.6667     1.5050     0.0000     30.000   5126.000 227460.000     32.965    41.5367    50.6800   -80.0553    -1.9995     0.0009    26.0000     4.0000     9.0000    22.0000    26.0000    10.0000     5.0000    20.0000     3.0007     1.0000    -0.4986    20.7733    41.5367     3.3969    14.4503    14.4503     1.7026     0.0000     1.0000     0.0383     0.000
    253     1.6667     1.6667     1.5100     0.0000     30.000   4248.000 225895.000     32.738    41.5367    50.7099   -80.1802    -1.9995     0.0009    26.0000     4.0000     9.0000    22.0000    26.0000    10.0000     5.0000    20.0000     3.0007     1.0000    -0.4986    20.7733    41.5367     3.4013    14.4503    14.4503     1.7025     0.0000     1.0000     0.0381     0.000
    254     1.6667     1.6667     1.5150     0.0000     30.000   2957.000 227386.000     32.954    41.5367    50.7396   -80.3074    -1.9995     0.0009    26.0000     4.0000     9.0000    22.0000    26.0000    10.0000     5.0000    20.0000     3.0008     1.0000    -0.4986    20.7733    41.5367     3.4057    14.4503    14.4503     1.7024     0.0000     1.0000     0.0381     0.000
    255     1.6667     1.6667     1.5200     0.0000     30.000   2172.000 226200.000     32.783    41.5367    50.7686   -80.4313    -1.9995     0.0009    26.0000     4.0000     9.0000    22.0000    26.0000    10.0000     5.0000    20.0000     3.0007     1.0000    -0.4986    20.7733    41.5367     3.4101    14.4503    14.4503     1.7024     0.0000     1.0000     0.0382     0.000
    256     1.6667     1.6667     1.5249     0.0000     30.000   1994.000 226429.000     32.816    41.5367    50.7978   -80.5570    -1.9995     0.0009    26.0000     4.0000     9.0000    22.0000    26.0000    10.0000     5.0000    20.0000     3.0007     1.0000    -0.4986    20.7733    41.5367     3.4145    14.4503    14.4503     1.7024     0.0000     1.0000     0.0382     0.000
    257     1.6667     1.6667     1.5299     0.0000     30.000   1906.000 225281.000     32.649    41.5367    50.8262   -80.6842    -1.9995     0.0009    26.0000     4.0000     9.0000    22.0000    26.0000    10.0000     5.0000    20.0000     3.0008     1.0000    -0.4987    20.7733    41.5367     3.4190    14.4503    14.4503     1.7025     0.0000     1.0000     0.0385     0.000
    258     1.6667     1.6667     1.5349     0.0000     30.000   2350.000 227165.000     32.922    41.5367    50.8540   -80.8118    -1.9995     0.0009    26.0000     4.0000     9.0000    22.0000    26.0000    10.0000     5.0000    20.0000     3.0007     1.0000    -0.4986    20.7733    41.5367     3.4235    14.4503    14.4503     1.7024     0.0000     1.0000     0.0385     0.000
    259     1.6667     1.6667     1.5400     0.0000     30.000   2982.000 226506.000     32.827    41.5367    50.8812   -80.9414    -1.9995     0.0009    26.0000     4.0000     9.0000    22.0000    26.0000    10.0000     5.0000    20.0000     3.0007     1.0000    -0.4986    20.7733    41.5367     3.4280    14.4503    14.4503     1.7024     0.0000     1.0000     0.0386     0.000
    260     1.6667     1.6667     1.5450     0.0000     30.000   4540.000 226368.000     32.807    41.5367    50.9078   -81.0691    -1.9995     0.0009    26.0000     4.0000     9.0000    22.0000    26.0000    10.0000     5.0000    20.0000     3.0008     1.0000    -0.4988    20.7733    41.5367     3.4325    14.4503    14.4503     1.7024     0.0000     1.0000     0.0383     0.000
    261     1.6667     1.6667     1.5500     0.0000     30.000   7370.000 225835.000     32.730    41.5367    50.9352   -81.1991    -1.9995     0.0009    26.0000     4.0000     9.0000    22.0000    26.0000    10.0000     5.0000    20.0000     3.0007     1.0000    -0.4986    20.7733    41.5367     3.4371    14.4503    14.4503     1.7024     0.0000     1.0000     0.0383     0.000
    262     1.6667     1.6667     1.5550     0.0000     30.000  11041.000 225389.000     32.665    41.5367    50.9607   -81.3279    -1.9995     0.0009    26.0000     4.0000     9.0000    22.0000    26.0000    10.0000     5.0000    20.0000     3.0007     1.0000    -0.4986    20.7733    41.5367     3.4416    14.4503    14.4503     1.7024     0.0000     1.0000     0.0384     0.000
    263     1.6667     1.6667     1.5601     0.0000     30.000  16312.000 227003.000     32.899    41.5367    50.9868   -81.4591    -1.9995     0.0009    26.0000     4.0000     9.0000    22.0000    26.0000    10.0000     5.0000    20.0000     3.0007     1.0000    -0.4989    20.7732    41.5367     3.4461    14.4503    14.4503     1.7024     0.0000     1.0000     0.0384     0.000
    264     1.6667     1.6667     1.5650     0.0000     30.000  22219.000 226427.000     32.816    41.5367    51.0119   -81.5872    -1.9995     0.0009    26.0000     4.0000     9.0000    22.0000    26.0000    10.0000     5.0000    20.0000     3.0007     1.0000    -0.4988    20.7732    41.5367     3.4506    14.4503    14.4503     1.7023     0.0000     1.0000     0.0384     0.000
    265     1.6667     1.6667     1.5701     0.0000     30.000  28974.000 226832.000     32.874    41.5367    51.0370   -81.7197    -1.9995     0.0009    26.0000     4.0000     9.0000    22.0000    26.0000    10.0000     5.0000    20.0000     3.0007     1.0000    -0.4986    20.7732    41.5367     3.4552    14.4503    14.4503     1.7023     0.0000     1.0000     0.0384     0.000
    266     1.6667     1.6667     1.5751     0.0000     30.000  36155.000 226059.000     32.762    41.5367    51.0612   -81.8506    -1.9995     0.0009    26.0000     4.0000     9.0000    22.0000    26.0000    10.0000     5.0000    20.0000     3.0007     1.0000    -0.4987    20.7732    41.5367     3.4598    14.4503    14.4503     1.7023     0.0000     1.0000     0.0387     0.000
    267     1.6667     1.6667     1.5801     0.0000     30.000  42212.000 226575.000     32.837    41.5367    51.0855   -81.9802    -1.9995     0.0009    26.0000     4.0000     9.0000    22.0000    26.0000    10.0000     5.0000    20.0000     3.0007     1.0000    -0.4987    20.7732    41.5367     3.4643    14.4503    14.4503     1.7023     0.0000     1.0000     0.0383     0.000
    268     1.6667     1.6667     1.5850     0.0000     30.000  48349.000 226410.000     32.813    41.5367    51.1084   -82.1099    -1.9995     0.0009    26.0000     4.0000     9.0000    22.0000    26.0000    10.0000     5.0000    20.0000     3.0008     1.0000    -0.4986    20.7732    41.5367     3.4688    14.4503    14.4503     1.7023     0.0000     1.0000     0.0383     0.000
    269     1.6667     1.6667     1.5900     0.0000     30.000  53044.000 226400.000     32.812    41.5367    51.1319   -82.2408    -1.9995     0.0009    26.0000     4.0000     9.0000    22.0000    26.0000    10.0000     5.0000    20.0000     3.0008     1.0000    -0.4987    20.7732    41.5367     3.4734    14.4503    14.4503     1.7023     0.0000     1.0000     0.0384     0.000
    270     1.6667     1.6667     1.5949     0.0000     30.000  56031.000 226305.000     32.798    41.5367    51.1549   -82.3719    -1.9995     0.0009    26.0000     4.0000     9.0000    22.0000    26.0000    10.0000     5.0000    20.0000     3.0007     1.0000    -0.4989    20.7732    41.5367     3.4779    14.4503    14.4503     1.7034     0.0000     1.0000     0.0384     0.000
    271     1.6667     1.6667     1.5999     0.0000     30.000  55674.000 226614.000     32.843    41.5367    51.1771   -82.5045    -1.9995     0.0009    26.0000     4.0000     9.0000    22.0000    26.0000    10.0000     5.0000    20.0000     3.0007     1.0000    -0.4986    20.7731    41.5367     3.4825    14.4503    14.4503     1.7041     0.0000     1.0000     0.0381     0.000
    272     1.6667     1.6667     1.6049     0.0000     30.000  54754.000 226403.000     32.812    41.5367    51.1989   -82.6368    -1.9995     0.0009    26.0000     4.0000     9.0000    22.0000    26.0000    10.0000     5.0000    20.0000     3.0007     1.0000    -0.4987    20.7731    41.5367     3.4871    14.4503    14.4503     1.7047     0.0000     1.0000     0.0381     0.000
    273     1.6667     1.6667     1.6100     0.0000     30.000  51042.000 225248.000     32.645    41.5367    51.2206   -82.7713    -1.9995     0.0009    26.0000     4.0000     9.0000    22.0000    26.0000    10.0000     5.0000    20.0000     3.0008     1.0000    -0.4989    20.7732    41.5367     3.4917    14.4503    14.4503     1.7052     0.0000     1.0000     0.0383     0.000
    274     1.6667     1.6667     1.6150     0.0000     30.000  46926.000 225979.000     32.751    41.5367    51.2417   -82.9047    -1.9995     0.0009    26.0000     4.0000     9.0000    22.0000    26.0000    10.0000     5.0000    20.0000     3.0007     1.0000    -0.4986    20.7731    41.5367     3.4964    14.4503    14.4503     1.7054     0.0000     1.0000     0.0383     0.000
    275     1.6667     1.6667     1.6200     0.0000     30.000  42017.000 226667.000     32.850    41.5367    51.2623   -83.0389    -1.9995     0.0009    26.0000     4.0000     9.0000    22.0000    26.0000    10.0000     5.0000    20.0000     3.0007     1.0000    -0.4988    20.7731    41.5367     3.5010    14.4503    14.4503     1.7057     0.0000     1.0000     0.0383     0.000
    276     1.6667     1.6667     1.6251     0.0000     30.000  36328.000 225021.000     32.612    41.5367    51.2824   -83.1774    -1.9995     0.0009    26.0000     4.0000     9.0000    22.0000    26.0000    10.0000     5.0000    20.0000     3.0008     1.0000    -0.4986    20.7731    41.5367     3.5058    14.4503    14.4503     1.7059     0.0000     1.0000     0.0387     0.000
    277     1.6667     1.6667     1.6301     0.0000     30.000  30071.000 226270.000     32.793    41.5367    51.3023   -83.3103    -1.9995     0.0009    26.0000     4.0000     9.0000    22.0000    26.0000    10.0000     5.0000    20.0000     3.0007     1.0000    -0.4986    20.7731    41.5367     3.5103    14.4503    14.4503     1.7062     0.0000     1.0000     0.0387     0.000
    278     1.6667     1.6667     1.6351     0.0000     30.000  23674.000 225726.000     32.714    41.5367    51.3217   -83.4469    -1.9995     0.0009    26.0000     4.0000     9.0000    22.0000    26.0000    10.0000     5.0000    20.0000     3.0007     1.0000    -0.4987    20.7731    41.5367     3.5151    14.4503    14.4503     1.7064     0.0000     1.0000     0.0387     0.000
    279     1.6667     1.6667     1.6400     0.0000     30.000  17918.000 226875.000     32.880    41.5367    51.3410   -83.5801    -1.9995     0.0009    26.0000     4.0000     9.0000    22.0000    26.0000    10.0000     5.0000    20.0000     3.0008     1.0000    -0.4986    20.7731    41.5367     3.5196    14.4503    14.4503     1.7065     0.0000     1.0000     0.0387     0.000
    280     1.6667     1.6667     1.6450     0.0000     30.000  12765.000 225467.000     32.676    41.5367    51.3592   -83.7161    -1.9995     0.0009    26.0000     4.0000     9.0000    22.0000    26.0000    10.0000     5.0000    20.0000     3.0007     1.0000    -0.4986    20.7730    41.5367     3.5243    14.4503    14.4503     1.7067     0.0000     1.0000     0.0384     0.000
    281     1.6667     1.6667     1.6500     0.0000     30.000   8452.000 226190.000     32.781    41.5367    51.3774   -83.8501    -1.9995     0.0009    26.0000     4.0000     9.0000    22.0000    26.0000    10.0000     5.0000    20.0000     3.0007     1.0000    -0.4988    20.7730    41.5367     3.5289    14.4503    14.4503     1.7068     0.0000     1.0000     0.0384     0.000
    282     1.6667     1.6667     1.6550     0.0000     30.000   5345.000 226152.000     32.776    41.5367    51.3956   -83.9867    -1.9995     0.0009    26.0000     4.0000     9.0000    22.0000    26.0000    10.0000     5.0000    20.0000     3.0007     1.0000    -0.4986    20.7730    41.5367     3.5336    14.4503    14.4503     1.7069     0.0000     1.0000     0.0382     0.000
    283     1.6667     1.6667     1.6599     0.0000     30.000   3583.000 226170.000     32.778    41.5367    51.4125   -84.1221    -1.9995     0.0009    26.0000     4.0000     9.0000    22.0000    26.0000    10.0000     5.0000    20.0000     3.0008     1.0000    -0.4986    20.7730    41.5367     3.5382    14.4503    14.4503     1.7071     0.0000     1.0000     0.0381     0.000
    284     1.6667     1.6667     1.6650     0.0000     30.000   2591.000 226992.000     32.897    41.5367    51.4294   -84.2626    -1.9995     0.0009    26.0000     4.0000     9.0000    22.0000    26.0000    10.0000     5.0000    20.0000     3.0007     1.0000    -0.4988    20.7730    41.5367     3.5430    14.4503    14.4503     1.7072     0.0000     1.0000     0.0381     0.000
    285     1.6667     1.6667     1.6700     0.0000     30.000   1936.000 226344.000     32.803    41.5367    51.4464   -84.3989    -1.9995     0.0009    26.0000     4.0000     9.0000    22.0000    26.0000    10.0000     5.0000    20.0000     3.0008     1.0000    -0.4986    20.7730    41.5367     3.5477    14.4503    14.4503     1.7073     0.0000     1.0000     0.0381     0.000
    286     1.6667     1.6667     1.6750     0.0000     30.000   1707.000 226444.000     32.818    41.5367    51.4622   -84.5384    -1.9995     0.0009    26.0000     4.0000     9.0000    22.0000    26.0000    10.0000     5.0000    20.0000     3.0008     1.0000    -0.4987    20.7730    41.5367     3.5524    14.4503    14.4503     1.7074     0.0000     1.0000     0.0381     0.000
    287     1.6667     1.6667     1.6800     0.0000     30.000   1532.000 226376.000     32.808    41.5367    51.4776   -84.6750    -1.9995     0.0009    26.0000     4.0000     9.0000    22.0000    26.0000    10.0000     5.0000    20.0000     3.0007     1.0000    -0.4987    20.7730    41.5367     3.5571    14.4503    14.4503     1.7075     0.0000     1.0000     0.0381     0.000
    288     1.6667     1.6667     1.6850     0.0000     30.000   1460.000 226117.000     32.771    41.5367    51.4929   -84.8159    -1.9995     0.0009    26.0000     4.0000     9.0000    22.0000    26.0000    10.0000     5.0000    20.0000     3.0007     1.0000    -0.4986    20.7729    41.5367     3.5619    14.4503    14.4503     1.7076     0.0000     1.0000     0.0381     0.000
    289     1.6667     1.6667     1.6900     0.0000     30.000   1442.000 226927.000     32.888    41.5367    51.5076   -84.9551    -1.9995     0.0009    26.0000     4.0000     9.0000    22.0000    26.0000    10.0000     5.0000    20.0000     3.0008     1.0000    -0.4986    20.7729    41.5367     3.5666    14.4503    14.4503     1.7077     0.0000     1.0000     0.0384     0.000
    290     1.6667     1.6667     1.6951     0.0000     30.000   1386.000 226667.000     32.850    41.5367    51.5223   -85.0955    -1.9995     0.0009    26.0000     4.0000     9.0000    22.0000    26.0000    10.0000     5.0000    20.0000     3.0007     1.0000    -0.4988    20.7729    41.5367     3.5714    14.4503    14.4503     1.7078     0.0000     1.0000     0.0384     0.000
    291     1.6667     1.6667     1.7000     0.0000     30.000   1388.000 225881.000     32.736    41.5367    51.5367   -85.2343    -1.9995     0.0009    26.0000     4.0000     9.0000    22.0000    26.0000    10.0000     5.0000    20.0000     3.0008     1.0000    -0.4986    20.7729    41.5367     3.5761    14.4503    14.4503     1.7078     0.0000     1.0000     0.0384     0.000
    292     1.6667     1.6667     1.7050     0.0000     30.000   1312.000 226260.000     32.791    41.5367    51.5495   -85.3736    -1.9995     0.0009    26.0000     4.0000     9.0000    22.0000    26.0000    10.0000     5.0000    20.0000     3.0008     1.0000    -0.4986    20.7729    41.5367     3.5808    14.4503    14.4503     1.7078     0.0000     1.0000     0.0383     0.000
    293     1.6667     1.6667     1.7099     0.0000     30.000   1379.000 225915.000     32.741    41.5367    51.5628   -85.5126    -1.9995     0.0009    26.0000     4.0000     9.0000    22.0000    26.0000    10.0000     5.0000    20.0000     3.0008     1.0000    -0.4988    20.7728    41.5367     3.5855    14.4503    14.4503     1.7079     0.0000     1.0000     0.0383     0.000
    294     1.6667     1.6667     1.7149     0.0000     30.000   1362.000 226755.000     32.863    41.5367    51.5760   -85.6536    -1.9995     0.0009    26.0000     4.0000     9.0000    22.0000    26.0000    10.0000     5.0000    20.0000     3.0008     1.0000    -0.4986    20.7728    41.5367     3.5903    14.4503    14.4503     1.7079     0.0000     1.0000     0.0385     0.000
    295     1.6667     1.6667     1.7199     0.0000     30.000   1372.000 226945.000     32.891    41.5367    51.5878   -85.7950    -1.9995     0.0009    26.0000     4.0000     9.0000    22.0000    26.0000    10.0000     5.0000    20.0000     3.0008     1.0000    -0.4986    20.7728    41.5367     3.5951    14.4503    14.4503     1.7080     0.0000     1.0000     0.0385     0.000
    296     1.6667     1.6667     1.7250     0.0000     30.000   1293.000 226140.000     32.774    41.5367    51.5998   -85.9393    -1.9995     0.0009    26.0000     4.0000     9.0000    22.0000    26.0000    10.0000     5.0000    20.0000     3.0007     1.0000    -0.4986    20.7728    41.5367     3.6000    14.4503    14.4503     1.7081     0.0000     1.0000     0.0383     0.000
    297     1.6667     1.6667     1.7300     0.0000     30.000   1266.000 225888.000     32.737    41.5367    51.6115   -86.0801    -1.9995     0.0009    26.0000     4.0000     9.0000    22.0000    26.0000    10.0000     5.0000    20.0000     3.0008     1.0000    -0.4986    20.7727    41.5367     3.6047    14.4503    14.4503     1.7082     0.0000     1.0000     0.0383     0.000
    298     1.6667     1.6667     1.7349     0.0000     30.000   1320.000 226079.000     32.765    41.5367    51.6226   -86.2225    -1.9995     0.0009    26.0000     4.0000     9.0000    22.0000    26.0000    10.0000     5.0000    20.0000     3.0008     1.0000    -0.4986    20.7727    41.5367     3.6095    14.4503    14.4503     1.7082     0.0000     1.0000     0.0383     0.000
    299     1.6667     1.6667     1.7400     0.0000     30.000   1267.000 225547.000     32.688    41.5367    51.6331   -86.3686    -1.9995     0.0009    26.0000     4.0000     9.0000    22.0000    26.0000    10.0000     5.0000    20.0000     3.0008     1.0000    -0.4987    20.7727    41.5367     3.6144    14.4503    14.4503     1.7083     0.0000     1.0000     0.0385     0.000
    300     1.6667     1.6667     1.7451     0.0000     30.000   1314.000 225756.000     32.718    41.5367    51.6435   -86.5125    -1.9995     0.0009    26.0000     4.0000     9.0000    22.0000    26.0000    10.0000     5.0000    20.0000     3.0008     1.0000    -0.4986    20.7726    41.5367     3.6192    14.4503    14.4503     1.7084     0.0000     1.0000     0.0385     0.000
    301     1.6667     1.6667     1.7501     0.0000     30.000   1318.000 225946.000     32.746    41.5367    51.6532   -86.6563    -1.9995     0.0009    26.0000     4.0000     9.0000    22.0000    26.0000    10.0000     5.0000    20.0000     3.0008     1.0000    -0.4986    20.7726    41.5367     3.6241    14.4503    14.4503     1.7084     0.0000     1.0000     0.0383     0.000
# Sum of Counts = 2265977
# Center of Mass = 1.201624+/-0.001149
# Full Width Half-Maximum = 0.643549+/-0.000477
# 10:10:31 AM  9/20/2023   scan completed.
