# scan = 220
# date = 9/21/2023
# time = 10:12:16 PM
# proposal = 30730
# experiment = Low Temperature Magnetic Structure of CeCl3
# experiment_number = 998
# command = scan h 0.04 2 0.01 k 0.04 2 0.01 l 0.5 e 0 preset time 30 
# builtin_command = scan h 0.04 2 0.01 k 0.04 2 0.01 l 0.5 e 0 preset time 30
# users = Adam Aczel, David Mandrus, Matthew Cothrine, Stephen Nagler
# local_contact = A. Aczel
# scan_title = CeBr3, (H H 0.5) scan, T = 0.2 K
# monochromator = PG002
# analyzer = Pg002
# sense = +-+
# collimation = 40-40-40-80
# samplename = CeBr3
# sampletype = crystal
# samplemosaic = 30.000000
# latticeconstants = 7.911813,7.911813,4.442653,90.000000,90.000000,120.000000
# ubmatrix = 0.075384,0.080477,-0.177039,-0.099473,-0.099471,-0.138870,-0.075649,0.070209,0.006183
# mode = 0
# plane_normal = 0.034896,0.000010,0.999390
# ubconf = UB19Sep2023_24416PM.ini
# preset_type = normal 
# preset_channel = time
# preset_value = 30.000000
# def_x = h
# def_y = detector
# col_headers = 
#   Pt.          h          k          l          e       time   detector    monitor        mcu         m2         s1         s2        sgl        sgu   slitb_bt   slitb_lf   slitb_rt   slitb_tp   slita_bt   slita_lf   slita_rt   slita_tp        stl        stu         sz         a1         a2          q         ei         ef        vti     sample       temp dr_tsample    dr_temp
      1     0.0400     0.0400     0.5000     0.0001     30.000   1726.000 227322.000     32.945    41.5367   129.0492   -15.4512    -1.9995     0.0007    26.0000     4.0000     9.0000    22.0000    26.0000    10.0000     5.0000    20.0000     3.0017     1.0000    -0.4932    20.7759    41.5368     0.7100    14.4503    14.4502     1.7092     0.0000     1.0000     0.1992     0.200
      2     0.0500     0.0500     0.5000     0.0001     30.000   1786.000 227868.000     33.024    41.5367   127.7560   -15.4857    -1.9994     0.0007    26.0000     4.0000     9.0000    22.0000    26.0000    10.0000     5.0000    20.0000     3.0015     1.0000    -0.4942    20.7758    41.5368     0.7116    14.4503    14.4502     1.7089     0.0000     1.0000     0.1992     0.200
      3     0.0600     0.0600     0.4999     0.0001     30.000   1823.000 227578.000     32.982    41.5367   126.4661   -15.5270    -1.9994     0.0007    26.0000     4.0000     9.0000    22.0000    26.0000    10.0000     5.0000    20.0000     3.0014     1.0000    -0.4949    20.7757    41.5368     0.7135    14.4503    14.4502     1.7085     0.0000     1.0000     0.2005     0.200
      4     0.0700     0.0700     0.5000     0.0001     30.000   1825.000 226990.000     32.897    41.5367   125.1826   -15.5783    -1.9994     0.0007    26.0000     4.0000     9.0000    22.0000    26.0000    10.0000     5.0000    20.0000     3.0013     1.0000    -0.4953    20.7756    41.5368     0.7158    14.4503    14.4502     1.7092     0.0000     1.0000     0.2002     0.200
      5     0.0800     0.0800     0.5000     0.0001     30.000   1823.000 227517.000     32.973    41.5367   123.9031   -15.6365    -1.9994     0.0007    26.0000     4.0000     9.0000    22.0000    26.0000    10.0000     5.0000    20.0000     3.0012     1.0000    -0.4958    20.7756    41.5368     0.7185    14.4503    14.4502     1.7089     0.0000     1.0000     0.2002     0.200
      6     0.0900     0.0900     0.5000     0.0001     30.000   1853.000 227642.000     32.992    41.5367   122.6271   -15.7009    -1.9994     0.0008    26.0000     4.0000     9.0000    22.0000    26.0000    10.0000     5.0000    20.0000     3.0011     1.0000    -0.4960    20.7755    41.5368     0.7214    14.4503    14.4502     1.7092     0.0000     1.0000     0.1994     0.200
      7     0.1000     0.1000     0.5000     0.0001     30.000   1785.000 227381.000     32.954    41.5367   121.3603   -15.7734    -1.9994     0.0008    26.0000     4.0000     9.0000    22.0000    26.0000    10.0000     5.0000    20.0000     3.0011     1.0000    -0.4963    20.7755    41.5368     0.7247    14.4503    14.4502     1.7091     0.0000     1.0000     0.1994     0.200
      8     0.1100     0.1100     0.5000     0.0001     30.000   1805.000 226800.000     32.870    41.5367   120.1022   -15.8529    -1.9994     0.0008    26.0000     4.0000     9.0000    22.0000    26.0000    10.0000     5.0000    20.0000     3.0010     1.0000    -0.4967    20.7754    41.5368     0.7283    14.4503    14.4502     1.7089     0.0000     1.0000     0.2005     0.200
      9     0.1200     0.1200     0.5000     0.0001     30.000   1721.000 226869.000     32.880    41.5367   118.8522   -15.9415    -1.9994     0.0008    26.0000     4.0000     9.0000    22.0000    26.0000    10.0000     5.0000    20.0000     3.0009     1.0000    -0.4968    20.7754    41.5368     0.7324    14.4503    14.4502     1.7092     0.0000     1.0000     0.2005     0.200
     10     0.1300     0.1300     0.5000     0.0001     30.000   1774.000 226888.000     32.882    41.5367   117.6106   -16.0357    -1.9994     0.0008    26.0000     4.0000     9.0000    22.0000    26.0000    10.0000     5.0000    20.0000     3.0009     1.0000    -0.4971    20.7753    41.5368     0.7367    14.4503    14.4502     1.7092     0.0000     1.0000     0.2005     0.200
     11     0.1400     0.1400     0.5000     0.0001     30.000   1749.000 228149.000     33.065    41.5367   116.3826   -16.1380    -1.9994     0.0008    26.0000     4.0000     9.0000    22.0000    26.0000    10.0000     5.0000    20.0000     3.0008     1.0000    -0.4974    20.7753    41.5368     0.7413    14.4503    14.4502     1.7090     0.0000     1.0000     0.2005     0.200
     12     0.1500     0.1500     0.5001     0.0001     30.000   1755.000 227504.000     32.972    41.5367   115.1663   -16.2461    -1.9994     0.0008    26.0000     4.0000     9.0000    22.0000    26.0000    10.0000     5.0000    20.0000     3.0008     1.0000    -0.4976    20.7752    41.5368     0.7463    14.4503    14.4502     1.7090     0.0000     1.0000     0.1999     0.200
     13     0.1600     0.1600     0.5001     0.0001     30.000   1712.000 226898.000     32.884    41.5367   113.9608   -16.3612    -1.9995     0.0008    26.0000     4.0000     9.0000    22.0000    26.0000    10.0000     5.0000    20.0000     3.0007     1.0000    -0.4978    20.7752    41.5368     0.7515    14.4503    14.4502     1.7091     0.0000     1.0000     0.1999     0.200
     14     0.1700     0.1700     0.5001     0.0001     30.000   1799.000 228117.000     33.060    41.5367   112.7686   -16.4818    -1.9995     0.0008    26.0000     4.0000     9.0000    22.0000    26.0000    10.0000     5.0000    20.0000     3.0007     1.0000    -0.4980    20.7751    41.5368     0.7570    14.4503    14.4502     1.7089     0.0000     1.0000     0.1999     0.200
     15     0.1799     0.1799     0.5000     0.0001     30.000   1805.000 227964.000     33.038    41.5367   111.5966   -16.6076    -1.9995     0.0008    26.0000     4.0000     9.0000    22.0000    26.0000    10.0000     5.0000    20.0000     3.0006     1.0000    -0.4981    20.7750    41.5368     0.7628    14.4503    14.4502     1.7090     0.0000     1.0000     0.1999     0.200
     16     0.1900     0.1900     0.5000     0.0001     30.000   1769.000 227612.000     32.987    41.5367   110.4224   -16.7402    -1.9995     0.0008    26.0000     4.0000     9.0000    22.0000    26.0000    10.0000     5.0000    20.0000     3.0006     1.0000    -0.4982    20.7749    41.5368     0.7688    14.4503    14.4502     1.7091     0.0000     1.0000     0.1996     0.200
     17     0.2000     0.2000     0.5000     0.0001     30.000   1819.000 227296.000     32.941    41.5367   109.2765   -16.8798    -1.9995     0.0009    26.0000     4.0000     9.0000    22.0000    26.0000    10.0000     5.0000    20.0000     3.0006     1.0000    -0.4985    20.7749    41.5368     0.7752    14.4503    14.4502     1.7090     0.0000     1.0000     0.1996     0.200
     18     0.2100     0.2100     0.5000     0.0001     30.000   1802.000 227585.000     32.983    41.5367   108.1415   -17.0252    -1.9995     0.0009    26.0000     4.0000     9.0000    22.0000    26.0000    10.0000     5.0000    20.0000     3.0006     1.0000    -0.4986    20.7748    41.5368     0.7818    14.4503    14.4502     1.7090     0.0000     1.0000     0.1985     0.200
     19     0.2199     0.2199     0.4999     0.0001     30.000   1844.000 228618.000     33.133    41.5367   107.0283   -17.1747    -1.9995     0.0009    26.0000     4.0000     9.0000    22.0000    26.0000    10.0000     5.0000    20.0000     3.0005     1.0000    -0.4987    20.7748    41.5368     0.7886    14.4503    14.4502     1.7091     0.0000     1.0000     0.1985     0.200
     20     0.2299     0.2299     0.4999     0.0001     30.000   1787.000 228019.000     33.046    41.5367   105.9223   -17.3311    -1.9995     0.0009    26.0000     4.0000     9.0000    22.0000    26.0000    10.0000     5.0000    20.0000     3.0005     1.0000    -0.4989    20.7747    41.5368     0.7958    14.4503    14.4502     1.7093     0.0000     1.0000     0.2001     0.200
     21     0.2399     0.2399     0.5000     0.0001     30.000   1749.000 228015.000     33.046    41.5367   104.8367   -17.4955    -1.9995     0.0009    26.0000     4.0000     9.0000    22.0000    26.0000    10.0000     5.0000    20.0000     3.0005     1.0000    -0.4990    20.7747    41.5368     0.8032    14.4503    14.4502     1.7091     0.0000     1.0000     0.2001     0.200
     22     0.2500     0.2500     0.5000     0.0001     30.000   1870.000 227848.000     33.021    41.5367   103.7624   -17.6666    -1.9995     0.0009    26.0000     4.0000     9.0000    22.0000    26.0000    10.0000     5.0000    20.0000     3.0005     1.0000    -0.4991    20.7746    41.5368     0.8110    14.4503    14.4502     1.7089     0.0000     1.0000     0.1990     0.200
     23     0.2600     0.2600     0.5001     0.0001     30.000   1853.000 227520.000     32.974    41.5367   102.7061   -17.8411    -1.9995     0.0009    26.0000     4.0000     9.0000    22.0000    26.0000    10.0000     5.0000    20.0000     3.0005     1.0000    -0.4992    20.7746    41.5368     0.8190    14.4503    14.4502     1.7091     0.0000     1.0000     0.1990     0.200
     24     0.2700     0.2700     0.5001     0.0001     30.000   1706.000 227414.000     32.959    41.5367   101.6641   -18.0216    -1.9995     0.0009    26.0000     4.0000     9.0000    22.0000    26.0000    10.0000     5.0000    20.0000     3.0005     1.0000    -0.4994    20.7745    41.5368     0.8272    14.4503    14.4502     1.7090     0.0000     1.0000     0.1983     0.200
     25     0.2800     0.2800     0.5001     0.0001     30.000   1853.000 227133.000     32.918    41.5367   100.6428   -18.2021    -1.9995     0.0009    26.0000     4.0000     9.0000    22.0000    26.0000    10.0000     5.0000    20.0000     3.0005     1.0000    -0.4995    20.7745    41.5368     0.8354    14.4503    14.4502     1.7090     0.0000     1.0000     0.1983     0.200
     26     0.2900     0.2900     0.5000     0.0001     30.000   1790.000 226873.000     32.880    41.5367    99.6338   -18.3891    -1.9995     0.0009    26.0000     4.0000     9.0000    22.0000    26.0000    10.0000     5.0000    20.0000     3.0005     1.0000    -0.4995    20.7745    41.5368     0.8439    14.4503    14.4502     1.7091     0.0000     1.0000     0.1998     0.200
     27     0.3000     0.3000     0.4999     0.0001     30.000   1743.000 227115.000     32.915    41.5367    98.6433   -18.5796    -1.9995     0.0009    26.0000     4.0000     9.0000    22.0000    26.0000    10.0000     5.0000    20.0000     3.0005     1.0000    -0.4996    20.7745    41.5368     0.8526    14.4503    14.4502     1.7093     0.0000     1.0000     0.1998     0.200
     28     0.3100     0.3100     0.5000     0.0001     30.000   1745.000 228418.000     33.104    41.5367    97.6686   -18.7801    -1.9995     0.0009    26.0000     4.0000     9.0000    22.0000    26.0000    10.0000     5.0000    20.0000     3.0004     1.0000    -0.4996    20.7744    41.5368     0.8617    14.4503    14.4502     1.7091     0.0000     1.0000     0.1996     0.200
     29     0.3200     0.3200     0.5000     0.0001     30.000   1702.000 227955.000     33.037    41.5367    96.7098   -18.9804    -1.9995     0.0009    26.0000     4.0000     9.0000    22.0000    26.0000    10.0000     5.0000    20.0000     3.0004     1.0000    -0.4997    20.7744    41.5368     0.8708    14.4503    14.4502     1.7093     0.0000     1.0000     0.1996     0.200
     30     0.3300     0.3300     0.5000     0.0001     30.000   1784.000 227514.000     32.973    41.5367    95.7668   -19.1859    -1.9995     0.0009    26.0000     4.0000     9.0000    22.0000    26.0000    10.0000     5.0000    20.0000     3.0004     1.0000    -0.4997    20.7744    41.5368     0.8802    14.4503    14.4502     1.7091     0.0000     1.0000     0.2001     0.200
     31     0.3400     0.3400     0.5000     0.0001     30.000   1727.000 226909.000     32.885    41.5367    94.8406   -19.3978    -1.9995     0.0009    26.0000     4.0000     9.0000    22.0000    26.0000    10.0000     5.0000    20.0000     3.0004     1.0000    -0.4998    20.7744    41.5369     0.8898    14.4503    14.4502     1.7094     0.0000     1.0000     0.1993     0.200
     32     0.3500     0.3500     0.5001     0.0001     30.000   1666.000 228159.000     33.067    41.5367    93.9286   -19.6139    -1.9995     0.0009    26.0000     4.0000     9.0000    22.0000    26.0000    10.0000     5.0000    20.0000     3.0004     1.0000    -0.4999    20.7743    41.5369     0.8996    14.4503    14.4502     1.7095     0.0000     1.0000     0.1993     0.200
     33     0.3600     0.3600     0.5000     0.0001     30.000   1664.000 227534.000     32.976    41.5367    93.0327   -19.8295    -1.9995     0.0009    26.0000     4.0000     9.0000    22.0000    26.0000    10.0000     5.0000    20.0000     3.0004     1.0000    -0.4999    20.7743    41.5369     0.9094    14.4503    14.4502     1.7094     0.0000     1.0000     0.1988     0.200
     34     0.3700     0.3700     0.4999     0.0001     30.000   1620.000 227033.000     32.903    41.5367    92.1531   -20.0492    -1.9995     0.0009    26.0000     4.0000     9.0000    22.0000    26.0000    10.0000     5.0000    20.0000     3.0004     1.0000    -0.5000    20.7743    41.5369     0.9194    14.4503    14.4502     1.7095     0.0000     1.0000     0.1988     0.200
     35     0.3799     0.3800     0.4999     0.0001     30.000   1629.000 228364.000     33.096    41.5367    91.2875   -20.2741    -1.9995     0.0009    26.0000     4.0000     9.0000    22.0000    26.0000    10.0000     5.0000    20.0000     3.0004     1.0000    -0.5000    20.7743    41.5369     0.9296    14.4503    14.4502     1.7096     0.0000     1.0000     0.1997     0.200
     36     0.3900     0.3900     0.5000     0.0001     30.000   1689.000 227804.000     33.015    41.5367    90.4366   -20.5041    -1.9995     0.0009    26.0000     4.0000     9.0000    22.0000    26.0000    10.0000     5.0000    20.0000     3.0004     1.0000    -0.5001    20.7743    41.5369     0.9400    14.4503    14.4502     1.7094     0.0000     1.0000     0.1997     0.200
     37     0.4000     0.4000     0.5000     0.0001     30.000   1641.000 226804.000     32.870    41.5367    89.5994   -20.7369    -1.9995     0.0009    26.0000     4.0000     9.0000    22.0000    26.0000    10.0000     5.0000    20.0000     3.0004     1.0000    -0.5001    20.7742    41.5369     0.9506    14.4503    14.4502     1.7092     0.0000     1.0000     0.2002     0.200
     38     0.4100     0.4100     0.5000     0.0001     30.000   1646.000 228230.000     33.077    41.5367    88.7775   -20.9742    -1.9995     0.0009    26.0000     4.0000     9.0000    22.0000    26.0000    10.0000     5.0000    20.0000     3.0004     1.0000    -0.5001    20.7742    41.5369     0.9613    14.4503    14.4502     1.7091     0.0000     1.0000     0.2002     0.200
     39     0.4200     0.4200     0.5001     0.0001     30.000   1632.000 226975.000     32.895    41.5367    87.9694   -21.2156    -1.9995     0.0009    26.0000     4.0000     9.0000    22.0000    26.0000    10.0000     5.0000    20.0000     3.0004     1.0000    -0.5001    20.7742    41.5369     0.9722    14.4503    14.4502     1.7091     0.0000     1.0000     0.1997     0.200
     40     0.4300     0.4300     0.5000     0.0001     30.000   1621.000 227658.000     32.994    41.5367    87.1756   -21.4556    -1.9995     0.0009    26.0000     4.0000     9.0000    22.0000    26.0000    10.0000     5.0000    20.0000     3.0004     1.0000    -0.5001    20.7742    41.5369     0.9831    14.4503    14.4502     1.7093     0.0000     1.0000     0.1997     0.200
     41     0.4399     0.4400     0.5000     0.0001     30.000   1638.000 228144.000     33.064    41.5367    86.3956   -21.6985    -1.9995     0.0009    26.0000     4.0000     9.0000    22.0000    26.0000    10.0000     5.0000    20.0000     3.0004     1.0000    -0.5002    20.7742    41.5369     0.9941    14.4503    14.4502     1.7092     0.0000     1.0000     0.1991     0.200
     42     0.4500     0.4500     0.5000     0.0001     30.000   1664.000 227759.000     33.009    41.5367    85.6257   -21.9488    -1.9995     0.0009    26.0000     4.0000     9.0000    22.0000    26.0000    10.0000     5.0000    20.0000     3.0004     1.0000    -0.5000    20.7742    41.5369     1.0054    14.4503    14.4501     1.7091     0.0000     1.0000     0.1991     0.200
     43     0.4599     0.4600     0.4999     0.0001     30.000   1657.000 228359.000     33.096    41.5367    84.8706   -22.1970    -1.9995     0.0009    26.0000     4.0000     9.0000    22.0000    26.0000    10.0000     5.0000    20.0000     3.0004     1.0000    -0.5002    20.7742    41.5369     1.0167    14.4503    14.4501     1.7093     0.0000     1.0000     0.1984     0.200
     44     0.4700     0.4700     0.5000     0.0002     30.000   1580.000 228195.000     33.072    41.5367    84.1294   -22.4545    -1.9995     0.0009    26.0000     4.0000     9.0000    22.0000    26.0000    10.0000     5.0000    20.0000     3.0004     1.0000    -0.5002    20.7741    41.5369     1.0283    14.4503    14.4501     1.7090     0.0000     1.0000     0.1984     0.200
     45     0.4800     0.4800     0.5001     0.0002     30.000   1578.000 227943.000     33.035    41.5367    83.3999   -22.7128    -1.9995     0.0009    26.0000     4.0000     9.0000    22.0000    26.0000    10.0000     5.0000    20.0000     3.0004     1.0000    -0.5002    20.7741    41.5369     1.0400    14.4503    14.4501     1.7091     0.0000     1.0000     0.1996     0.200
     46     0.4900     0.4900     0.5000     0.0001     30.000   1598.000 227371.000     32.952    41.5367    82.6805   -22.9694    -1.9995     0.0009    26.0000     4.0000     9.0000    22.0000    26.0000    10.0000     5.0000    20.0000     3.0004     1.0000    -0.5002    20.7741    41.5369     1.0516    14.4503    14.4502     1.7089     0.0000     1.0000     0.1996     0.200
     47     0.5000     0.5000     0.5000     0.0002     30.000   1574.000 226514.000     32.828    41.5367    81.9745   -23.2285    -1.9995     0.0009    26.0000     4.0000     9.0000    22.0000    26.0000    10.0000     5.0000    20.0000     3.0004     1.0000    -0.5001    20.7741    41.5369     1.0633    14.4503    14.4501     1.7087     0.0000     1.0000     0.1990     0.200
     48     0.5099     0.5099     0.4999     0.0002     30.000   1562.000 227411.000     32.958    41.5367    81.2802   -23.4913    -1.9995     0.0009    26.0000     4.0000     9.0000    22.0000    26.0000    10.0000     5.0000    20.0000     3.0004     1.0000    -0.5003    20.7741    41.5369     1.0751    14.4503    14.4501     1.7092     0.0000     1.0000     0.1990     0.200
     49     0.5199     0.5200     0.5000     0.0002     30.000   1515.000 228079.000     33.055    41.5367    80.5969   -23.7583    -1.9995     0.0009    26.0000     4.0000     9.0000    22.0000    26.0000    10.0000     5.0000    20.0000     3.0004     1.0000    -0.5003    20.7741    41.5369     1.0872    14.4503    14.4501     1.7091     0.0000     1.0000     0.1987     0.200
     50     0.5300     0.5300     0.4999     0.0002     30.000   1552.000 227861.000     33.023    41.5367    79.9222   -24.0269    -1.9995     0.0009    26.0000     4.0000     9.0000    22.0000    26.0000    10.0000     5.0000    20.0000     3.0004     1.0000    -0.5003    20.7741    41.5369     1.0993    14.4503    14.4501     1.7089     0.0000     1.0000     0.1987     0.200
     51     0.5400     0.5400     0.5001     0.0002     30.000   1563.000 227946.000     33.036    41.5367    79.2626   -24.3026    -1.9995     0.0009    26.0000     4.0000     9.0000    22.0000    26.0000    10.0000     5.0000    20.0000     3.0004     1.0000    -0.5002    20.7741    41.5369     1.1117    14.4503    14.4501     1.7092     0.0000     1.0000     0.1992     0.200
     52     0.5500     0.5500     0.5000     0.0002     30.000   1555.000 227521.000     32.974    41.5367    78.6101   -24.5730    -1.9995     0.0009    26.0000     4.0000     9.0000    22.0000    26.0000    10.0000     5.0000    20.0000     3.0004     1.0000    -0.5002    20.7741    41.5369     1.1239    14.4503    14.4501     1.7088     0.0000     1.0000     0.1992     0.200
     53     0.5600     0.5600     0.5000     0.0002     30.000   1542.000 227330.000     32.946    41.5367    77.9683   -24.8492    -1.9995     0.0009    26.0000     4.0000     9.0000    22.0000    26.0000    10.0000     5.0000    20.0000     3.0004     1.0000    -0.5002    20.7740    41.5369     1.1363    14.4503    14.4501     1.7092     0.0000     1.0000     0.1998     0.200
     54     0.5700     0.5700     0.5000     0.0002     30.000   1587.000 228151.000     33.065    41.5367    77.3377   -25.1246    -1.9995     0.0009    26.0000     4.0000     9.0000    22.0000    26.0000    10.0000     5.0000    20.0000     3.0004     1.0000    -0.5002    20.7740    41.5369     1.1487    14.4503    14.4501     1.7092     0.0000     1.0000     0.1998     0.200
     55     0.5800     0.5800     0.5000     0.0002     30.000   1536.000 227301.000     32.942    41.5367    76.7144   -25.4027    -1.9995     0.0009    26.0000     4.0000     9.0000    22.0000    26.0000    10.0000     5.0000    20.0000     3.0004     1.0000    -0.5002    20.7740    41.5369     1.1612    14.4503    14.4501     1.7091     0.0000     1.0000     0.2003     0.200
     56     0.5900     0.5900     0.5000     0.0002     30.000   1498.000 228142.000     33.064    41.5367    76.1016   -25.6851    -1.9995     0.0009    26.0000     4.0000     9.0000    22.0000    26.0000    10.0000     5.0000    20.0000     3.0004     1.0000    -0.5001    20.7740    41.5369     1.1739    14.4503    14.4501     1.7091     0.0000     1.0000     0.2003     0.200
     57     0.6000     0.6000     0.5000     0.0002     30.000   1511.000 228321.000     33.090    41.5367    75.5003   -25.9696    -1.9995     0.0009    26.0000     4.0000     9.0000    22.0000    26.0000    10.0000     5.0000    20.0000     3.0004     1.0000    -0.5001    20.7740    41.5369     1.1867    14.4503    14.4501     1.7088     0.0000     1.0000     0.2001     0.200
     58     0.6100     0.6101     0.5001     0.0002     30.000   1498.000 226666.000     32.850    41.5367    74.9027   -26.2567    -1.9995     0.0009    26.0000     4.0000     9.0000    22.0000    26.0000    10.0000     5.0000    20.0000     3.0004     1.0000    -0.5001    20.7740    41.5369     1.1996    14.4503    14.4501     1.7092     0.0000     1.0000     0.2001     0.200
     59     0.6199     0.6199     0.5000     0.0002     30.000   1437.000 226999.000     32.898    41.5367    74.3192   -26.5382    -1.9995     0.0009    26.0000     4.0000     9.0000    22.0000    26.0000    10.0000     5.0000    20.0000     3.0005     1.0000    -0.5001    20.7740    41.5369     1.2122    14.4503    14.4501     1.7091     0.0000     1.0000     0.1998     0.200
     60     0.6299     0.6300     0.4999     0.0002     30.000   1428.000 227612.000     32.987    41.5367    73.7404   -26.8262    -1.9995     0.0009    26.0000     4.0000     9.0000    22.0000    26.0000    10.0000     5.0000    20.0000     3.0004     1.0000    -0.5001    20.7740    41.5369     1.2252    14.4503    14.4501     1.7089     0.0000     1.0000     0.1998     0.200
     61     0.6399     0.6399     0.4999     0.0002     30.000   1447.000 228498.000     33.116    41.5367    73.1713   -27.1156    -1.9995     0.0009    26.0000     4.0000     9.0000    22.0000    26.0000    10.0000     5.0000    20.0000     3.0004     1.0000    -0.5001    20.7740    41.5369     1.2381    14.4503    14.4501     1.7090     0.0000     1.0000     0.1999     0.200
     62     0.6500     0.6500     0.5000     0.0002     30.000   1424.000 227826.000     33.018    41.5367    72.6112   -27.4108    -1.9995     0.0009    26.0000     4.0000     9.0000    22.0000    26.0000    10.0000     5.0000    20.0000     3.0004     1.0000    -0.5001    20.7740    41.5369     1.2514    14.4503    14.4501     1.7088     0.0000     1.0000     0.2003     0.200
     63     0.6601     0.6601     0.5001     0.0002     30.000   1429.000 226248.000     32.790    41.5367    72.0561   -27.7081    -1.9995     0.0009    26.0000     4.0000     9.0000    22.0000    26.0000    10.0000     5.0000    20.0000     3.0004     1.0000    -0.5001    20.7740    41.5369     1.2647    14.4503    14.4501     1.7088     0.0000     1.0000     0.2003     0.200
     64     0.6700     0.6700     0.5001     0.0002     30.000   1382.000 227653.000     32.993    41.5367    71.5123   -28.0010    -1.9995     0.0009    26.0000     4.0000     9.0000    22.0000    26.0000    10.0000     5.0000    20.0000     3.0005     1.0000    -0.5001    20.7739    41.5369     1.2778    14.4503    14.4501     1.7086     0.0000     1.0000     0.1993     0.200
     65     0.6799     0.6799     0.4999     0.0002     30.000   1387.000 229042.000     33.194    41.5367    70.9717   -28.2926    -1.9995     0.0009    26.0000     4.0000     9.0000    22.0000    26.0000    10.0000     5.0000    20.0000     3.0005     1.0000    -0.5001    20.7740    41.5369     1.2908    14.4503    14.4501     1.7088     0.0000     1.0000     0.1993     0.200
     66     0.6899     0.6899     0.4999     0.0002     30.000   1472.000 228283.000     33.084    41.5367    70.4424   -28.5900    -1.9995     0.0009    26.0000     4.0000     9.0000    22.0000    26.0000    10.0000     5.0000    20.0000     3.0005     1.0000    -0.5001    20.7739    41.5369     1.3041    14.4503    14.4501     1.7088     0.0000     1.0000     0.1996     0.200
     67     0.7000     0.7000     0.5000     0.0002     30.000   1304.000 227497.000     32.971    41.5367    69.9164   -28.8931    -1.9995     0.0009    26.0000     4.0000     9.0000    22.0000    26.0000    10.0000     5.0000    20.0000     3.0005     1.0000    -0.5000    20.7739    41.5369     1.3176    14.4503    14.4501     1.7089     0.0000     1.0000     0.1996     0.200
     68     0.7100     0.7100     0.5001     0.0002     30.000   1377.000 227062.000     32.908    41.5367    69.4007   -29.1973    -1.9995     0.0009    26.0000     4.0000     9.0000    22.0000    26.0000    10.0000     5.0000    20.0000     3.0005     1.0000    -0.5000    20.7739    41.5369     1.3312    14.4503    14.4501     1.7088     0.0000     1.0000     0.1986     0.200
     69     0.7200     0.7200     0.5000     0.0002     30.000   1322.000 226898.000     32.884    41.5367    68.8878   -29.4963    -1.9995     0.0009    26.0000     4.0000     9.0000    22.0000    26.0000    10.0000     5.0000    20.0000     3.0005     1.0000    -0.5000    20.7739    41.5369     1.3445    14.4503    14.4501     1.7091     0.0000     1.0000     0.1986     0.200
     70     0.7299     0.7299     0.5000     0.0001     30.000   1345.000 227486.000     32.969    41.5367    68.3859   -29.7983    -1.9995     0.0009    26.0000     4.0000     9.0000    22.0000    26.0000    10.0000     5.0000    20.0000     3.0005     1.0000    -0.5000    20.7739    41.5369     1.3580    14.4503    14.4501     1.7086     0.0000     1.0000     0.1995     0.200
     71     0.7399     0.7399     0.4999     0.0001     30.000   1320.000 227507.000     32.972    41.5367    67.8858   -30.1028    -1.9995     0.0009    26.0000     4.0000     9.0000    22.0000    26.0000    10.0000     5.0000    20.0000     3.0005     1.0000    -0.5000    20.7739    41.5369     1.3715    14.4503    14.4501     1.7088     0.0000     1.0000     0.1995     0.200
     72     0.7499     0.7499     0.5000     0.0002     30.000   1242.000 226829.000     32.874    41.5367    67.3961   -30.4090    -1.9995     0.0009    26.0000     4.0000     9.0000    22.0000    26.0000    10.0000     5.0000    20.0000     3.0005     1.0000    -0.5000    20.7739    41.5369     1.3852    14.4503    14.4501     1.7086     0.0000     1.0000     0.1994     0.200
     73     0.7600     0.7600     0.5000     0.0001     30.000   1297.000 228057.000     33.052    41.5367    66.9080   -30.7195    -1.9995     0.0009    26.0000     4.0000     9.0000    22.0000    26.0000    10.0000     5.0000    20.0000     3.0005     1.0000    -0.4999    20.7739    41.5369     1.3990    14.4503    14.4501     1.7087     0.0000     1.0000     0.1994     0.200
     74     0.7700     0.7701     0.5001     0.0001     30.000   1314.000 227172.000     32.923    41.5367    66.4297   -31.0327    -1.9995     0.0009    26.0000     4.0000     9.0000    22.0000    26.0000    10.0000     5.0000    20.0000     3.0005     1.0000    -0.4999    20.7739    41.5369     1.4129    14.4503    14.4502     1.7089     0.0000     1.0000     0.1999     0.200
     75     0.7801     0.7801     0.5001     0.0001     30.000   1231.000 227450.000     32.964    41.5367    65.9537   -31.3429    -1.9995     0.0009    26.0000     4.0000     9.0000    22.0000    26.0000    10.0000     5.0000    20.0000     3.0005     1.0000    -0.4999    20.7739    41.5369     1.4266    14.4503    14.4502     1.7087     0.0000     1.0000     0.1999     0.200
     76     0.7899     0.7899     0.5000     0.0002     30.000   1192.000 227011.000     32.900    41.5367    65.4862   -31.6478    -1.9995     0.0009    26.0000     4.0000     9.0000    22.0000    26.0000    10.0000     5.0000    20.0000     3.0005     1.0000    -0.4999    20.7739    41.5369     1.4402    14.4503    14.4501     1.7086     0.0000     1.0000     0.2000     0.200
     77     0.7999     0.8000     0.4999     0.0001     30.000   1183.000 227289.000     32.940    41.5367    65.0211   -31.9606    -1.9995     0.0009    26.0000     4.0000     9.0000    22.0000    26.0000    10.0000     5.0000    20.0000     3.0005     1.0000    -0.4998    20.7739    41.5369     1.4540    14.4503    14.4501     1.7089     0.0000     1.0000     0.2000     0.200
     78     0.8100     0.8100     0.5000     0.0001     30.000   1314.000 226818.000     32.872    41.5367    64.5646   -32.2762    -1.9995     0.0009    26.0000     4.0000     9.0000    22.0000    26.0000    10.0000     5.0000    20.0000     3.0005     1.0000    -0.4998    20.7739    41.5369     1.4680    14.4503    14.4501     1.7089     0.0000     1.0000     0.1999     0.200
     79     0.8200     0.8200     0.5000     0.0001     30.000   1185.000 225767.000     32.720    41.5367    64.1093   -32.5933    -1.9995     0.0009    26.0000     4.0000     9.0000    22.0000    26.0000    10.0000     5.0000    20.0000     3.0005     1.0000    -0.4998    20.7739    41.5369     1.4821    14.4503    14.4502     1.7088     0.0000     1.0000     0.1999     0.200
     80     0.8300     0.8300     0.5000     0.0001     30.000   1216.000 226467.000     32.821    41.5367    63.6626   -32.9092    -1.9995     0.0009    26.0000     4.0000     9.0000    22.0000    26.0000    10.0000     5.0000    20.0000     3.0005     1.0000    -0.4998    20.7739    41.5369     1.4960    14.4503    14.4501     1.7087     0.0000     1.0000     0.1984     0.200
     81     0.8399     0.8399     0.4999     0.0002     30.000   1119.000 227034.000     32.903    41.5367    63.2185   -33.2215    -1.9995     0.0009    26.0000     4.0000     9.0000    22.0000    26.0000    10.0000     5.0000    20.0000     3.0005     1.0000    -0.4998    20.7739    41.5369     1.5098    14.4503    14.4501     1.7085     0.0000     1.0000     0.1984     0.200
     82     0.8499     0.8499     0.4999     0.0001     30.000   1244.000 227255.000     32.936    41.5367    62.7797   -33.5406    -1.9995     0.0009    26.0000     4.0000     9.0000    22.0000    26.0000    10.0000     5.0000    20.0000     3.0005     1.0000    -0.4998    20.7739    41.5369     1.5239    14.4503    14.4501     1.7090     0.0000     1.0000     0.1995     0.200
     83     0.8599     0.8600     0.5000     0.0001     30.000   1159.000 227092.000     32.912    41.5367    62.3462   -33.8616    -1.9995     0.0009    26.0000     4.0000     9.0000    22.0000    26.0000    10.0000     5.0000    20.0000     3.0005     1.0000    -0.4997    20.7739    41.5369     1.5381    14.4503    14.4501     1.7092     0.0000     1.0000     0.1995     0.200
     84     0.8701     0.8701     0.5001     0.0002     30.000   1147.000 226297.000     32.797    41.5367    61.9153   -34.1874    -1.9995     0.0009    26.0000     4.0000     9.0000    22.0000    26.0000    10.0000     5.0000    20.0000     3.0005     1.0000    -0.4997    20.7739    41.5369     1.5524    14.4503    14.4501     1.7088     0.0000     1.0000     0.1990     0.200
     85     0.8800     0.8800     0.5001     0.0002     30.000   1159.000 226547.000     32.833    41.5367    61.4909   -34.5068    -1.9995     0.0009    26.0000     4.0000     9.0000    22.0000    26.0000    10.0000     5.0000    20.0000     3.0005     1.0000    -0.4997    20.7739    41.5369     1.5665    14.4503    14.4501     1.7088     0.0000     1.0000     0.1990     0.200
     86     0.8899     0.8900     0.4999     0.0002     30.000   1148.000 226225.000     32.786    41.5367    61.0678   -34.8244    -1.9995     0.0009    26.0000     4.0000     9.0000    22.0000    26.0000    10.0000     5.0000    20.0000     3.0005     1.0000    -0.4997    20.7738    41.5369     1.5805    14.4503    14.4501     1.7085     0.0000     1.0000     0.1994     0.200
     87     0.8999     0.8999     0.4999     0.0001     30.000   1103.000 226616.000     32.843    41.5367    60.6527   -35.1475    -1.9995     0.0009    26.0000     4.0000     9.0000    22.0000    26.0000    10.0000     5.0000    20.0000     3.0005     1.0000    -0.4997    20.7738    41.5369     1.5947    14.4503    14.4502     1.7088     0.0000     1.0000     0.1994     0.200
     88     0.9100     0.9100     0.5000     0.0001     30.000   1096.000 226381.000     32.809    41.5367    60.2389   -35.4753    -1.9995     0.0009    26.0000     4.0000     9.0000    22.0000    26.0000    10.0000     5.0000    20.0000     3.0005     1.0000    -0.4996    20.7738    41.5369     1.6091    14.4503    14.4502     1.7088     0.0000     1.0000     0.1985     0.200
     89     0.9200     0.9200     0.5000     0.0001     30.000   1090.000 225809.000     32.726    41.5367    59.8298   -35.8006    -1.9995     0.0009    26.0000     4.0000     9.0000    22.0000    26.0000    10.0000     5.0000    20.0000     3.0005     1.0000    -0.4996    20.7738    41.5369     1.6233    14.4503    14.4502     1.7089     0.0000     1.0000     0.2000     0.200
     90     0.9300     0.9300     0.5000     0.0001     30.000   1099.000 226300.000     32.797    41.5367    59.4260   -36.1276    -1.9995     0.0009    26.0000     4.0000     9.0000    22.0000    26.0000    10.0000     5.0000    20.0000     3.0005     1.0000    -0.4996    20.7738    41.5369     1.6377    14.4503    14.4502     1.7088     0.0000     1.0000     0.2000     0.200
     91     0.9400     0.9400     0.5000     0.0001     30.000   1163.000 225948.000     32.746    41.5367    59.0218   -36.4549    -1.9995     0.0009    26.0000     4.0000     9.0000    22.0000    26.0000    10.0000     5.0000    20.0000     3.0005     1.0000    -0.4996    20.7739    41.5369     1.6520    14.4503    14.4502     1.7085     0.0000     1.0000     0.1991     0.200
     92     0.9499     0.9499     0.5000     0.0001     30.000   1155.000 226818.000     32.872    41.5367    58.6262   -36.7809    -1.9995     0.0009    26.0000     4.0000     9.0000    22.0000    26.0000    10.0000     5.0000    20.0000     3.0005     1.0000    -0.4995    20.7738    41.5369     1.6663    14.4503    14.4502     1.7090     0.0000     1.0000     0.1991     0.200
     93     0.9599     0.9599     0.4999     0.0001     30.000   1128.000 226863.000     32.879    41.5367    58.2300   -37.1092    -1.9995     0.0009    26.0000     4.0000     9.0000    22.0000    26.0000    10.0000     5.0000    20.0000     3.0005     1.0000    -0.4996    20.7738    41.5369     1.6806    14.4503    14.4502     1.7089     0.0000     1.0000     0.1997     0.200
     94     0.9700     0.9701     0.5001     0.0001     30.000   1150.000 225817.000     32.727    41.5367    57.8396   -37.4447    -1.9995     0.0009    26.0000     4.0000     9.0000    22.0000    26.0000    10.0000     5.0000    20.0000     3.0005     1.0000    -0.4996    20.7738    41.5369     1.6953    14.4503    14.4502     1.7088     0.0000     1.0000     0.1997     0.200
     95     0.9800     0.9800     0.5000     0.0001     30.000   1193.000 226377.000     32.808    41.5367    57.4529   -37.7735    -1.9995     0.0009    26.0000     4.0000     9.0000    22.0000    26.0000    10.0000     5.0000    20.0000     3.0005     1.0000    -0.4995    20.7738    41.5369     1.7096    14.4503    14.4502     1.7089     0.0000     1.0000     0.1994     0.200
     96     0.9900     0.9900     0.5000     0.0001     30.000   1104.000 225205.000     32.638    41.5367    57.0671   -38.1053    -1.9995     0.0009    26.0000     4.0000     9.0000    22.0000    26.0000    10.0000     5.0000    20.0000     3.0005     1.0000    -0.4995    20.7738    41.5369     1.7241    14.4503    14.4502     1.7086     0.0000     1.0000     0.1994     0.200
     97     1.0000     1.0000     0.5000     0.0001     30.000   1182.000 225915.000     32.741    41.5367    56.6874   -38.4383    -1.9995     0.0009    26.0000     4.0000     9.0000    22.0000    26.0000    10.0000     5.0000    20.0000     3.0005     1.0000    -0.4995    20.7738    41.5369     1.7386    14.4503    14.4502     1.7087     0.0000     1.0000     0.1987     0.200
     98     1.0100     1.0100     0.5000     0.0001     30.000   1155.000 225435.000     32.672    41.5367    56.3086   -38.7721    -1.9995     0.0009    26.0000     4.0000     9.0000    22.0000    26.0000    10.0000     5.0000    20.0000     3.0005     1.0000    -0.4995    20.7738    41.5369     1.7531    14.4503    14.4502     1.7089     0.0000     1.0000     0.1987     0.200
     99     1.0201     1.0201     0.5001     0.0001     30.000   1147.000 226593.000     32.840    41.5367    55.9325   -39.1111    -1.9995     0.0009    26.0000     4.0000     9.0000    22.0000    26.0000    10.0000     5.0000    20.0000     3.0005     1.0000    -0.4995    20.7738    41.5369     1.7678    14.4503    14.4502     1.7087     0.0000     1.0000     0.1990     0.200
    100     1.0300     1.0300     0.5001     0.0001     30.000   1148.000 225939.000     32.745    41.5367    55.5629   -39.4451    -1.9995     0.0009    26.0000     4.0000     9.0000    22.0000    26.0000    10.0000     5.0000    20.0000     3.0005     1.0000    -0.4995    20.7738    41.5369     1.7823    14.4503    14.4502     1.7085     0.0000     1.0000     0.1990     0.200
    101     1.0399     1.0399     0.4999     0.0001     30.000   1139.000 226823.000     32.873    41.5367    55.1916   -39.7757    -1.9995     0.0009    26.0000     4.0000     9.0000    22.0000    26.0000    10.0000     5.0000    20.0000     3.0005     1.0000    -0.4995    20.7738    41.5369     1.7967    14.4503    14.4502     1.7089     0.0000     1.0000     0.1998     0.200
    102     1.0499     1.0499     0.4999     0.0001     30.000   1083.000 226449.000     32.819    41.5367    54.8260   -40.1140    -1.9995     0.0009    26.0000     4.0000     9.0000    22.0000    26.0000    10.0000     5.0000    20.0000     3.0005     1.0000    -0.4995    20.7738    41.5368     1.8113    14.4503    14.4502     1.7088     0.0000     1.0000     0.1998     0.200
    103     1.0600     1.0600     0.5000     0.0001     30.000   1191.000 226441.000     32.818    41.5367    54.4633   -40.4548    -1.9995     0.0009    26.0000     4.0000     9.0000    22.0000    26.0000    10.0000     5.0000    20.0000     3.0005     1.0000    -0.4994    20.7738    41.5368     1.8261    14.4503    14.4502     1.7089     0.0000     1.0000     0.1998     0.200
    104     1.0700     1.0700     0.5000     0.0001     30.000   1092.000 226770.000     32.865    41.5367    54.1000   -40.7936    -1.9995     0.0009    26.0000     4.0000     9.0000    22.0000    26.0000    10.0000     5.0000    20.0000     3.0005     1.0000    -0.4994    20.7738    41.5368     1.8407    14.4503    14.4502     1.7086     0.0000     1.0000     0.1998     0.200
    105     1.0800     1.0801     0.5001     0.0001     30.000   1085.000 225493.000     32.680    41.5367    53.7434   -41.1361    -1.9995     0.0009    26.0000     4.0000     9.0000    22.0000    26.0000    10.0000     5.0000    20.0000     3.0005     1.0000    -0.4994    20.7738    41.5368     1.8555    14.4503    14.4502     1.7088     0.0000     1.0000     0.1996     0.200
    106     1.0900     1.0900     0.5000     0.0001     30.000   1131.000 226039.000     32.759    41.5367    53.3880   -41.4741    -1.9995     0.0009    26.0000     4.0000     9.0000    22.0000    26.0000    10.0000     5.0000    20.0000     3.0005     1.0000    -0.4994    20.7738    41.5368     1.8701    14.4503    14.4502     1.7090     0.0000     1.0000     0.1996     0.200
    107     1.0999     1.1000     0.4999     0.0001     30.000   1056.000 226173.000     32.779    41.5367    53.0328   -41.8134    -1.9995     0.0009    26.0000     4.0000     9.0000    22.0000    26.0000    10.0000     5.0000    20.0000     3.0005     1.0000    -0.4994    20.7738    41.5368     1.8847    14.4503    14.4502     1.7088     0.0000     1.0000     0.1991     0.200
    108     1.1100     1.1101     0.5001     0.0001     30.000   1058.000 227209.000     32.929    41.5367    52.6835   -42.1608    -1.9995     0.0009    26.0000     4.0000     9.0000    22.0000    26.0000    10.0000     5.0000    20.0000     3.0005     1.0000    -0.4993    20.7738    41.5368     1.8996    14.4503    14.4502     1.7088     0.0000     1.0000     0.1991     0.200
    109     1.1200     1.1200     0.5000     0.0001     30.000   1089.000 226842.000     32.876    41.5367    52.3341   -42.5014    -1.9995     0.0009    26.0000     4.0000     9.0000    22.0000    26.0000    10.0000     5.0000    20.0000     3.0005     1.0000    -0.4993    20.7738    41.5368     1.9143    14.4503    14.4502     1.7086     0.0000     1.0000     0.1996     0.200
    110     1.1300     1.1301     0.5001     0.0001     30.000   1055.000 225572.000     32.692    41.5367    51.9876   -42.8480    -1.9995     0.0009    26.0000     4.0000     9.0000    22.0000    26.0000    10.0000     5.0000    20.0000     3.0005     1.0000    -0.4993    20.7738    41.5368     1.9292    14.4503    14.4502     1.7087     0.0000     1.0000     0.1996     0.200
    111     1.1399     1.1400     0.5000     0.0001     30.000   1102.000 226909.000     32.885    41.5367    51.6443   -43.1886    -1.9995     0.0009    26.0000     4.0000     9.0000    22.0000    26.0000    10.0000     5.0000    20.0000     3.0005     1.0000    -0.4994    20.7738    41.5369     1.9438    14.4503    14.4502     1.7086     0.0000     1.0000     0.1989     0.200
    112     1.1499     1.1500     0.5000     0.0001     30.000   1151.000 226030.000     32.758    41.5367    51.3024   -43.5336    -1.9995     0.0009    26.0000     4.0000     9.0000    22.0000    26.0000    10.0000     5.0000    20.0000     3.0005     1.0000    -0.4993    20.7738    41.5368     1.9585    14.4503    14.4502     1.7087     0.0000     1.0000     0.1992     0.200
    113     1.1600     1.1600     0.5000     0.0001     30.000   1158.000 226213.000     32.784    41.5367    50.9619   -43.8834    -1.9995     0.0009    26.0000     4.0000     9.0000    22.0000    26.0000    10.0000     5.0000    20.0000     3.0006     1.0000    -0.4993    20.7738    41.5369     1.9735    14.4503    14.4502     1.7086     0.0000     1.0000     0.1992     0.200
    114     1.1700     1.1700     0.5000     0.0001     30.000   1084.000 225897.000     32.739    41.5367    50.6248   -44.2292    -1.9995     0.0009    26.0000     4.0000     9.0000    22.0000    26.0000    10.0000     5.0000    20.0000     3.0005     1.0000    -0.4992    20.7738    41.5369     1.9883    14.4503    14.4502     1.7087     0.0000     1.0000     0.2002     0.200
    115     1.1800     1.1800     0.5000     0.0001     30.000   1137.000 226803.000     32.870    41.5367    50.2891   -44.5789    -1.9995     0.0009    26.0000     4.0000     9.0000    22.0000    26.0000    10.0000     5.0000    20.0000     3.0005     1.0000    -0.4992    20.7738    41.5369     2.0032    14.4503    14.4502     1.7087     0.0000     1.0000     0.2002     0.200
    116     1.1900     1.1900     0.5000     0.0001     30.000   1097.000 227699.000     33.000    41.5367    49.9552   -44.9256    -1.9995     0.0009    26.0000     4.0000     9.0000    22.0000    26.0000    10.0000     5.0000    20.0000     3.0005     1.0000    -0.4992    20.7738    41.5369     2.0180    14.4503    14.4502     1.7086     0.0000     1.0000     0.1994     0.200
    117     1.1999     1.1999     0.5000     0.0001     30.000   1123.000 226291.000     32.796    41.5367    49.6242   -45.2735    -1.9995     0.0009    26.0000     4.0000     9.0000    22.0000    26.0000    10.0000     5.0000    20.0000     3.0005     1.0000    -0.4992    20.7738    41.5369     2.0328    14.4503    14.4502     1.7087     0.0000     1.0000     0.1994     0.200
    118     1.2100     1.2100     0.5000     0.0001     30.000   1077.000 226571.000     32.836    41.5367    49.2938   -45.6272    -1.9995     0.0009    26.0000     4.0000     9.0000    22.0000    26.0000    10.0000     5.0000    20.0000     3.0006     1.0000    -0.4992    20.7738    41.5369     2.0478    14.4503    14.4502     1.7089     0.0000     1.0000     0.1986     0.200
    119     1.2200     1.2201     0.5001     0.0001     30.000   1140.000 226493.000     32.825    41.5367    48.9661   -45.9806    -1.9995     0.0009    26.0000     4.0000     9.0000    22.0000    26.0000    10.0000     5.0000    20.0000     3.0006     1.0000    -0.4992    20.7738    41.5369     2.0628    14.4503    14.4502     1.7089     0.0000     1.0000     0.1986     0.200
    120     1.2300     1.2300     0.5000     0.0001     30.000   1147.000 226621.000     32.844    41.5367    48.6402   -46.3293    -1.9995     0.0009    26.0000     4.0000     9.0000    22.0000    26.0000    10.0000     5.0000    20.0000     3.0006     1.0000    -0.4992    20.7738    41.5369     2.0776    14.4503    14.4502     1.7090     0.0000     1.0000     0.1992     0.200
    121     1.2399     1.2400     0.5000     0.0001     30.000   1104.000 226444.000     32.818    41.5367    48.3158   -46.6809    -1.9995     0.0009    26.0000     4.0000     9.0000    22.0000    26.0000    10.0000     5.0000    20.0000     3.0006     1.0000    -0.4991    20.7738    41.5369     2.0925    14.4503    14.4502     1.7089     0.0000     1.0000     0.1992     0.200
    122     1.2500     1.2500     0.5000     0.0001     30.000   1139.000 227034.000     32.903    41.5367    47.9921   -47.0357    -1.9995     0.0009    26.0000     4.0000     9.0000    22.0000    26.0000    10.0000     5.0000    20.0000     3.0006     1.0000    -0.4991    20.7738    41.5369     2.1075    14.4503    14.4502     1.7091     0.0000     1.0000     0.1990     0.200
    123     1.2600     1.2600     0.5001     0.0001     30.000   1168.000 226587.000     32.839    41.5367    47.6723   -47.3932    -1.9995     0.0009    26.0000     4.0000     9.0000    22.0000    26.0000    10.0000     5.0000    20.0000     3.0006     1.0000    -0.4991    20.7738    41.5369     2.1226    14.4503    14.4502     1.7094     0.0000     1.0000     0.1990     0.200
    124     1.2700     1.2700     0.5000     0.0001     30.000   1110.000 226149.000     32.775    41.5367    47.3528   -47.7464    -1.9995     0.0009    26.0000     4.0000     9.0000    22.0000    26.0000    10.0000     5.0000    20.0000     3.0006     1.0000    -0.4991    20.7738    41.5369     2.1375    14.4503    14.4502     1.7088     0.0000     1.0000     0.1993     0.200
    125     1.2800     1.2800     0.5000     0.0001     30.000   1176.000 226285.000     32.795    41.5367    47.0334   -48.1029    -1.9995     0.0009    26.0000     4.0000     9.0000    22.0000    26.0000    10.0000     5.0000    20.0000     3.0006     1.0000    -0.4990    20.7738    41.5369     2.1525    14.4503    14.4502     1.7088     0.0000     1.0000     0.1993     0.200
    126     1.2899     1.2900     0.5000     0.0001     30.000   1066.000 227428.000     32.961    41.5367    46.7189   -48.4574    -1.9995     0.0009    26.0000     4.0000     9.0000    22.0000    26.0000    10.0000     5.0000    20.0000     3.0006     1.0000    -0.4990    20.7738    41.5369     2.1674    14.4503    14.4502     1.7086     0.0000     1.0000     0.2004     0.200
    127     1.3000     1.3001     0.5001     0.0001     30.000   1116.000 226379.000     32.809    41.5367    46.4039   -48.8197    -1.9995     0.0009    26.0000     4.0000     9.0000    22.0000    26.0000    10.0000     5.0000    20.0000     3.0006     1.0000    -0.4990    20.7738    41.5369     2.1826    14.4503    14.4502     1.7090     0.0000     1.0000     0.2004     0.200
    128     1.3100     1.3100     0.5000     0.0001     30.000   1103.000 226423.000     32.815    41.5367    46.0888   -49.1755    -1.9995     0.0009    26.0000     4.0000     9.0000    22.0000    26.0000    10.0000     5.0000    20.0000     3.0006     1.0000    -0.4989    20.7738    41.5369     2.1976    14.4503    14.4502     1.7088     0.0000     1.0000     0.1990     0.200
    129     1.3200     1.3200     0.5000     0.0001     30.000   1120.000 227204.000     32.928    41.5367    45.7785   -49.5341    -1.9995     0.0009    26.0000     4.0000     9.0000    22.0000    26.0000    10.0000     5.0000    20.0000     3.0006     1.0000    -0.4990    20.7738    41.5369     2.2126    14.4503    14.4502     1.7085     0.0000     1.0000     0.1990     0.200
    130     1.3299     1.3299     0.5000     0.0001     30.000   1108.000 226616.000     32.843    41.5367    45.4686   -49.8910    -1.9995     0.0009    26.0000     4.0000     9.0000    22.0000    26.0000    10.0000     5.0000    20.0000     3.0006     1.0000    -0.4989    20.7738    41.5369     2.2275    14.4503    14.4502     1.7088     0.0000     1.0000     0.2000     0.200
    131     1.3399     1.3400     0.4999     0.0001     30.000   1150.000 226268.000     32.792    41.5367    45.1569   -50.2530    -1.9995     0.0009    26.0000     4.0000     9.0000    22.0000    26.0000    10.0000     5.0000    20.0000     3.0006     1.0000    -0.4991    20.7738    41.5369     2.2426    14.4503    14.4502     1.7089     0.0000     1.0000     0.2000     0.200
    132     1.3500     1.3500     0.5000     0.0001     30.000   1185.000 227147.000     32.920    41.5367    44.8497   -50.6175    -1.9995     0.0009    26.0000     4.0000     9.0000    22.0000    26.0000    10.0000     5.0000    20.0000     3.0006     1.0000    -0.4990    20.7738    41.5368     2.2578    14.4503    14.4502     1.7088     0.0000     1.0000     0.1999     0.200
    133     1.3600     1.3600     0.5000     0.0001     30.000   1059.000 226265.000     32.792    41.5367    44.5448   -50.9793    -1.9995     0.0009    26.0000     4.0000     9.0000    22.0000    26.0000    10.0000     5.0000    20.0000     3.0006     1.0000    -0.4990    20.7738    41.5368     2.2729    14.4503    14.4502     1.7087     0.0000     1.0000     0.1995     0.200
    134     1.3699     1.3699     0.4999     0.0001     30.000   1138.000 226876.000     32.881    41.5367    44.2381   -51.3392    -1.9995     0.0009    26.0000     4.0000     9.0000    22.0000    26.0000    10.0000     5.0000    20.0000     3.0006     1.0000    -0.4990    20.7738    41.5368     2.2879    14.4503    14.4502     1.7087     0.0000     1.0000     0.1995     0.200
    135     1.3800     1.3800     0.5000     0.0001     30.000   1124.000 226389.000     32.810    41.5367    43.9333   -51.7070    -1.9995     0.0009    26.0000     4.0000     9.0000    22.0000    26.0000    10.0000     5.0000    20.0000     3.0006     1.0000    -0.4989    20.7738    41.5368     2.3031    14.4503    14.4502     1.7088     0.0000     1.0000     0.1995     0.200
    136     1.3900     1.3900     0.5000     0.0001     30.000   1137.000 226570.000     32.836    41.5367    43.6316   -52.0705    -1.9995     0.0009    26.0000     4.0000     9.0000    22.0000    26.0000    10.0000     5.0000    20.0000     3.0006     1.0000    -0.4989    20.7738    41.5368     2.3182    14.4503    14.4502     1.7089     0.0000     1.0000     0.1995     0.200
    137     1.4000     1.4001     0.5001     0.0001     30.000   1130.000 226962.000     32.893    41.5367    43.3303   -52.4405    -1.9995     0.0009    26.0000     4.0000     9.0000    22.0000    26.0000    10.0000     5.0000    20.0000     3.0006     1.0000    -0.4989    20.7738    41.5368     2.3335    14.4503    14.4502     1.7089     0.0000     1.0000     0.2000     0.200
    138     1.4099     1.4100     0.4999     0.0001     30.000   1204.000 226886.000     32.882    41.5367    43.0277   -52.8009    -1.9995     0.0009    26.0000     4.0000     9.0000    22.0000    26.0000    10.0000     5.0000    20.0000     3.0006     1.0000    -0.4990    20.7738    41.5368     2.3484    14.4503    14.4502     1.7087     0.0000     1.0000     0.2000     0.200
    139     1.4200     1.4200     0.5000     0.0001     30.000   1234.000 227271.000     32.938    41.5367    42.7296   -53.1706    -1.9995     0.0009    26.0000     4.0000     9.0000    22.0000    26.0000    10.0000     5.0000    20.0000     3.0006     1.0000    -0.4989    20.7738    41.5368     2.3636    14.4503    14.4502     1.7086     0.0000     1.0000     0.1994     0.200
    140     1.4299     1.4300     0.5000     0.0001     30.000   1209.000 227411.000     32.958    41.5367    42.4312   -53.5367    -1.9995     0.0009    26.0000     4.0000     9.0000    22.0000    26.0000    10.0000     5.0000    20.0000     3.0006     1.0000    -0.4989    20.7738    41.5368     2.3787    14.4503    14.4502     1.7086     0.0000     1.0000     0.1994     0.200
    141     1.4400     1.4400     0.5000     0.0001     30.000   1326.000 227551.000     32.978    41.5367    42.1321   -53.9083    -1.9995     0.0009    26.0000     4.0000     9.0000    22.0000    26.0000    10.0000     5.0000    20.0000     3.0006     1.0000    -0.4988    20.7738    41.5368     2.3940    14.4503    14.4502     1.7087     0.0000     1.0000     0.1993     0.200
    142     1.4500     1.4500     0.5000     0.0001     30.000   1441.000 226890.000     32.883    41.5367    41.8365   -54.2769    -1.9995     0.0009    26.0000     4.0000     9.0000    22.0000    26.0000    10.0000     5.0000    20.0000     3.0006     1.0000    -0.4989    20.7738    41.5368     2.4091    14.4503    14.4502     1.7086     0.0000     1.0000     0.1993     0.200
    143     1.4600     1.4600     0.5000     0.0001     30.000   1390.000 226801.000     32.870    41.5367    41.5420   -54.6478    -1.9995     0.0009    26.0000     4.0000     9.0000    22.0000    26.0000    10.0000     5.0000    20.0000     3.0006     1.0000    -0.4988    20.7738    41.5368     2.4243    14.4503    14.4502     1.7088     0.0000     1.0000     0.1997     0.200
    144     1.4699     1.4700     0.5000     0.0001     30.000   1438.000 226808.000     32.871    41.5367    41.2465   -55.0178    -1.9995     0.0009    26.0000     4.0000     9.0000    22.0000    26.0000    10.0000     5.0000    20.0000     3.0006     1.0000    -0.4988    20.7738    41.5368     2.4395    14.4503    14.4502     1.7088     0.0000     1.0000     0.1997     0.200
    145     1.4800     1.4800     0.5000     0.0001     30.000   1420.000 227575.000     32.982    41.5367    40.9521   -55.3923    -1.9995     0.0009    26.0000     4.0000     9.0000    22.0000    26.0000    10.0000     5.0000    20.0000     3.0006     1.0000    -0.4988    20.7739    41.5368     2.4548    14.4503    14.4502     1.7087     0.0000     1.0000     0.1993     0.200
    146     1.4900     1.4900     0.5001     0.0001     30.000   1575.000 226788.000     32.868    41.5367    40.6613   -55.7656    -1.9995     0.0009    26.0000     4.0000     9.0000    22.0000    26.0000    10.0000     5.0000    20.0000     3.0006     1.0000    -0.4988    20.7739    41.5368     2.4700    14.4503    14.4502     1.7086     0.0000     1.0000     0.1993     0.200
    147     1.4999     1.5000     0.5000     0.0001     30.000   1530.000 227115.000     32.915    41.5367    40.3689   -56.1365    -1.9995     0.0009    26.0000     4.0000     9.0000    22.0000    26.0000    10.0000     5.0000    20.0000     3.0006     1.0000    -0.4988    20.7738    41.5368     2.4851    14.4503    14.4502     1.7087     0.0000     1.0000     0.1999     0.200
    148     1.5099     1.5100     0.4999     0.0001     30.000   1441.000 226686.000     32.853    41.5367    40.0765   -56.5108    -1.9995     0.0009    26.0000     4.0000     9.0000    22.0000    26.0000    10.0000     5.0000    20.0000     3.0006     1.0000    -0.4988    20.7739    41.5368     2.5003    14.4503    14.4502     1.7087     0.0000     1.0000     0.1999     0.200
    149     1.5199     1.5200     0.5000     0.0001     30.000   1449.000 227280.000     32.939    41.5367    39.7878   -56.8872    -1.9995     0.0009    26.0000     4.0000     9.0000    22.0000    26.0000    10.0000     5.0000    20.0000     3.0006     1.0000    -0.4988    20.7738    41.5368     2.5156    14.4503    14.4502     1.7088     0.0000     1.0000     0.1998     0.200
    150     1.5300     1.5300     0.5000     0.0001     30.000   1429.000 227415.000     32.959    41.5367    39.4988   -57.2664    -1.9995     0.0009    26.0000     4.0000     9.0000    22.0000    26.0000    10.0000     5.0000    20.0000     3.0006     1.0000    -0.4988    20.7738    41.5368     2.5309    14.4503    14.4502     1.7089     0.0000     1.0000     0.2002     0.200
    151     1.5400     1.5400     0.5000     0.0001     30.000   1439.000 227154.000     32.921    41.5367    39.2091   -57.6450    -1.9995     0.0009    26.0000     4.0000     9.0000    22.0000    26.0000    10.0000     5.0000    20.0000     3.0006     1.0000    -0.4987    20.7739    41.5368     2.5462    14.4503    14.4502     1.7088     0.0000     1.0000     0.2002     0.200
    152     1.5500     1.5500     0.5000     0.0001     30.000   1343.000 227356.000     32.950    41.5367    38.9211   -58.0213    -1.9995     0.0009    26.0000     4.0000     9.0000    22.0000    26.0000    10.0000     5.0000    20.0000     3.0006     1.0000    -0.4987    20.7739    41.5368     2.5614    14.4503    14.4502     1.7086     0.0000     1.0000     0.1997     0.200
    153     1.5599     1.5600     0.5000     0.0001     30.000   1437.000 227047.000     32.905    41.5367    38.6352   -58.3993    -1.9995     0.0009    26.0000     4.0000     9.0000    22.0000    26.0000    10.0000     5.0000    20.0000     3.0006     1.0000    -0.4987    20.7739    41.5368     2.5766    14.4503    14.4502     1.7089     0.0000     1.0000     0.1997     0.200
    154     1.5700     1.5700     0.5000     0.0001     30.000   1372.000 227935.000     33.034    41.5367    38.3482   -58.7814    -1.9995     0.0009    26.0000     4.0000     9.0000    22.0000    26.0000    10.0000     5.0000    20.0000     3.0006     1.0000    -0.4987    20.7739    41.5368     2.5920    14.4503    14.4502     1.7086     0.0000     1.0000     0.1986     0.200
    155     1.5800     1.5801     0.5000     0.0001     30.000   1344.000 227896.000     33.028    41.5367    38.0618   -59.1641    -1.9995     0.0009    26.0000     4.0000     9.0000    22.0000    26.0000    10.0000     5.0000    20.0000     3.0006     1.0000    -0.4987    20.7738    41.5368     2.6073    14.4503    14.4502     1.7088     0.0000     1.0000     0.1986     0.200
    156     1.5900     1.5900     0.5000     0.0001     30.000   1345.000 227467.000     32.966    41.5367    37.7776   -59.5435    -1.9995     0.0009    26.0000     4.0000     9.0000    22.0000    26.0000    10.0000     5.0000    20.0000     3.0006     1.0000    -0.4987    20.7738    41.5368     2.6225    14.4503    14.4502     1.7089     0.0000     1.0000     0.1999     0.200
    157     1.5999     1.5999     0.5000     0.0001     30.000   1390.000 226607.000     32.842    41.5367    37.4937   -59.9231    -1.9995     0.0009    26.0000     4.0000     9.0000    22.0000    26.0000    10.0000     5.0000    20.0000     3.0006     1.0000    -0.4987    20.7738    41.5368     2.6377    14.4503    14.4502     1.7087     0.0000     1.0000     0.1999     0.200
    158     1.6100     1.6100     0.5000     0.0001     30.000   1302.000 227397.000     32.956    41.5367    37.2090   -60.3101    -1.9995     0.0009    26.0000     4.0000     9.0000    22.0000    26.0000    10.0000     5.0000    20.0000     3.0006     1.0000    -0.4986    20.7739    41.5368     2.6531    14.4503    14.4502     1.7086     0.0000     1.0000     0.1989     0.200
    159     1.6200     1.6201     0.5001     0.0001     30.000   1320.000 227336.000     32.947    41.5367    36.9256   -60.6982    -1.9995     0.0009    26.0000     4.0000     9.0000    22.0000    26.0000    10.0000     5.0000    20.0000     3.0006     1.0000    -0.4986    20.7738    41.5368     2.6686    14.4503    14.4502     1.7086     0.0000     1.0000     0.1989     0.200
    160     1.6299     1.6300     0.5000     0.0001     30.000   1329.000 227247.000     32.934    41.5367    36.6437   -61.0778    -1.9995     0.0009    26.0000     4.0000     9.0000    22.0000    26.0000    10.0000     5.0000    20.0000     3.0006     1.0000    -0.4987    20.7739    41.5368     2.6837    14.4503    14.4502     1.7085     0.0000     1.0000     0.1998     0.200
    161     1.6399     1.6400     0.5000     0.0001     30.000   1316.000 227237.000     32.933    41.5367    36.3622   -61.4649    -1.9995     0.0009    26.0000     4.0000     9.0000    22.0000    26.0000    10.0000     5.0000    20.0000     3.0006     1.0000    -0.4986    20.7739    41.5368     2.6990    14.4503    14.4502     1.7088     0.0000     1.0000     0.1998     0.200
    162     1.6500     1.6501     0.5000     0.0001     30.000   1386.000 227125.000     32.917    41.5367    36.0786   -61.8562    -1.9995     0.0009    26.0000     4.0000     9.0000    22.0000    26.0000    10.0000     5.0000    20.0000     3.0006     1.0000    -0.4986    20.7739    41.5368     2.7145    14.4503    14.4502     1.7087     0.0000     1.0000     0.2003     0.200
    163     1.6600     1.6600     0.5000     0.0001     30.000   1344.000 227274.000     32.938    41.5367    35.7989   -62.2428    -1.9995     0.0009    26.0000     4.0000     9.0000    22.0000    26.0000    10.0000     5.0000    20.0000     3.0006     1.0000    -0.4986    20.7739    41.5368     2.7298    14.4503    14.4502     1.7089     0.0000     1.0000     0.2003     0.200
    164     1.6700     1.6700     0.5000     0.0001     30.000   1291.000 227803.000     33.015    41.5367    35.5188   -62.6310    -1.9995     0.0009    26.0000     4.0000     9.0000    22.0000    26.0000    10.0000     5.0000    20.0000     3.0006     1.0000    -0.4986    20.7738    41.5368     2.7451    14.4503    14.4502     1.7085     0.0000     1.0000     0.1993     0.200
    165     1.6799     1.6799     0.4999     0.0001     30.000   1252.000 228401.000     33.102    41.5367    35.2378   -63.0181    -1.9995     0.0009    26.0000     4.0000     9.0000    22.0000    26.0000    10.0000     5.0000    20.0000     3.0006     1.0000    -0.4986    20.7739    41.5368     2.7603    14.4503    14.4502     1.7087     0.0000     1.0000     0.1993     0.200
    166     1.6900     1.6900     0.5000     0.0001     30.000   1369.000 226528.000     32.830    41.5367    34.9582   -63.4139    -1.9995     0.0009    26.0000     4.0000     9.0000    22.0000    26.0000    10.0000     5.0000    20.0000     3.0006     1.0000    -0.4986    20.7739    41.5368     2.7758    14.4503    14.4502     1.7090     0.0000     1.0000     0.2002     0.200
    167     1.6999     1.6999     0.5000     0.0001     30.000   1331.000 228208.000     33.074    41.5367    34.6803   -63.8019    -1.9995     0.0009    26.0000     4.0000     9.0000    22.0000    26.0000    10.0000     5.0000    20.0000     3.0006     1.0000    -0.4986    20.7739    41.5368     2.7910    14.4503    14.4502     1.7087     0.0000     1.0000     0.2002     0.200
    168     1.7100     1.7100     0.5000     0.0001     30.000   1270.000 227901.000     33.029    41.5367    34.4014   -64.1988    -1.9995     0.0009    26.0000     4.0000     9.0000    22.0000    26.0000    10.0000     5.0000    20.0000     3.0006     1.0000    -0.4986    20.7738    41.5368     2.8066    14.4503    14.4502     1.7087     0.0000     1.0000     0.2001     0.200
    169     1.7199     1.7200     0.4999     0.0001     30.000   1314.000 227261.000     32.936    41.5367    34.1218   -64.5911    -1.9995     0.0009    26.0000     4.0000     9.0000    22.0000    26.0000    10.0000     5.0000    20.0000     3.0006     1.0000    -0.4986    20.7738    41.5368     2.8219    14.4503    14.4502     1.7086     0.0000     1.0000     0.2001     0.200
    170     1.7300     1.7300     0.5000     0.0001     30.000   1366.000 226320.000     32.800    41.5367    33.8440   -64.9869    -1.9995     0.0009    26.0000     4.0000     9.0000    22.0000    26.0000    10.0000     5.0000    20.0000     3.0006     1.0000    -0.4986    20.7739    41.5368     2.8373    14.4503    14.4502     1.7088     0.0000     1.0000     0.2001     0.200
    171     1.7400     1.7401     0.5001     0.0001     30.000   1341.000 228051.000     33.051    41.5367    33.5679   -65.3867    -1.9995     0.0009    26.0000     4.0000     9.0000    22.0000    26.0000    10.0000     5.0000    20.0000     3.0006     1.0000    -0.4986    20.7738    41.5368     2.8528    14.4503    14.4502     1.7089     0.0000     1.0000     0.2001     0.200
    172     1.7500     1.7500     0.5000     0.0001     30.000   1357.000 227365.000     32.951    41.5367    33.2890   -65.7815    -1.9995     0.0009    26.0000     4.0000     9.0000    22.0000    26.0000    10.0000     5.0000    20.0000     3.0006     1.0000    -0.4986    20.7738    41.5368     2.8681    14.4503    14.4502     1.7088     0.0000     1.0000     0.2004     0.200
    173     1.7600     1.7600     0.5000     0.0001     30.000   1400.000 227666.000     32.995    41.5367    33.0117   -66.1802    -1.9995     0.0009    26.0000     4.0000     9.0000    22.0000    26.0000    10.0000     5.0000    20.0000     3.0006     1.0000    -0.4986    20.7738    41.5368     2.8835    14.4503    14.4502     1.7086     0.0000     1.0000     0.2004     0.200
    174     1.7700     1.7700     0.5000     0.0001     30.000   1481.000 227073.000     32.909    41.5367    32.7357   -66.5785    -1.9995     0.0009    26.0000     4.0000     9.0000    22.0000    26.0000    10.0000     5.0000    20.0000     3.0006     1.0000    -0.4986    20.7738    41.5368     2.8989    14.4503    14.4502     1.7085     0.0000     1.0000     0.1997     0.200
    175     1.7800     1.7801     0.5001     0.0001     30.000   1516.000 228410.000     33.103    41.5367    32.4604   -66.9818    -1.9995     0.0009    26.0000     4.0000     9.0000    22.0000    26.0000    10.0000     5.0000    20.0000     3.0006     1.0000    -0.4986    20.7738    41.5368     2.9144    14.4503    14.4502     1.7086     0.0000     1.0000     0.1991     0.200
    176     1.7900     1.7900     0.5000     0.0001     30.000   1617.000 227761.000     33.009    41.5367    32.1821   -67.3807    -1.9995     0.0009    26.0000     4.0000     9.0000    22.0000    26.0000    10.0000     5.0000    20.0000     3.0006     1.0000    -0.4986    20.7738    41.5368     2.9297    14.4503    14.4502     1.7089     0.0000     1.0000     0.1991     0.200
    177     1.8000     1.8000     0.5000     0.0001     30.000   1656.000 228197.000     33.072    41.5367    31.9072   -67.7833    -1.9995     0.0009    26.0000     4.0000     9.0000    22.0000    26.0000    10.0000     5.0000    20.0000     3.0007     1.0000    -0.4986    20.7738    41.5368     2.9451    14.4503    14.4502     1.7086     0.0000     1.0000     0.1998     0.200
    178     1.8099     1.8100     0.5000     0.0001     30.000   2053.000 228778.000     33.156    41.5367    31.6326   -68.1843    -1.9995     0.0009    26.0000     4.0000     9.0000    22.0000    26.0000    10.0000     5.0000    20.0000     3.0006     1.0000    -0.4986    20.7738    41.5368     2.9604    14.4503    14.4502     1.7089     0.0000     1.0000     0.1998     0.200
    179     1.8200     1.8200     0.5000     0.0001     30.000   6233.000 227032.000     32.903    41.5367    31.3571   -68.5918    -1.9995     0.0009    26.0000     4.0000     9.0000    22.0000    26.0000    10.0000     5.0000    20.0000     3.0006     1.0000    -0.4985    20.7738    41.5368     2.9760    14.4503    14.4502     1.7084     0.0000     1.0000     0.1999     0.200
    180     1.8300     1.8301     0.5001     0.0001     30.000  35191.000 227132.000     32.918    41.5367    31.0815   -69.0007    -1.9995     0.0009    26.0000     4.0000     9.0000    22.0000    26.0000    10.0000     5.0000    20.0000     3.0006     1.0000    -0.4985    20.7738    41.5368     2.9915    14.4503    14.4502     1.7085     0.0000     1.0000     0.1999     0.200
    181     1.8399     1.8400     0.4999     0.0001     30.000  74672.000 228240.000     33.078    41.5367    30.8068   -69.4009    -1.9995     0.0009    26.0000     4.0000     9.0000    22.0000    26.0000    10.0000     5.0000    20.0000     3.0006     1.0000    -0.4985    20.7738    41.5368     3.0067    14.4503    14.4502     1.7086     0.0000     1.0000     0.1986     0.200
    182     1.8500     1.8500     0.5000     0.0001     30.000  82839.000 226605.000     32.841    41.5367    30.5328   -69.8118    -1.9995     0.0009    26.0000     4.0000     9.0000    22.0000    26.0000    10.0000     5.0000    20.0000     3.0006     1.0000    -0.4985    20.7738    41.5368     3.0223    14.4503    14.4502     1.7086     0.0000     1.0000     0.1986     0.200
    183     1.8600     1.8601     0.5001     0.0001     30.000  52463.000 226975.000     32.895    41.5367    30.2576   -70.2239    -1.9995     0.0009    26.0000     4.0000     9.0000    22.0000    26.0000    10.0000     5.0000    20.0000     3.0006     1.0000    -0.4985    20.7738    41.5368     3.0378    14.4503    14.4502     1.7084     0.0000     1.0000     0.1999     0.200
    184     1.8700     1.8700     0.5000     0.0001     30.000  18403.000 227458.000     32.965    41.5367    29.9832   -70.6312    -1.9995     0.0009    26.0000     4.0000     9.0000    22.0000    26.0000    10.0000     5.0000    20.0000     3.0006     1.0000    -0.4985    20.7738    41.5368     3.0531    14.4503    14.4502     1.7085     0.0000     1.0000     0.1999     0.200
    185     1.8799     1.8800     0.5000     0.0001     30.000   3846.000 227265.000     32.937    41.5367    29.7089   -71.0417    -1.9995     0.0009    26.0000     4.0000     9.0000    22.0000    26.0000    10.0000     5.0000    20.0000     3.0006     1.0000    -0.4984    20.7738    41.5368     3.0686    14.4503    14.4502     1.7093     0.0000     1.0000     0.1987     0.200
    186     1.8900     1.8900     0.5001     0.0001     30.000   1978.000 225897.000     32.739    41.5367    29.4349   -71.4561    -1.9995     0.0009    26.0000     4.0000     9.0000    22.0000    26.0000    10.0000     5.0000    20.0000     3.0006     1.0000    -0.4984    20.7737    41.5368     3.0841    14.4503    14.4502     1.7085     0.0000     1.0000     0.1987     0.200
    187     1.9000     1.9001     0.5001     0.0001     30.000   1692.000 227451.000     32.964    41.5367    29.1593   -71.8719    -1.9995     0.0009    26.0000     4.0000     9.0000    22.0000    26.0000    10.0000     5.0000    20.0000     3.0006     1.0000    -0.4985    20.7737    41.5368     3.0996    14.4503    14.4502     1.7086     0.0000     1.0000     0.1989     0.200
    188     1.9100     1.9101     0.5001     0.0001     30.000   1686.000 228246.000     33.079    41.5367    28.8856   -72.2869    -1.9995     0.0009    26.0000     4.0000     9.0000    22.0000    26.0000    10.0000     5.0000    20.0000     3.0007     1.0000    -0.4984    20.7737    41.5368     3.1151    14.4503    14.4502     1.7087     0.0000     1.0000     0.1989     0.200
    189     1.9200     1.9200     0.5000     0.0001     30.000   1702.000 226226.000     32.786    41.5367    28.6125   -72.6998    -1.9995     0.0009    26.0000     4.0000     9.0000    22.0000    26.0000    10.0000     5.0000    20.0000     3.0007     1.0000    -0.4984    20.7737    41.5368     3.1304    14.4503    14.4502     1.7092     0.0000     1.0000     0.1996     0.200
    190     1.9299     1.9300     0.4999     0.0001     30.000   1536.000 226915.000     32.886    41.5367    28.3374   -73.1151    -1.9995     0.0009    26.0000     4.0000     9.0000    22.0000    26.0000    10.0000     5.0000    20.0000     3.0007     1.0000    -0.4984    20.7737    41.5368     3.1458    14.4503    14.4502     1.7091     0.0000     1.0000     0.1996     0.200
    191     1.9400     1.9401     0.5001     0.0001     30.000   1623.000 225791.000     32.723    41.5367    28.0635   -73.5383    -1.9995     0.0009    26.0000     4.0000     9.0000    22.0000    26.0000    10.0000     5.0000    20.0000     3.0006     1.0000    -0.4985    20.7737    41.5368     3.1615    14.4503    14.4502     1.7083     0.0000     1.0000     0.1993     0.200
    192     1.9500     1.9500     0.5000     0.0001     30.000   1562.000 227366.000     32.952    41.5367    27.7895   -73.9573    -1.9995     0.0009    26.0000     4.0000     9.0000    22.0000    26.0000    10.0000     5.0000    20.0000     3.0006     1.0000    -0.4985    20.7737    41.5368     3.1769    14.4503    14.4502     1.7088     0.0000     1.0000     0.1993     0.200
    193     1.9600     1.9600     0.5001     0.0001     30.000   1582.000 226852.000     32.877    41.5367    27.5163   -74.3778    -1.9995     0.0009    26.0000     4.0000     9.0000    22.0000    26.0000    10.0000     5.0000    20.0000     3.0006     1.0000    -0.4984    20.7736    41.5368     3.1924    14.4503    14.4502     1.7089     0.0000     1.0000     0.2002     0.200
    194     1.9700     1.9700     0.5000     0.0001     30.000   1549.000 227404.000     32.957    41.5367    27.2410   -74.7992    -1.9995     0.0009    26.0000     4.0000     9.0000    22.0000    26.0000    10.0000     5.0000    20.0000     3.0007     1.0000    -0.4981    20.7736    41.5368     3.2078    14.4503    14.4502     1.7086     0.0000     1.0000     0.2002     0.200
    195     1.9800     1.9800     0.5000     0.0001     30.000   1596.000 227953.000     33.037    41.5367    26.9670   -75.2244    -1.9995     0.0009    26.0000     4.0000     9.0000    22.0000    26.0000    10.0000     5.0000    20.0000     3.0007     1.0000    -0.4983    20.7736    41.5368     3.2234    14.4503    14.4502     1.7092     0.0000     1.0000     0.1997     0.200
    196     1.9900     1.9901     0.5001     0.0001     30.000   1629.000 227059.000     32.907    41.5367    26.6937   -75.6507    -1.9995     0.0009    26.0000     4.0000     9.0000    22.0000    26.0000    10.0000     5.0000    20.0000     3.0007     1.0000    -0.4983    20.7736    41.5368     3.2389    14.4503    14.4502     1.7087     0.0000     1.0000     0.1989     0.200
    197     1.9999     2.0000     0.5000     0.0001     30.000   1575.000 227027.000     32.902    41.5367    26.4191   -76.0733    -1.9995     0.0009    26.0000     4.0000     9.0000    22.0000    26.0000    10.0000     5.0000    20.0000     3.0006     1.0000    -0.4984    20.7736    41.5368     3.2543    14.4503    14.4502     1.7088     0.0000     1.0000     0.1989     0.200
# Sum of Counts = 542489
# Center of Mass = 1.401833+/-0.002817
# Full Width Half-Maximum = 1.223148+/-0.001825
# 12:13:48 AM  9/22/2023   scan completed.
