# scan = 34
# date = 9/19/2023
# time = 10:12:44 PM
# proposal = 30730
# experiment = Low Temperature Magnetic Structure of CeCl3
# experiment_number = 998
# command = scan h 0.6666 k 0.6666 l 0.25 1.75 0.005 e 0 preset time 30 
# builtin_command = scan h 0.6666 k 0.6666 l 0.25 1.75 0.005 e 0 preset time 30
# users = Adam Aczel, David Mandrus, Matthew Cothrine, Stephen Nagler
# local_contact = A. Aczel
# scan_title = CeBr3, (2/3 2/3 L) scan, T = 0.04 K
# monochromator = PG002
# analyzer = Pg002
# sense = +-+
# collimation = 40-40-40-80
# samplename = CeBr3
# sampletype = crystal
# samplemosaic = 30.000000
# latticeconstants = 7.911813,7.911813,4.442653,90.000000,90.000000,120.000000
# ubmatrix = 0.075384,0.080477,-0.177039,-0.099473,-0.099471,-0.138870,-0.075649,0.070209,0.006183
# mode = 0
# plane_normal = 0.034896,0.000010,0.999390
# ubconf = UB19Sep2023_24416PM.ini
# preset_type = normal 
# preset_channel = time
# preset_value = 30.000000
# def_x = l
# def_y = detector
# col_headers = 
#   Pt.          h          k          l          e       time   detector    monitor        mcu         m2         s1         s2        sgl        sgu   slitb_bt   slitb_lf   slitb_rt   slitb_tp   slita_bt   slita_lf   slita_rt   slita_tp        stl        stu         sz         a1         a2          q         ei         ef        vti     sample       temp dr_tsample    dr_temp
      1     0.6666     0.6666     0.2500     0.0001     30.000   1259.000 224283.000     32.505    41.5367    58.1716   -24.4029    -1.9995     0.0009    26.0000     4.0000     9.0000    22.0000    26.0000    10.0000     5.0000    20.0000     3.0005     1.0000    -0.4992    20.7744    41.5369     1.1162    14.4503    14.4501     1.7016     0.0000     1.0000     0.0385     0.000
      2     0.6666     0.6666     0.2550     0.0001     30.000   1205.000 225512.000     32.683    41.5367    58.4903   -24.4515    -1.9995     0.0009    26.0000     4.0000     9.0000    22.0000    26.0000    10.0000     5.0000    20.0000     3.0005     1.0000    -0.4989    20.7743    41.5369     1.1184    14.4503    14.4502     1.7015     0.0000     1.0000     0.0385     0.000
      3     0.6666     0.6666     0.2600     0.0001     30.000   1215.000 225110.000     32.625    41.5367    58.8066   -24.5048    -1.9995     0.0009    26.0000     4.0000     9.0000    22.0000    26.0000    10.0000     5.0000    20.0000     3.0005     1.0000    -0.4989    20.7743    41.5369     1.1208    14.4503    14.4502     1.7014     0.0000     1.0000     0.0385     0.000
      4     0.6666     0.6666     0.2650     0.0001     30.000   1261.000 224547.000     32.543    41.5367    59.1215   -24.5566    -1.9995     0.0009    26.0000     4.0000     9.0000    22.0000    26.0000    10.0000     5.0000    20.0000     3.0005     1.0000    -0.4988    20.7743    41.5369     1.1232    14.4503    14.4502     1.7013     0.0000     1.0000     0.0382     0.000
      5     0.6666     0.6666     0.2700     0.0001     30.000   1229.000 224068.000     32.474    41.5367    59.4350   -24.6093    -1.9995     0.0009    26.0000     4.0000     9.0000    22.0000    26.0000    10.0000     5.0000    20.0000     3.0005     1.0000    -0.4989    20.7742    41.5369     1.1255    14.4503    14.4502     1.7012     0.0000     1.0000     0.0382     0.000
      6     0.6666     0.6666     0.2750     0.0001     30.000   1239.000 224604.000     32.551    41.5367    59.7458   -24.6633    -1.9995     0.0009    26.0000     4.0000     9.0000    22.0000    26.0000    10.0000     5.0000    20.0000     3.0005     1.0000    -0.4988    20.7742    41.5369     1.1280    14.4503    14.4502     1.7012     0.0000     1.0000     0.0382     0.000
      7     0.6666     0.6666     0.2800     0.0001     30.000   1253.000 225198.000     32.637    41.5367    60.0552   -24.7167    -1.9995     0.0009    26.0000     4.0000     9.0000    22.0000    26.0000    10.0000     5.0000    20.0000     3.0006     1.0000    -0.4989    20.7742    41.5369     1.1304    14.4503    14.4502     1.7011     0.0000     1.0000     0.0382     0.000
      8     0.6666     0.6666     0.2850     0.0001     30.000   1246.000 225496.000     32.681    41.5367    60.3617   -24.7724    -1.9995     0.0009    26.0000     4.0000     9.0000    22.0000    26.0000    10.0000     5.0000    20.0000     3.0005     1.0000    -0.4990    20.7742    41.5369     1.1329    14.4503    14.4502     1.7011     0.0000     1.0000     0.0381     0.000
      9     0.6666     0.6666     0.2900     0.0001     30.000   1212.000 225912.000     32.741    41.5367    60.6671   -24.8286    -1.9995     0.0009    26.0000     4.0000     9.0000    22.0000    26.0000    10.0000     5.0000    20.0000     3.0005     1.0000    -0.4990    20.7742    41.5369     1.1354    14.4503    14.4502     1.7010     0.0000     1.0000     0.0380     0.000
     10     0.6666     0.6666     0.2950     0.0001     30.000   1264.000 225466.000     32.676    41.5367    60.9704   -24.8863    -1.9995     0.0009    26.0000     4.0000     9.0000    22.0000    26.0000    10.0000     5.0000    20.0000     3.0005     1.0000    -0.4990    20.7742    41.5369     1.1380    14.4503    14.4502     1.7011     0.0000     1.0000     0.0380     0.000
     11     0.6665     0.6666     0.3000     0.0001     30.000   1250.000 224690.000     32.564    41.5367    61.2722   -24.9424    -1.9995     0.0009    26.0000     4.0000     9.0000    22.0000    26.0000    10.0000     5.0000    20.0000     3.0005     1.0000    -0.4990    20.7742    41.5369     1.1405    14.4503    14.4502     1.7010     0.0000     1.0000     0.0386     0.000
     12     0.6666     0.6666     0.3050     0.0001     30.000   1247.000 225128.000     32.627    41.5367    61.5716   -25.0022    -1.9995     0.0009    26.0000     4.0000     9.0000    22.0000    26.0000    10.0000     5.0000    20.0000     3.0006     1.0000    -0.4990    20.7742    41.5369     1.1432    14.4503    14.4502     1.7010     0.0000     1.0000     0.0386     0.000
     13     0.6666     0.6666     0.3100     0.0001     30.000   1233.000 226002.000     32.754    41.5367    61.8694   -25.0614    -1.9995     0.0009    26.0000     4.0000     9.0000    22.0000    26.0000    10.0000     5.0000    20.0000     3.0006     1.0000    -0.4989    20.7742    41.5369     1.1459    14.4503    14.4502     1.7010     0.0000     1.0000     0.0379     0.000
     14     0.6666     0.6666     0.3150     0.0001     30.000   1191.000 224543.000     32.542    41.5367    62.1647   -25.1228    -1.9995     0.0009    26.0000     4.0000     9.0000    22.0000    26.0000    10.0000     5.0000    20.0000     3.0005     1.0000    -0.4990    20.7742    41.5369     1.1487    14.4503    14.4502     1.7010     0.0000     1.0000     0.0379     0.000
     15     0.6666     0.6666     0.3200     0.0001     30.000   1237.000 225426.000     32.670    41.5367    62.4587   -25.1836    -1.9995     0.0009    26.0000     4.0000     9.0000    22.0000    26.0000    10.0000     5.0000    20.0000     3.0006     1.0000    -0.4989    20.7742    41.5369     1.1514    14.4503    14.4502     1.7009     0.0000     1.0000     0.0381     0.000
     16     0.6666     0.6666     0.3250     0.0001     30.000   1212.000 224525.000     32.540    41.5367    62.7501   -25.2469    -1.9995     0.0009    26.0000     4.0000     9.0000    22.0000    26.0000    10.0000     5.0000    20.0000     3.0006     1.0000    -0.4992    20.7741    41.5369     1.1542    14.4503    14.4502     1.7008     0.0000     1.0000     0.0381     0.000
     17     0.6666     0.6666     0.3300     0.0001     30.000   1207.000 224819.000     32.582    41.5367    63.0395   -25.3088    -1.9995     0.0009    26.0000     4.0000     9.0000    22.0000    26.0000    10.0000     5.0000    20.0000     3.0006     1.0000    -0.4990    20.7741    41.5369     1.1570    14.4503    14.4502     1.7008     0.0000     1.0000     0.0379     0.000
     18     0.6666     0.6666     0.3350     0.0001     30.000   1232.000 225137.000     32.629    41.5367    63.3278   -25.3747    -1.9995     0.0009    26.0000     4.0000     9.0000    22.0000    26.0000    10.0000     5.0000    20.0000     3.0005     1.0000    -0.4992    20.7741    41.5369     1.1600    14.4503    14.4502     1.7007     0.0000     1.0000     0.0381     0.000
     19     0.6666     0.6666     0.3400     0.0001     30.000   1283.000 225061.000     32.618    41.5367    63.6138   -25.4385    -1.9995     0.0009    26.0000     4.0000     9.0000    22.0000    26.0000    10.0000     5.0000    20.0000     3.0006     1.0000    -0.4989    20.7741    41.5369     1.1629    14.4503    14.4502     1.7020     0.0000     1.0000     0.0381     0.000
     20     0.6666     0.6666     0.3450     0.0001     30.000   1251.000 224418.000     32.524    41.5367    63.8969   -25.5024    -1.9995     0.0009    26.0000     4.0000     9.0000    22.0000    26.0000    10.0000     5.0000    20.0000     3.0006     1.0000    -0.4992    20.7741    41.5369     1.1657    14.4503    14.4502     1.7029     0.0000     1.0000     0.0378     0.000
     21     0.6666     0.6666     0.3500     0.0001     30.000   1289.000 225785.000     32.722    41.5367    64.1788   -25.5692    -1.9995     0.0009    26.0000     4.0000     9.0000    22.0000    26.0000    10.0000     5.0000    20.0000     3.0006     1.0000    -0.4990    20.7741    41.5369     1.1687    14.4503    14.4502     1.7035     0.0000     1.0000     0.0378     0.000
     22     0.6666     0.6666     0.3550     0.0001     30.000   1320.000 223979.000     32.461    41.5367    64.4584   -25.6363    -1.9995     0.0009    26.0000     4.0000     9.0000    22.0000    26.0000    10.0000     5.0000    20.0000     3.0006     1.0000    -0.4994    20.7741    41.5369     1.1717    14.4503    14.4502     1.7039     0.0000     1.0000     0.0379     0.000
     23     0.6666     0.6666     0.3600     0.0001     30.000   1216.000 224296.000     32.507    41.5367    64.7361   -25.7051    -1.9995     0.0009    26.0000     4.0000     9.0000    22.0000    26.0000    10.0000     5.0000    20.0000     3.0006     1.0000    -0.4991    20.7741    41.5369     1.1748    14.4503    14.4502     1.7042     0.0000     1.0000     0.0379     0.000
     24     0.6666     0.6666     0.3650     0.0001     30.000   1241.000 224390.000     32.520    41.5367    65.0120   -25.7727    -1.9995     0.0009    26.0000     4.0000     9.0000    22.0000    26.0000    10.0000     5.0000    20.0000     3.0006     1.0000    -0.4992    20.7741    41.5369     1.1779    14.4503    14.4502     1.7045     0.0000     1.0000     0.0377     0.000
     25     0.6666     0.6666     0.3700     0.0001     30.000   1230.000 225311.000     32.654    41.5367    65.2856   -25.8426    -1.9995     0.0009    26.0000     4.0000     9.0000    22.0000    26.0000    10.0000     5.0000    20.0000     3.0006     1.0000    -0.4991    20.7741    41.5369     1.1810    14.4503    14.4502     1.7047     0.0000     1.0000     0.0377     0.000
     26     0.6666     0.6666     0.3750     0.0001     30.000   1239.000 224122.000     32.481    41.5367    65.5573   -25.9134    -1.9995     0.0009    26.0000     4.0000     9.0000    22.0000    26.0000    10.0000     5.0000    20.0000     3.0006     1.0000    -0.4992    20.7741    41.5369     1.1842    14.4503    14.4502     1.7049     0.0000     1.0000     0.0381     0.000
     27     0.6666     0.6666     0.3800     0.0001     30.000   1249.000 225449.000     32.674    41.5367    65.8269   -25.9841    -1.9995     0.0009    26.0000     4.0000     9.0000    22.0000    26.0000    10.0000     5.0000    20.0000     3.0006     1.0000    -0.4992    20.7741    41.5369     1.1874    14.4503    14.4502     1.7050     0.0000     1.0000     0.0381     0.000
     28     0.6666     0.6666     0.3850     0.0001     30.000   1229.000 224961.000     32.603    41.5367    66.0942   -26.0563    -1.9995     0.0009    26.0000     4.0000     9.0000    22.0000    26.0000    10.0000     5.0000    20.0000     3.0005     1.0000    -0.4994    20.7741    41.5369     1.1906    14.4503    14.4502     1.7051     0.0000     1.0000     0.0378     0.000
     29     0.6666     0.6666     0.3900     0.0001     30.000   1197.000 225196.000     32.637    41.5367    66.3603   -26.1280    -1.9995     0.0009    26.0000     4.0000     9.0000    22.0000    26.0000    10.0000     5.0000    20.0000     3.0006     1.0000    -0.4991    20.7740    41.5369     1.1938    14.4503    14.4502     1.7052     0.0000     1.0000     0.0379     0.000
     30     0.6666     0.6666     0.3950     0.0001     30.000   1330.000 224581.000     32.548    41.5367    66.6235   -26.2019    -1.9995     0.0009    26.0000     4.0000     9.0000    22.0000    26.0000    10.0000     5.0000    20.0000     3.0006     1.0000    -0.4992    20.7741    41.5369     1.1971    14.4503    14.4502     1.7053     0.0000     1.0000     0.0379     0.000
     31     0.6666     0.6666     0.4000     0.0001     30.000   1253.000 225112.000     32.625    41.5367    66.8853   -26.2760    -1.9995     0.0009    26.0000     4.0000     9.0000    22.0000    26.0000    10.0000     5.0000    20.0000     3.0006     1.0000    -0.4991    20.7740    41.5369     1.2005    14.4503    14.4502     1.7054     0.0000     1.0000     0.0379     0.000
     32     0.6666     0.6666     0.4050     0.0001     30.000   1340.000 224543.000     32.542    41.5367    67.1451   -26.3485    -1.9995     0.0009    26.0000     4.0000     9.0000    22.0000    26.0000    10.0000     5.0000    20.0000     3.0005     1.0000    -0.4995    20.7740    41.5369     1.2037    14.4503    14.4502     1.7054     0.0000     1.0000     0.0379     0.000
     33     0.6666     0.6666     0.4100     0.0001     30.000   1254.000 224895.000     32.593    41.5367    67.4024   -26.4246    -1.9995     0.0009    26.0000     4.0000     9.0000    22.0000    26.0000    10.0000     5.0000    20.0000     3.0006     1.0000    -0.4991    20.7740    41.5369     1.2071    14.4503    14.4502     1.7055     0.0000     1.0000     0.0379     0.000
     34     0.6666     0.6666     0.4150     0.0001     30.000   1222.000 224945.000     32.601    41.5367    67.6577   -26.5004    -1.9995     0.0009    26.0000     4.0000     9.0000    22.0000    26.0000    10.0000     5.0000    20.0000     3.0005     1.0000    -0.4993    20.7740    41.5369     1.2105    14.4503    14.4502     1.7055     0.0000     1.0000     0.0379     0.000
     35     0.6666     0.6666     0.4200     0.0001     30.000   1232.000 225088.000     32.621    41.5367    67.9120   -26.5762    -1.9995     0.0009    26.0000     4.0000     9.0000    22.0000    26.0000    10.0000     5.0000    20.0000     3.0006     1.0000    -0.4992    20.7740    41.5369     1.2139    14.4503    14.4502     1.7055     0.0000     1.0000     0.0378     0.000
     36     0.6665     0.6665     0.4249     0.0001     30.000   1228.000 225401.000     32.667    41.5367    68.1628   -26.6525    -1.9995     0.0009    26.0000     4.0000     9.0000    22.0000    26.0000    10.0000     5.0000    20.0000     3.0006     1.0000    -0.4993    20.7740    41.5369     1.2174    14.4503    14.4502     1.7056     0.0000     1.0000     0.0378     0.000
     37     0.6666     0.6666     0.4300     0.0001     30.000   1248.000 225113.000     32.625    41.5367    68.4126   -26.7328    -1.9995     0.0009    26.0000     4.0000     9.0000    22.0000    26.0000    10.0000     5.0000    20.0000     3.0006     1.0000    -0.4991    20.7740    41.5369     1.2210    14.4503    14.4502     1.7056     0.0000     1.0000     0.0377     0.000
     38     0.6666     0.6666     0.4350     0.0001     30.000   1228.000 225448.000     32.674    41.5367    68.6612   -26.8112    -1.9995     0.0009    26.0000     4.0000     9.0000    22.0000    26.0000    10.0000     5.0000    20.0000     3.0006     1.0000    -0.4994    20.7740    41.5369     1.2245    14.4503    14.4502     1.7057     0.0000     1.0000     0.0377     0.000
     39     0.6666     0.6666     0.4400     0.0001     30.000   1233.000 225135.000     32.628    41.5367    68.9053   -26.8910    -1.9995     0.0009    26.0000     4.0000     9.0000    22.0000    26.0000    10.0000     5.0000    20.0000     3.0006     1.0000    -0.4992    20.7740    41.5369     1.2281    14.4503    14.4502     1.7057     0.0000     1.0000     0.0377     0.000
     40     0.6666     0.6666     0.4450     0.0001     30.000   1191.000 225621.000     32.699    41.5367    69.1502   -26.9719    -1.9995     0.0009    26.0000     4.0000     9.0000    22.0000    26.0000    10.0000     5.0000    20.0000     3.0006     1.0000    -0.4994    20.7740    41.5369     1.2317    14.4503    14.4502     1.7058     0.0000     1.0000     0.0376     0.000
     41     0.6666     0.6666     0.4500     0.0001     30.000   1257.000 224145.000     32.485    41.5367    69.3911   -27.0525    -1.9995     0.0009    26.0000     4.0000     9.0000    22.0000    26.0000    10.0000     5.0000    20.0000     3.0006     1.0000    -0.4992    20.7740    41.5369     1.2353    14.4503    14.4502     1.7058     0.0000     1.0000     0.0376     0.000
     42     0.6666     0.6666     0.4550     0.0001     30.000   1216.000 223749.000     32.427    41.5367    69.6307   -27.1348    -1.9995     0.0009    26.0000     4.0000     9.0000    22.0000    26.0000    10.0000     5.0000    20.0000     3.0006     1.0000    -0.4994    20.7740    41.5369     1.2390    14.4503    14.4502     1.7058     0.0000     1.0000     0.0377     0.000
     43     0.6665     0.6666     0.4600     0.0001     30.000   1222.000 225091.000     32.622    41.5367    69.8671   -27.2151    -1.9995     0.0009    26.0000     4.0000     9.0000    22.0000    26.0000    10.0000     5.0000    20.0000     3.0006     1.0000    -0.4992    20.7740    41.5369     1.2426    14.4503    14.4502     1.7058     0.0000     1.0000     0.0377     0.000
     44     0.6666     0.6666     0.4650     0.0001     30.000   1309.000 224634.000     32.556    41.5367    70.1022   -27.3004    -1.9995     0.0009    26.0000     4.0000     9.0000    22.0000    26.0000    10.0000     5.0000    20.0000     3.0006     1.0000    -0.4995    20.7740    41.5369     1.2464    14.4503    14.4502     1.7059     0.0000     1.0000     0.0378     0.000
     45     0.6666     0.6666     0.4700     0.0001     30.000   1263.000 225916.000     32.741    41.5367    70.3362   -27.3844    -1.9995     0.0009    26.0000     4.0000     9.0000    22.0000    26.0000    10.0000     5.0000    20.0000     3.0005     1.0000    -0.4992    20.7740    41.5369     1.2502    14.4503    14.4502     1.7058     0.0000     1.0000     0.0378     0.000
     46     0.6666     0.6666     0.4750     0.0001     30.000   1288.000 225961.000     32.748    41.5367    70.5674   -27.4686    -1.9995     0.0009    26.0000     4.0000     9.0000    22.0000    26.0000    10.0000     5.0000    20.0000     3.0006     1.0000    -0.4993    20.7740    41.5369     1.2539    14.4503    14.4502     1.7059     0.0000     1.0000     0.0378     0.000
     47     0.6666     0.6666     0.4800     0.0001     30.000   1388.000 225620.000     32.699    41.5367    70.7971   -27.5530    -1.9995     0.0009    26.0000     4.0000     9.0000    22.0000    26.0000    10.0000     5.0000    20.0000     3.0006     1.0000    -0.4992    20.7740    41.5368     1.2577    14.4503    14.4502     1.7059     0.0000     1.0000     0.0378     0.000
     48     0.6666     0.6666     0.4850     0.0001     30.000   1272.000 224495.000     32.536    41.5367    71.0247   -27.6387    -1.9995     0.0009    26.0000     4.0000     9.0000    22.0000    26.0000    10.0000     5.0000    20.0000     3.0006     1.0000    -0.4994    20.7740    41.5369     1.2616    14.4503    14.4502     1.7060     0.0000     1.0000     0.0377     0.000
     49     0.6666     0.6666     0.4901     0.0001     30.000   1514.000 225824.000     32.728    41.5367    71.2506   -27.7266    -1.9995     0.0009    26.0000     4.0000     9.0000    22.0000    26.0000    10.0000     5.0000    20.0000     3.0006     1.0000    -0.4993    20.7740    41.5369     1.2655    14.4503    14.4502     1.7060     0.0000     1.0000     0.0379     0.000
     50     0.6666     0.6666     0.4950     0.0001     30.000   5764.000 224759.000     32.574    41.5367    71.4745   -27.8117    -1.9995     0.0009    26.0000     4.0000     9.0000    22.0000    26.0000    10.0000     5.0000    20.0000     3.0006     1.0000    -0.4995    20.7740    41.5369     1.2693    14.4503    14.4502     1.7060     0.0000     1.0000     0.0379     0.000
     51     0.6666     0.6666     0.5000     0.0001     30.000  13953.000 225689.000     32.709    41.5367    71.6960   -27.9000    -1.9995     0.0009    26.0000     4.0000     9.0000    22.0000    26.0000    10.0000     5.0000    20.0000     3.0005     1.0000    -0.4994    20.7740    41.5369     1.2732    14.4503    14.4502     1.7061     0.0000     1.0000     0.0377     0.000
     52     0.6666     0.6666     0.5050     0.0001     30.000   9081.000 224312.000     32.509    41.5367    71.9151   -27.9869    -1.9995     0.0009    26.0000     4.0000     9.0000    22.0000    26.0000    10.0000     5.0000    20.0000     3.0006     1.0000    -0.4994    20.7740    41.5369     1.2771    14.4503    14.4502     1.7061     0.0000     1.0000     0.0377     0.000
     53     0.6665     0.6666     0.5100     0.0001     30.000   2477.000 224837.000     32.585    41.5367    72.1349   -28.0740    -1.9995     0.0009    26.0000     4.0000     9.0000    22.0000    26.0000    10.0000     5.0000    20.0000     3.0005     1.0000    -0.4994    20.7739    41.5369     1.2810    14.4503    14.4502     1.7061     0.0000     1.0000     0.0377     0.000
     54     0.6666     0.6666     0.5150     0.0001     30.000   1287.000 224827.000     32.584    41.5367    72.3517   -28.1646    -1.9995     0.0009    26.0000     4.0000     9.0000    22.0000    26.0000    10.0000     5.0000    20.0000     3.0006     1.0000    -0.4994    20.7740    41.5369     1.2851    14.4503    14.4502     1.7060     0.0000     1.0000     0.0377     0.000
     55     0.6666     0.6666     0.5200     0.0001     30.000   1279.000 225848.000     32.732    41.5367    72.5633   -28.2533    -1.9995     0.0009    26.0000     4.0000     9.0000    22.0000    26.0000    10.0000     5.0000    20.0000     3.0005     1.0000    -0.4992    20.7739    41.5369     1.2890    14.4503    14.4502     1.7060     0.0000     1.0000     0.0378     0.000
     56     0.6666     0.6666     0.5250     0.0001     30.000   1251.000 225406.000     32.668    41.5367    72.7740   -28.3443    -1.9995     0.0009    26.0000     4.0000     9.0000    22.0000    26.0000    10.0000     5.0000    20.0000     3.0006     1.0000    -0.4995    20.7740    41.5369     1.2931    14.4503    14.4502     1.7059     0.0000     1.0000     0.0378     0.000
     57     0.6665     0.6666     0.5299     0.0001     30.000   1250.000 224637.000     32.556    41.5367    72.9853   -28.4344    -1.9995     0.0009    26.0000     4.0000     9.0000    22.0000    26.0000    10.0000     5.0000    20.0000     3.0005     1.0000    -0.4992    20.7739    41.5369     1.2971    14.4503    14.4502     1.7059     0.0000     1.0000     0.0377     0.000
     58     0.6666     0.6666     0.5350     0.0001     30.000   1251.000 225260.000     32.646    41.5367    73.1936   -28.5285    -1.9995     0.0009    26.0000     4.0000     9.0000    22.0000    26.0000    10.0000     5.0000    20.0000     3.0006     1.0000    -0.4994    20.7739    41.5369     1.3013    14.4503    14.4502     1.7059     0.0000     1.0000     0.0376     0.000
     59     0.6666     0.6666     0.5400     0.0001     30.000   1125.000 226418.000     32.814    41.5367    73.4000   -28.6202    -1.9995     0.0009    26.0000     4.0000     9.0000    22.0000    26.0000    10.0000     5.0000    20.0000     3.0005     1.0000    -0.4994    20.7739    41.5369     1.3054    14.4503    14.4502     1.7059     0.0000     1.0000     0.0376     0.000
     60     0.6666     0.6666     0.5450     0.0001     30.000   1084.000 224945.000     32.601    41.5367    73.6038   -28.7132    -1.9995     0.0009    26.0000     4.0000     9.0000    22.0000    26.0000    10.0000     5.0000    20.0000     3.0006     1.0000    -0.4995    20.7739    41.5369     1.3096    14.4503    14.4502     1.7059     0.0000     1.0000     0.0376     0.000
     61     0.6666     0.6666     0.5500     0.0001     30.000   1155.000 226327.000     32.801    41.5367    73.8069   -28.8071    -1.9995     0.0009    26.0000     4.0000     9.0000    22.0000    26.0000    10.0000     5.0000    20.0000     3.0006     1.0000    -0.4994    20.7739    41.5369     1.3138    14.4503    14.4502     1.7060     0.0000     1.0000     0.0376     0.000
     62     0.6666     0.6666     0.5550     0.0001     30.000   1087.000 225155.000     32.631    41.5367    74.0074   -28.9018    -1.9995     0.0009    26.0000     4.0000     9.0000    22.0000    26.0000    10.0000     5.0000    20.0000     3.0006     1.0000    -0.4995    20.7739    41.5369     1.3180    14.4503    14.4502     1.7059     0.0000     1.0000     0.0377     0.000
     63     0.6666     0.6666     0.5601     0.0001     30.000   1159.000 225061.000     32.618    41.5367    74.2085   -28.9975    -1.9995     0.0009    26.0000     4.0000     9.0000    22.0000    26.0000    10.0000     5.0000    20.0000     3.0005     1.0000    -0.4992    20.7739    41.5369     1.3223    14.4503    14.4502     1.7059     0.0000     1.0000     0.0377     0.000
     64     0.6666     0.6666     0.5650     0.0001     30.000   1152.000 224231.000     32.497    41.5367    74.4021   -29.0915    -1.9995     0.0009    26.0000     4.0000     9.0000    22.0000    26.0000    10.0000     5.0000    20.0000     3.0006     1.0000    -0.4995    20.7739    41.5369     1.3265    14.4503    14.4502     1.7059     0.0000     1.0000     0.0376     0.000
     65     0.6666     0.6666     0.5701     0.0001     30.000   1107.000 225385.000     32.664    41.5367    74.5987   -29.1887    -1.9995     0.0009    26.0000     4.0000     9.0000    22.0000    26.0000    10.0000     5.0000    20.0000     3.0006     1.0000    -0.4992    20.7739    41.5369     1.3308    14.4503    14.4502     1.7059     0.0000     1.0000     0.0376     0.000
     66     0.6666     0.6666     0.5751     0.0001     30.000   1119.000 225299.000     32.652    41.5367    74.7922   -29.2852    -1.9995     0.0009    26.0000     4.0000     9.0000    22.0000    26.0000    10.0000     5.0000    20.0000     3.0005     1.0000    -0.4995    20.7739    41.5369     1.3351    14.4503    14.4502     1.7059     0.0000     1.0000     0.0377     0.000
     67     0.6666     0.6666     0.5800     0.0001     30.000   1142.000 224971.000     32.604    41.5367    74.9830   -29.3812    -1.9995     0.0009    26.0000     4.0000     9.0000    22.0000    26.0000    10.0000     5.0000    20.0000     3.0006     1.0000    -0.4992    20.7739    41.5369     1.3394    14.4503    14.4502     1.7059     0.0000     1.0000     0.0377     0.000
     68     0.6666     0.6667     0.5851     0.0001     30.000   1091.000 224845.000     32.586    41.5367    75.1732   -29.4804    -1.9995     0.0009    26.0000     4.0000     9.0000    22.0000    26.0000    10.0000     5.0000    20.0000     3.0006     1.0000    -0.4994    20.7739    41.5369     1.3438    14.4503    14.4502     1.7059     0.0000     1.0000     0.0377     0.000
     69     0.6666     0.6666     0.5901     0.0001     30.000   1136.000 225682.000     32.708    41.5367    75.3625   -29.5767    -1.9995     0.0009    26.0000     4.0000     9.0000    22.0000    26.0000    10.0000     5.0000    20.0000     3.0006     1.0000    -0.4992    20.7739    41.5369     1.3481    14.4503    14.4502     1.7059     0.0000     1.0000     0.0378     0.000
     70     0.6665     0.6666     0.5949     0.0001     30.000   1030.000 224983.000     32.606    41.5367    75.5441   -29.6701    -1.9995     0.0009    26.0000     4.0000     9.0000    22.0000    26.0000    10.0000     5.0000    20.0000     3.0006     1.0000    -0.4994    20.7739    41.5369     1.3523    14.4503    14.4502     1.7058     0.0000     1.0000     0.0378     0.000
     71     0.6666     0.6666     0.6001     0.0001     30.000   1090.000 225692.000     32.709    41.5367    75.7315   -29.7746    -1.9995     0.0009    26.0000     4.0000     9.0000    22.0000    26.0000    10.0000     5.0000    20.0000     3.0005     1.0000    -0.4993    20.7739    41.5369     1.3569    14.4503    14.4502     1.7059     0.0000     1.0000     0.0378     0.000
     72     0.6665     0.6666     0.6049     0.0001     30.000   1075.000 225089.000     32.622    41.5367    75.9141   -29.8700    -1.9995     0.0009    26.0000     4.0000     9.0000    22.0000    26.0000    10.0000     5.0000    20.0000     3.0005     1.0000    -0.4994    20.7739    41.5369     1.3612    14.4503    14.4502     1.7059     0.0000     1.0000     0.0378     0.000
     73     0.6666     0.6666     0.6100     0.0001     30.000   1116.000 225683.000     32.708    41.5367    76.0946   -29.9708    -1.9995     0.0009    26.0000     4.0000     9.0000    22.0000    26.0000    10.0000     5.0000    20.0000     3.0006     1.0000    -0.4991    20.7739    41.5368     1.3657    14.4503    14.4502     1.7058     0.0000     1.0000     0.0378     0.000
     74     0.6666     0.6666     0.6150     0.0001     30.000   1082.000 225161.000     32.632    41.5367    76.2745   -30.0737    -1.9995     0.0009    26.0000     4.0000     9.0000    22.0000    26.0000    10.0000     5.0000    20.0000     3.0006     1.0000    -0.4992    20.7739    41.5368     1.3702    14.4503    14.4502     1.7058     0.0000     1.0000     0.0378     0.000
     75     0.6666     0.6666     0.6200     0.0001     30.000   1054.000 224945.000     32.601    41.5367    76.4506   -30.1731    -1.9995     0.0009    26.0000     4.0000     9.0000    22.0000    26.0000    10.0000     5.0000    20.0000     3.0006     1.0000    -0.4991    20.7739    41.5369     1.3747    14.4503    14.4502     1.7058     0.0000     1.0000     0.0377     0.000
     76     0.6666     0.6667     0.6251     0.0001     30.000   1085.000 225107.000     32.624    41.5367    76.6255   -30.2792    -1.9995     0.0009    26.0000     4.0000     9.0000    22.0000    26.0000    10.0000     5.0000    20.0000     3.0006     1.0000    -0.4992    20.7739    41.5368     1.3794    14.4503    14.4502     1.7058     0.0000     1.0000     0.0378     0.000
     77     0.6666     0.6666     0.6300     0.0001     30.000   1089.000 225446.000     32.673    41.5367    76.8009   -30.3786    -1.9995     0.0009    26.0000     4.0000     9.0000    22.0000    26.0000    10.0000     5.0000    20.0000     3.0005     1.0000    -0.4994    20.7739    41.5368     1.3838    14.4503    14.4502     1.7058     0.0000     1.0000     0.0378     0.000
     78     0.6665     0.6666     0.6350     0.0001     30.000   1078.000 227112.000     32.915    41.5367    76.9721   -30.4787    -1.9995     0.0009    26.0000     4.0000     9.0000    22.0000    26.0000    10.0000     5.0000    20.0000     3.0006     1.0000    -0.4992    20.7739    41.5368     1.3883    14.4503    14.4502     1.7057     0.0000     1.0000     0.0378     0.000
     79     0.6666     0.6666     0.6400     0.0001     30.000   1047.000 224967.000     32.604    41.5367    77.1422   -30.5835    -1.9995     0.0009    26.0000     4.0000     9.0000    22.0000    26.0000    10.0000     5.0000    20.0000     3.0005     1.0000    -0.4992    20.7739    41.5369     1.3929    14.4503    14.4502     1.7057     0.0000     1.0000     0.0378     0.000
     80     0.6666     0.6666     0.6450     0.0001     30.000   1066.000 225241.000     32.644    41.5367    77.3103   -30.6878    -1.9995     0.0009    26.0000     4.0000     9.0000    22.0000    26.0000    10.0000     5.0000    20.0000     3.0006     1.0000    -0.4991    20.7739    41.5368     1.3976    14.4503    14.4502     1.7057     0.0000     1.0000     0.0379     0.000
     81     0.6666     0.6666     0.6500     0.0001     30.000   1076.000 224845.000     32.586    41.5367    77.4763   -30.7931    -1.9995     0.0009    26.0000     4.0000     9.0000    22.0000    26.0000    10.0000     5.0000    20.0000     3.0005     1.0000    -0.4995    20.7739    41.5368     1.4022    14.4503    14.4502     1.7057     0.0000     1.0000     0.0379     0.000
     82     0.6666     0.6666     0.6550     0.0001     30.000   1062.000 225949.000     32.746    41.5367    77.6435   -30.8961    -1.9995     0.0009    26.0000     4.0000     9.0000    22.0000    26.0000    10.0000     5.0000    20.0000     3.0006     1.0000    -0.4992    20.7739    41.5368     1.4068    14.4503    14.4502     1.7057     0.0000     1.0000     0.0378     0.000
     83     0.6666     0.6666     0.6601     0.0001     30.000   1042.000 224717.000     32.568    41.5367    77.8084   -31.0028    -1.9995     0.0009    26.0000     4.0000     9.0000    22.0000    26.0000    10.0000     5.0000    20.0000     3.0005     1.0000    -0.4992    20.7739    41.5369     1.4115    14.4503    14.4502     1.7057     0.0000     1.0000     0.0378     0.000
     84     0.6666     0.6666     0.6650     0.0001     30.000   1052.000 226254.000     32.790    41.5367    77.9680   -31.1079    -1.9995     0.0009    26.0000     4.0000     9.0000    22.0000    26.0000    10.0000     5.0000    20.0000     3.0006     1.0000    -0.4992    20.7739    41.5368     1.4162    14.4503    14.4502     1.7056     0.0000     1.0000     0.0378     0.000
     85     0.6666     0.6666     0.6700     0.0001     30.000   1013.000 225038.000     32.614    41.5367    78.1283   -31.2136    -1.9995     0.0009    26.0000     4.0000     9.0000    22.0000    26.0000    10.0000     5.0000    20.0000     3.0006     1.0000    -0.4991    20.7739    41.5369     1.4209    14.4503    14.4502     1.7055     0.0000     1.0000     0.0378     0.000
     86     0.6666     0.6666     0.6750     0.0001     30.000   1022.000 225361.000     32.661    41.5367    78.2843   -31.3200    -1.9995     0.0009    26.0000     4.0000     9.0000    22.0000    26.0000    10.0000     5.0000    20.0000     3.0006     1.0000    -0.4991    20.7739    41.5368     1.4256    14.4503    14.4502     1.7055     0.0000     1.0000     0.0378     0.000
     87     0.6666     0.6666     0.6800     0.0001     30.000   1078.000 225983.000     32.751    41.5367    78.4410   -31.4267    -1.9995     0.0009    26.0000     4.0000     9.0000    22.0000    26.0000    10.0000     5.0000    20.0000     3.0006     1.0000    -0.4991    20.7739    41.5369     1.4304    14.4503    14.4502     1.7055     0.0000     1.0000     0.0379     0.000
     88     0.6666     0.6666     0.6849     0.0001     30.000   1093.000 225928.000     32.743    41.5367    78.5974   -31.5313    -1.9995     0.0009    26.0000     4.0000     9.0000    22.0000    26.0000    10.0000     5.0000    20.0000     3.0006     1.0000    -0.4991    20.7739    41.5368     1.4350    14.4503    14.4502     1.7055     0.0000     1.0000     0.0379     0.000
     89     0.6666     0.6666     0.6900     0.0001     30.000   1036.000 225256.000     32.646    41.5367    78.7506   -31.6415    -1.9995     0.0009    26.0000     4.0000     9.0000    22.0000    26.0000    10.0000     5.0000    20.0000     3.0006     1.0000    -0.4991    20.7739    41.5368     1.4399    14.4503    14.4502     1.7055     0.0000     1.0000     0.0378     0.000
     90     0.6665     0.6665     0.6950     0.0001     30.000   1039.000 224943.000     32.600    41.5367    78.9107   -31.7477    -1.9995     0.0009    26.0000     4.0000     9.0000    22.0000    26.0000    10.0000     5.0000    20.0000     3.0006     1.0000    -0.4995    20.7739    41.5368     1.4446    14.4503    14.4502     1.7055     0.0000     1.0000     0.0378     0.000
     91     0.6666     0.6666     0.7000     0.0001     30.000   1018.000 225056.000     32.617    41.5367    79.0570   -31.8582    -1.9995     0.0009    26.0000     4.0000     9.0000    22.0000    26.0000    10.0000     5.0000    20.0000     3.0006     1.0000    -0.4996    20.7738    41.5368     1.4495    14.4503    14.4502     1.7055     0.0000     1.0000     0.0378     0.000
     92     0.6665     0.6666     0.7051     0.0001     30.000   1037.000 224622.000     32.554    41.5367    79.2085   -31.9678    -1.9995     0.0009    26.0000     4.0000     9.0000    22.0000    26.0000    10.0000     5.0000    20.0000     3.0005     1.0000    -0.4992    20.7738    41.5368     1.4544    14.4503    14.4502     1.7054     0.0000     1.0000     0.0378     0.000
     93     0.6666     0.6666     0.7100     0.0001     30.000   1073.000 225070.000     32.619    41.5367    79.3486   -32.0766    -1.9995     0.0009    26.0000     4.0000     9.0000    22.0000    26.0000    10.0000     5.0000    20.0000     3.0006     1.0000    -0.4990    20.7738    41.5369     1.4592    14.4503    14.4502     1.7054     0.0000     1.0000     0.0379     0.000
     94     0.6665     0.6665     0.7150     0.0001     30.000   1037.000 226129.000     32.772    41.5367    79.4996   -32.1854    -1.9995     0.0009    26.0000     4.0000     9.0000    22.0000    26.0000    10.0000     5.0000    20.0000     3.0006     1.0000    -0.4993    20.7739    41.5369     1.4640    14.4503    14.4502     1.7053     0.0000     1.0000     0.0379     0.000
     95     0.6666     0.6666     0.7201     0.0001     30.000   1110.000 225225.000     32.641    41.5367    79.6436   -32.2982    -1.9995     0.0009    26.0000     4.0000     9.0000    22.0000    26.0000    10.0000     5.0000    20.0000     3.0006     1.0000    -0.4991    20.7738    41.5369     1.4690    14.4503    14.4502     1.7054     0.0000     1.0000     0.0378     0.000
     96     0.6666     0.6666     0.7250     0.0001     30.000   1007.000 225302.000     32.652    41.5367    79.7853   -32.4084    -1.9995     0.0009    26.0000     4.0000     9.0000    22.0000    26.0000    10.0000     5.0000    20.0000     3.0006     1.0000    -0.4995    20.7738    41.5368     1.4739    14.4503    14.4502     1.7054     0.0000     1.0000     0.0379     0.000
     97     0.6665     0.6665     0.7301     0.0001     30.000   1054.000 225493.000     32.680    41.5367    79.9327   -32.5205    -1.9995     0.0009    26.0000     4.0000     9.0000    22.0000    26.0000    10.0000     5.0000    20.0000     3.0006     1.0000    -0.4995    20.7738    41.5368     1.4788    14.4503    14.4502     1.7053     0.0000     1.0000     0.0379     0.000
     98     0.6665     0.6666     0.7351     0.0001     30.000    978.000 225738.000     32.716    41.5367    80.0700   -32.6331    -1.9995     0.0009    26.0000     4.0000     9.0000    22.0000    26.0000    10.0000     5.0000    20.0000     3.0005     1.0000    -0.4995    20.7738    41.5368     1.4838    14.4503    14.4502     1.7053     0.0000     1.0000     0.0380     0.000
     99     0.6665     0.6666     0.7401     0.0001     30.000    998.000 224538.000     32.542    41.5367    80.2073   -32.7450    -1.9995     0.0009    26.0000     4.0000     9.0000    22.0000    26.0000    10.0000     5.0000    20.0000     3.0006     1.0000    -0.4994    20.7738    41.5368     1.4888    14.4503    14.4502     1.7053     0.0000     1.0000     0.0380     0.000
    100     0.6666     0.6666     0.7450     0.0001     30.000   1063.000 225131.000     32.628    41.5367    80.3418   -32.8568    -1.9995     0.0009    26.0000     4.0000     9.0000    22.0000    26.0000    10.0000     5.0000    20.0000     3.0006     1.0000    -0.4996    20.7738    41.5369     1.4937    14.4503    14.4502     1.7053     0.0000     1.0000     0.0378     0.000
    101     0.6666     0.6666     0.7500     0.0001     30.000   1046.000 224982.000     32.606    41.5367    80.4758   -32.9689    -1.9995     0.0009    26.0000     4.0000     9.0000    22.0000    26.0000    10.0000     5.0000    20.0000     3.0006     1.0000    -0.4995    20.7738    41.5369     1.4987    14.4503    14.4502     1.7052     0.0000     1.0000     0.0378     0.000
    102     0.6665     0.6666     0.7550     0.0001     30.000   1019.000 225666.000     32.705    41.5367    80.6094   -33.0817    -1.9995     0.0009    26.0000     4.0000     9.0000    22.0000    26.0000    10.0000     5.0000    20.0000     3.0005     1.0000    -0.4995    20.7738    41.5369     1.5036    14.4503    14.4502     1.7052     0.0000     1.0000     0.0379     0.000
    103     0.6665     0.6665     0.7600     0.0001     30.000   1025.000 225867.000     32.734    41.5367    80.7467   -33.1950    -1.9995     0.0009    26.0000     4.0000     9.0000    22.0000    26.0000    10.0000     5.0000    20.0000     3.0006     1.0000    -0.4994    20.7738    41.5368     1.5086    14.4503    14.4502     1.7051     0.0000     1.0000     0.0379     0.000
    104     0.6666     0.6666     0.7650     0.0001     30.000    976.000 225524.000     32.685    41.5367    80.8721   -33.3101    -1.9995     0.0009    26.0000     4.0000     9.0000    22.0000    26.0000    10.0000     5.0000    20.0000     3.0006     1.0000    -0.4996    20.7738    41.5369     1.5137    14.4503    14.4502     1.7050     0.0000     1.0000     0.0380     0.000
    105     0.6666     0.6666     0.7700     0.0001     30.000   1042.000 224815.000     32.582    41.5367    81.0014   -33.4247    -1.9995     0.0009    26.0000     4.0000     9.0000    22.0000    26.0000    10.0000     5.0000    20.0000     3.0005     1.0000    -0.4994    20.7738    41.5368     1.5188    14.4503    14.4502     1.7050     0.0000     1.0000     0.0380     0.000
    106     0.6666     0.6666     0.7750     0.0001     30.000   1051.000 224653.000     32.558    41.5367    81.1297   -33.5413    -1.9995     0.0009    26.0000     4.0000     9.0000    22.0000    26.0000    10.0000     5.0000    20.0000     3.0006     1.0000    -0.4994    20.7738    41.5368     1.5239    14.4503    14.4502     1.7050     0.0000     1.0000     0.0379     0.000
    107     0.6665     0.6666     0.7800     0.0001     30.000   1030.000 224487.000     32.534    41.5367    81.2556   -33.6551    -1.9995     0.0009    26.0000     4.0000     9.0000    22.0000    26.0000    10.0000     5.0000    20.0000     3.0006     1.0000    -0.4995    20.7738    41.5369     1.5290    14.4503    14.4502     1.7049     0.0000     1.0000     0.0379     0.000
    108     0.6666     0.6666     0.7850     0.0001     30.000   1063.000 225456.000     32.675    41.5367    81.3802   -33.7723    -1.9995     0.0009    26.0000     4.0000     9.0000    22.0000    26.0000    10.0000     5.0000    20.0000     3.0005     1.0000    -0.4995    20.7738    41.5368     1.5341    14.4503    14.4502     1.7049     0.0000     1.0000     0.0379     0.000
    109     0.6666     0.6666     0.7900     0.0001     30.000   1031.000 225419.000     32.669    41.5367    81.5037   -33.8886    -1.9995     0.0009    26.0000     4.0000     9.0000    22.0000    26.0000    10.0000     5.0000    20.0000     3.0006     1.0000    -0.4995    20.7738    41.5368     1.5393    14.4503    14.4502     1.7049     0.0000     1.0000     0.0379     0.000
    110     0.6666     0.6666     0.7951     0.0001     30.000   1019.000 226215.000     32.785    41.5367    81.6260   -34.0065    -1.9995     0.0009    26.0000     4.0000     9.0000    22.0000    26.0000    10.0000     5.0000    20.0000     3.0006     1.0000    -0.4994    20.7738    41.5368     1.5445    14.4503    14.4502     1.7049     0.0000     1.0000     0.0379     0.000
    111     0.6666     0.6666     0.8001     0.0001     30.000   1063.000 224558.000     32.545    41.5367    81.7468   -34.1239    -1.9995     0.0009    26.0000     4.0000     9.0000    22.0000    26.0000    10.0000     5.0000    20.0000     3.0005     1.0000    -0.4995    20.7738    41.5368     1.5496    14.4503    14.4502     1.7048     0.0000     1.0000     0.0379     0.000
    112     0.6666     0.6666     0.8050     0.0001     30.000   1022.000 226043.000     32.760    41.5367    81.8663   -34.2400    -1.9995     0.0009    26.0000     4.0000     9.0000    22.0000    26.0000    10.0000     5.0000    20.0000     3.0005     1.0000    -0.4994    20.7738    41.5369     1.5547    14.4503    14.4502     1.7048     0.0000     1.0000     0.0379     0.000
    113     0.6666     0.6666     0.8101     0.0001     30.000   1040.000 225644.000     32.702    41.5367    81.9848   -34.3584    -1.9995     0.0009    26.0000     4.0000     9.0000    22.0000    26.0000    10.0000     5.0000    20.0000     3.0006     1.0000    -0.4995    20.7738    41.5369     1.5600    14.4503    14.4502     1.7047     0.0000     1.0000     0.0379     0.000
    114     0.6666     0.6666     0.8150     0.0001     30.000    968.000 225474.000     32.677    41.5367    82.1010   -34.4760    -1.9995     0.0009    26.0000     4.0000     9.0000    22.0000    26.0000    10.0000     5.0000    20.0000     3.0006     1.0000    -0.4994    20.7738    41.5368     1.5651    14.4503    14.4502     1.7046     0.0000     1.0000     0.0379     0.000
    115     0.6666     0.6666     0.8200     0.0001     30.000   1037.000 224974.000     32.605    41.5367    82.2165   -34.5944    -1.9995     0.0009    26.0000     4.0000     9.0000    22.0000    26.0000    10.0000     5.0000    20.0000     3.0006     1.0000    -0.4992    20.7738    41.5368     1.5703    14.4503    14.4502     1.7046     0.0000     1.0000     0.0379     0.000
    116     0.6665     0.6666     0.8250     0.0001     30.000   1042.000 225302.000     32.652    41.5367    82.3302   -34.7108    -1.9995     0.0009    26.0000     4.0000     9.0000    22.0000    26.0000    10.0000     5.0000    20.0000     3.0006     1.0000    -0.4995    20.7738    41.5368     1.5755    14.4503    14.4502     1.7046     0.0000     1.0000     0.0379     0.000
    117     0.6665     0.6666     0.8300     0.0001     30.000   1044.000 224624.000     32.554    41.5367    82.4434   -34.8302    -1.9995     0.0009    26.0000     4.0000     9.0000    22.0000    26.0000    10.0000     5.0000    20.0000     3.0006     1.0000    -0.4991    20.7738    41.5368     1.5807    14.4503    14.4502     1.7047     0.0000     1.0000     0.0379     0.000
    118     0.6666     0.6666     0.8350     0.0001     30.000   1041.000 226178.000     32.779    41.5367    82.5537   -34.9503    -1.9995     0.0009    26.0000     4.0000     9.0000    22.0000    26.0000    10.0000     5.0000    20.0000     3.0006     1.0000    -0.4994    20.7738    41.5368     1.5860    14.4503    14.4502     1.7046     0.0000     1.0000     0.0379     0.000
    119     0.6666     0.6666     0.8400     0.0001     30.000    990.000 225491.000     32.680    41.5367    82.6634   -35.0698    -1.9995     0.0009    26.0000     4.0000     9.0000    22.0000    26.0000    10.0000     5.0000    20.0000     3.0006     1.0000    -0.4993    20.7738    41.5368     1.5913    14.4503    14.4502     1.7047     0.0000     1.0000     0.0379     0.000
    120     0.6666     0.6666     0.8450     0.0001     30.000   1046.000 225818.000     32.727    41.5367    82.7731   -35.1916    -1.9995     0.0009    26.0000     4.0000     9.0000    22.0000    26.0000    10.0000     5.0000    20.0000     3.0006     1.0000    -0.4995    20.7738    41.5368     1.5966    14.4503    14.4502     1.7047     0.0000     1.0000     0.0379     0.000
    121     0.6666     0.6666     0.8500     0.0001     30.000    981.000 225664.000     32.705    41.5367    82.8800   -35.3118    -1.9995     0.0009    26.0000     4.0000     9.0000    22.0000    26.0000    10.0000     5.0000    20.0000     3.0006     1.0000    -0.4995    20.7738    41.5369     1.6019    14.4503    14.4502     1.7047     0.0000     1.0000     0.0379     0.000
    122     0.6666     0.6666     0.8550     0.0001     30.000    984.000 224855.000     32.588    41.5367    82.9864   -35.4338    -1.9995     0.0009    26.0000     4.0000     9.0000    22.0000    26.0000    10.0000     5.0000    20.0000     3.0006     1.0000    -0.4995    20.7738    41.5369     1.6072    14.4503    14.4502     1.7047     0.0000     1.0000     0.0380     0.000
    123     0.6666     0.6666     0.8600     0.0001     30.000    968.000 225592.000     32.694    41.5367    83.0911   -35.5554    -1.9995     0.0009    26.0000     4.0000     9.0000    22.0000    26.0000    10.0000     5.0000    20.0000     3.0005     1.0000    -0.4994    20.7738    41.5368     1.6126    14.4503    14.4502     1.7047     0.0000     1.0000     0.0380     0.000
    124     0.6666     0.6666     0.8651     0.0001     30.000    986.000 226443.000     32.818    41.5367    83.1948   -35.6788    -1.9995     0.0009    26.0000     4.0000     9.0000    22.0000    26.0000    10.0000     5.0000    20.0000     3.0006     1.0000    -0.4995    20.7738    41.5368     1.6180    14.4503    14.4502     1.7046     0.0000     1.0000     0.0379     0.000
    125     0.6666     0.6666     0.8701     0.0001     30.000   1002.000 225155.000     32.631    41.5367    83.2979   -35.8004    -1.9995     0.0009    26.0000     4.0000     9.0000    22.0000    26.0000    10.0000     5.0000    20.0000     3.0006     1.0000    -0.4992    20.7738    41.5368     1.6233    14.4503    14.4502     1.7046     0.0000     1.0000     0.0379     0.000
    126     0.6666     0.6666     0.8750     0.0001     30.000    999.000 225894.000     32.738    41.5367    83.3983   -35.9209    -1.9995     0.0009    26.0000     4.0000     9.0000    22.0000    26.0000    10.0000     5.0000    20.0000     3.0006     1.0000    -0.4992    20.7738    41.5369     1.6286    14.4503    14.4502     1.7046     0.0000     1.0000     0.0379     0.000
    127     0.6666     0.6666     0.8800     0.0001     30.000    922.000 225190.000     32.636    41.5367    83.4981   -36.0440    -1.9995     0.0009    26.0000     4.0000     9.0000    22.0000    26.0000    10.0000     5.0000    20.0000     3.0006     1.0000    -0.4992    20.7738    41.5368     1.6340    14.4503    14.4502     1.7045     0.0000     1.0000     0.0379     0.000
    128     0.6666     0.6666     0.8850     0.0001     30.000    978.000 224716.000     32.568    41.5367    83.5966   -36.1675    -1.9995     0.0009    26.0000     4.0000     9.0000    22.0000    26.0000    10.0000     5.0000    20.0000     3.0005     1.0000    -0.4993    20.7738    41.5368     1.6394    14.4503    14.4502     1.7045     0.0000     1.0000     0.0379     0.000
    129     0.6666     0.6666     0.8900     0.0001     30.000    932.000 226190.000     32.781    41.5367    83.6937   -36.2900    -1.9995     0.0009    26.0000     4.0000     9.0000    22.0000    26.0000    10.0000     5.0000    20.0000     3.0006     1.0000    -0.4993    20.7738    41.5368     1.6448    14.4503    14.4502     1.7045     0.0000     1.0000     0.0379     0.000
    130     0.6665     0.6666     0.8950     0.0001     30.000   1008.000 225079.000     32.620    41.5367    83.7899   -36.4119    -1.9995     0.0009    26.0000     4.0000     9.0000    22.0000    26.0000    10.0000     5.0000    20.0000     3.0006     1.0000    -0.4995    20.7738    41.5368     1.6501    14.4503    14.4502     1.7045     0.0000     1.0000     0.0379     0.000
    131     0.6666     0.6666     0.9000     0.0001     30.000    997.000 224777.000     32.576    41.5367    83.8851   -36.5373    -1.9995     0.0009    26.0000     4.0000     9.0000    22.0000    26.0000    10.0000     5.0000    20.0000     3.0006     1.0000    -0.4992    20.7738    41.5368     1.6556    14.4503    14.4502     1.7045     0.0000     1.0000     0.0381     0.000
    132     0.6666     0.6666     0.9050     0.0001     30.000    985.000 224783.000     32.577    41.5367    83.9793   -36.6619    -1.9995     0.0009    26.0000     4.0000     9.0000    22.0000    26.0000    10.0000     5.0000    20.0000     3.0006     1.0000    -0.4993    20.7738    41.5368     1.6611    14.4503    14.4502     1.7044     0.0000     1.0000     0.0381     0.000
    133     0.6665     0.6666     0.9100     0.0001     30.000    971.000 225576.000     32.692    41.5367    84.0722   -36.7861    -1.9995     0.0009    26.0000     4.0000     9.0000    22.0000    26.0000    10.0000     5.0000    20.0000     3.0006     1.0000    -0.4992    20.7738    41.5368     1.6665    14.4503    14.4502     1.7044     0.0000     1.0000     0.0380     0.000
    134     0.6665     0.6666     0.9150     0.0001     30.000   1036.000 225765.000     32.720    41.5367    84.1635   -36.9100    -1.9995     0.0009    26.0000     4.0000     9.0000    22.0000    26.0000    10.0000     5.0000    20.0000     3.0006     1.0000    -0.4993    20.7738    41.5368     1.6719    14.4503    14.4502     1.7044     0.0000     1.0000     0.0380     0.000
    135     0.6666     0.6666     0.9200     0.0001     30.000    995.000 224495.000     32.536    41.5367    84.2537   -37.0371    -1.9995     0.0009    26.0000     4.0000     9.0000    22.0000    26.0000    10.0000     5.0000    20.0000     3.0006     1.0000    -0.4991    20.7738    41.5368     1.6775    14.4503    14.4502     1.7044     0.0000     1.0000     0.0380     0.000
    136     0.6666     0.6666     0.9250     0.0001     30.000    981.000 225040.000     32.614    41.5367    84.3429   -37.1626    -1.9995     0.0009    26.0000     4.0000     9.0000    22.0000    26.0000    10.0000     5.0000    20.0000     3.0006     1.0000    -0.4991    20.7738    41.5368     1.6830    14.4503    14.4502     1.7044     0.0000     1.0000     0.0380     0.000
    137     0.6666     0.6666     0.9301     0.0001     30.000    987.000 224438.000     32.527    41.5367    84.4306   -37.2903    -1.9995     0.0009    26.0000     4.0000     9.0000    22.0000    26.0000    10.0000     5.0000    20.0000     3.0006     1.0000    -0.4992    20.7738    41.5368     1.6885    14.4503    14.4502     1.7044     0.0000     1.0000     0.0379     0.000
    138     0.6666     0.6666     0.9351     0.0001     30.000   1040.000 224855.000     32.588    41.5367    84.5175   -37.4171    -1.9995     0.0009    26.0000     4.0000     9.0000    22.0000    26.0000    10.0000     5.0000    20.0000     3.0006     1.0000    -0.4994    20.7738    41.5368     1.6941    14.4503    14.4502     1.7043     0.0000     1.0000     0.0381     0.000
    139     0.6666     0.6666     0.9400     0.0001     30.000   1026.000 224794.000     32.579    41.5367    84.6026   -37.5425    -1.9995     0.0009    26.0000     4.0000     9.0000    22.0000    26.0000    10.0000     5.0000    20.0000     3.0006     1.0000    -0.4990    20.7738    41.5368     1.6995    14.4503    14.4502     1.7043     0.0000     1.0000     0.0381     0.000
    140     0.6666     0.6666     0.9451     0.0001     30.000   1024.000 224660.000     32.559    41.5367    84.6875   -37.6708    -1.9995     0.0009    26.0000     4.0000     9.0000    22.0000    26.0000    10.0000     5.0000    20.0000     3.0006     1.0000    -0.4993    20.7738    41.5368     1.7051    14.4503    14.4502     1.7043     0.0000     1.0000     0.0379     0.000
    141     0.6666     0.6666     0.9500     0.0001     30.000    966.000 225336.000     32.657    41.5367    84.7708   -37.7968    -1.9995     0.0009    26.0000     4.0000     9.0000    22.0000    26.0000    10.0000     5.0000    20.0000     3.0006     1.0000    -0.4993    20.7738    41.5368     1.7106    14.4503    14.4502     1.7042     0.0000     1.0000     0.0379     0.000
    142     0.6666     0.6666     0.9550     0.0001     30.000    937.000 224613.000     32.553    41.5367    84.8536   -37.9240    -1.9995     0.0009    26.0000     4.0000     9.0000    22.0000    26.0000    10.0000     5.0000    20.0000     3.0006     1.0000    -0.4994    20.7738    41.5368     1.7162    14.4503    14.4502     1.7042     0.0000     1.0000     0.0379     0.000
    143     0.6665     0.6666     0.9600     0.0001     30.000    989.000 225910.000     32.741    41.5367    84.9347   -38.0495    -1.9995     0.0009    26.0000     4.0000     9.0000    22.0000    26.0000    10.0000     5.0000    20.0000     3.0006     1.0000    -0.4990    20.7738    41.5368     1.7217    14.4503    14.4502     1.7041     0.0000     1.0000     0.0379     0.000
    144     0.6666     0.6666     0.9650     0.0001     30.000    948.000 224927.000     32.598    41.5367    85.0148   -38.1792    -1.9995     0.0009    26.0000     4.0000     9.0000    22.0000    26.0000    10.0000     5.0000    20.0000     3.0006     1.0000    -0.4994    20.7738    41.5368     1.7273    14.4503    14.4502     1.7041     0.0000     1.0000     0.0381     0.000
    145     0.6666     0.6666     0.9700     0.0001     30.000    981.000 225537.000     32.687    41.5367    85.0940   -38.3077    -1.9995     0.0009    26.0000     4.0000     9.0000    22.0000    26.0000    10.0000     5.0000    20.0000     3.0006     1.0000    -0.4992    20.7737    41.5368     1.7329    14.4503    14.4502     1.7041     0.0000     1.0000     0.0381     0.000
    146     0.6666     0.6666     0.9750     0.0001     30.000    983.000 225310.000     32.654    41.5367    85.1726   -38.4366    -1.9995     0.0009    26.0000     4.0000     9.0000    22.0000    26.0000    10.0000     5.0000    20.0000     3.0006     1.0000    -0.4992    20.7738    41.5368     1.7385    14.4503    14.4502     1.7041     0.0000     1.0000     0.0381     0.000
    147     0.6666     0.6666     0.9801     0.0001     30.000    927.000 224796.000     32.579    41.5367    85.2490   -38.5667    -1.9995     0.0009    26.0000     4.0000     9.0000    22.0000    26.0000    10.0000     5.0000    20.0000     3.0006     1.0000    -0.4991    20.7738    41.5368     1.7442    14.4503    14.4502     1.7041     0.0000     1.0000     0.0381     0.000
    148     0.6666     0.6666     0.9850     0.0001     30.000    962.000 224241.000     32.499    41.5367    85.3247   -38.6942    -1.9995     0.0009    26.0000     4.0000     9.0000    22.0000    26.0000    10.0000     5.0000    20.0000     3.0006     1.0000    -0.4991    20.7738    41.5368     1.7497    14.4503    14.4502     1.7042     0.0000     1.0000     0.0382     0.000
    149     0.6666     0.6666     0.9900     0.0001     30.000    969.000 225084.000     32.621    41.5367    85.3993   -38.8244    -1.9995     0.0009    26.0000     4.0000     9.0000    22.0000    26.0000    10.0000     5.0000    20.0000     3.0006     1.0000    -0.4990    20.7737    41.5368     1.7554    14.4503    14.4502     1.7041     0.0000     1.0000     0.0380     0.000
    150     0.6666     0.6666     0.9950     0.0001     30.000   1025.000 225654.000     32.703    41.5367    85.4729   -38.9554    -1.9995     0.0009    26.0000     4.0000     9.0000    22.0000    26.0000    10.0000     5.0000    20.0000     3.0006     1.0000    -0.4990    20.7738    41.5368     1.7611    14.4503    14.4502     1.7041     0.0000     1.0000     0.0380     0.000
    151     0.6666     0.6666     1.0001     0.0001     30.000    931.000 225716.000     32.712    41.5367    85.5464   -39.0857    -1.9995     0.0009    26.0000     4.0000     9.0000    22.0000    26.0000    10.0000     5.0000    20.0000     3.0006     1.0000    -0.4994    20.7737    41.5368     1.7667    14.4503    14.4502     1.7040     0.0000     1.0000     0.0382     0.000
    152     0.6666     0.6666     1.0051     0.0001     30.000   1018.000 226293.000     32.796    41.5367    85.6179   -39.2166    -1.9995     0.0009    26.0000     4.0000     9.0000    22.0000    26.0000    10.0000     5.0000    20.0000     3.0006     1.0000    -0.4991    20.7737    41.5368     1.7724    14.4503    14.4502     1.7040     0.0000     1.0000     0.0382     0.000
    153     0.6666     0.6666     1.0101     0.0001     30.000   1003.000 224582.000     32.548    41.5367    85.6886   -39.3474    -1.9995     0.0009    26.0000     4.0000     9.0000    22.0000    26.0000    10.0000     5.0000    20.0000     3.0006     1.0000    -0.4990    20.7737    41.5368     1.7781    14.4503    14.4502     1.7040     0.0000     1.0000     0.0380     0.000
    154     0.6666     0.6666     1.0150     0.0001     30.000    956.000 226115.000     32.770    41.5367    85.7584   -39.4773    -1.9995     0.0009    26.0000     4.0000     9.0000    22.0000    26.0000    10.0000     5.0000    20.0000     3.0006     1.0000    -0.4990    20.7738    41.5368     1.7837    14.4503    14.4502     1.7039     0.0000     1.0000     0.0380     0.000
    155     0.6665     0.6665     1.0200     0.0001     30.000   1036.000 225873.000     32.735    41.5367    85.8281   -39.6061    -1.9995     0.0009    26.0000     4.0000     9.0000    22.0000    26.0000    10.0000     5.0000    20.0000     3.0006     1.0000    -0.4990    20.7737    41.5368     1.7893    14.4503    14.4502     1.7039     0.0000     1.0000     0.0380     0.000
    156     0.6666     0.6666     1.0251     0.0001     30.000    977.000 224783.000     32.577    41.5367    85.8950   -39.7414    -1.9995     0.0009    26.0000     4.0000     9.0000    22.0000    26.0000    10.0000     5.0000    20.0000     3.0006     1.0000    -0.4990    20.7738    41.5368     1.7952    14.4503    14.4502     1.7038     0.0000     1.0000     0.0380     0.000
    157     0.6665     0.6665     1.0299     0.0001     30.000    980.000 226140.000     32.774    41.5367    85.9621   -39.8681    -1.9995     0.0009    26.0000     4.0000     9.0000    22.0000    26.0000    10.0000     5.0000    20.0000     3.0006     1.0000    -0.4992    20.7738    41.5368     1.8007    14.4503    14.4502     1.7038     0.0000     1.0000     0.0381     0.000
    158     0.6665     0.6665     1.0350     0.0001     30.000   1023.000 225083.000     32.621    41.5367    86.0285   -40.0012    -1.9995     0.0009    26.0000     4.0000     9.0000    22.0000    26.0000    10.0000     5.0000    20.0000     3.0006     1.0000    -0.4992    20.7737    41.5368     1.8064    14.4503    14.4502     1.7038     0.0000     1.0000     0.0381     0.000
    159     0.6666     0.6666     1.0401     0.0001     30.000   1011.000 226493.000     32.825    41.5367    86.0930   -40.1371    -1.9995     0.0009    26.0000     4.0000     9.0000    22.0000    26.0000    10.0000     5.0000    20.0000     3.0006     1.0000    -0.4992    20.7737    41.5368     1.8123    14.4503    14.4502     1.7037     0.0000     1.0000     0.0381     0.000
    160     0.6665     0.6666     1.0450     0.0001     30.000    980.000 225253.000     32.645    41.5367    86.1567   -40.2675    -1.9995     0.0009    26.0000     4.0000     9.0000    22.0000    26.0000    10.0000     5.0000    20.0000     3.0006     1.0000    -0.4992    20.7737    41.5368     1.8180    14.4503    14.4502     1.7037     0.0000     1.0000     0.0380     0.000
    161     0.6665     0.6666     1.0499     0.0000     30.000    976.000 224774.000     32.576    41.5367    86.2190   -40.3995    -1.9995     0.0009    26.0000     4.0000     9.0000    22.0000    26.0000    10.0000     5.0000    20.0000     3.0006     1.0000    -0.4990    20.7737    41.5367     1.8237    14.4503    14.4503     1.7036     0.0000     1.0000     0.0380     0.000
    162     0.6666     0.6666     1.0551     0.0000     30.000    922.000 225628.000     32.700    41.5367    86.2817   -40.5365    -1.9995     0.0009    26.0000     4.0000     9.0000    22.0000    26.0000    10.0000     5.0000    20.0000     3.0006     1.0000    -0.4990    20.7738    41.5368     1.8296    14.4503    14.4502     1.7037     0.0000     1.0000     0.0379     0.000
    163     0.6666     0.6666     1.0601     0.0001     30.000    873.000 225629.000     32.700    41.5367    86.3426   -40.6695    -1.9995     0.0009    26.0000     4.0000     9.0000    22.0000    26.0000    10.0000     5.0000    20.0000     3.0006     1.0000    -0.4990    20.7738    41.5368     1.8354    14.4503    14.4502     1.7036     0.0000     1.0000     0.0379     0.000
    164     0.6666     0.6666     1.0651     0.0001     30.000    919.000 224932.000     32.599    41.5367    86.4023   -40.8047    -1.9995     0.0009    26.0000     4.0000     9.0000    22.0000    26.0000    10.0000     5.0000    20.0000     3.0006     1.0000    -0.4991    20.7738    41.5368     1.8412    14.4503    14.4502     1.7036     0.0000     1.0000     0.0381     0.000
    165     0.6666     0.6666     1.0700     0.0000     30.000    995.000 224791.000     32.578    41.5367    86.4615   -40.9368    -1.9995     0.0009    26.0000     4.0000     9.0000    22.0000    26.0000    10.0000     5.0000    20.0000     3.0006     1.0000    -0.4990    20.7738    41.5367     1.8469    14.4503    14.4503     1.7036     0.0000     1.0000     0.0381     0.000
    166     0.6666     0.6666     1.0751     0.0000     30.000    981.000 226072.000     32.764    41.5367    86.5194   -41.0729    -1.9995     0.0009    26.0000     4.0000     9.0000    22.0000    26.0000    10.0000     5.0000    20.0000     3.0006     1.0000    -0.4992    20.7737    41.5368     1.8528    14.4503    14.4502     1.7036     0.0000     1.0000     0.0381     0.000
    167     0.6665     0.6666     1.0800     0.0001     30.000    967.000 225166.000     32.633    41.5367    86.5769   -41.2037    -1.9995     0.0009    26.0000     4.0000     9.0000    22.0000    26.0000    10.0000     5.0000    20.0000     3.0006     1.0000    -0.4992    20.7737    41.5368     1.8584    14.4503    14.4502     1.7036     0.0000     1.0000     0.0381     0.000
    168     0.6666     0.6666     1.0850     0.0000     30.000    987.000 225266.000     32.647    41.5367    86.6327   -41.3385    -1.9995     0.0009    26.0000     4.0000     9.0000    22.0000    26.0000    10.0000     5.0000    20.0000     3.0006     1.0000    -0.4991    20.7737    41.5368     1.8642    14.4503    14.4502     1.7036     0.0000     1.0000     0.0381     0.000
    169     0.6666     0.6666     1.0899     0.0000     30.000   1017.000 225628.000     32.700    41.5367    86.6880   -41.4734    -1.9995     0.0009    26.0000     4.0000     9.0000    22.0000    26.0000    10.0000     5.0000    20.0000     3.0006     1.0000    -0.4991    20.7738    41.5368     1.8701    14.4503    14.4502     1.7036     0.0000     1.0000     0.0381     0.000
    170     0.6666     0.6666     1.0950     0.0000     30.000    991.000 224978.000     32.606    41.5367    86.7431   -41.6101    -1.9995     0.0009    26.0000     4.0000     9.0000    22.0000    26.0000    10.0000     5.0000    20.0000     3.0006     1.0000    -0.4992    20.7737    41.5368     1.8759    14.4503    14.4502     1.7036     0.0000     1.0000     0.0381     0.000
    171     0.6665     0.6666     1.1000     0.0001     30.000    991.000 225459.000     32.675    41.5367    86.7973   -41.7449    -1.9995     0.0009    26.0000     4.0000     9.0000    22.0000    26.0000    10.0000     5.0000    20.0000     3.0006     1.0000    -0.4992    20.7737    41.5368     1.8817    14.4503    14.4502     1.7035     0.0000     1.0000     0.0379     0.000
    172     0.6666     0.6666     1.1050     0.0000     30.000    933.000 225130.000     32.628    41.5367    86.8497   -41.8829    -1.9995     0.0009    26.0000     4.0000     9.0000    22.0000    26.0000    10.0000     5.0000    20.0000     3.0006     1.0000    -0.4991    20.7737    41.5368     1.8877    14.4503    14.4502     1.7034     0.0000     1.0000     0.0379     0.000
    173     0.6666     0.6666     1.1101     0.0001     30.000    967.000 225210.000     32.639    41.5367    86.9021   -42.0196    -1.9995     0.0009    26.0000     4.0000     9.0000    22.0000    26.0000    10.0000     5.0000    20.0000     3.0006     1.0000    -0.4992    20.7738    41.5368     1.8936    14.4503    14.4502     1.7034     0.0000     1.0000     0.0381     0.000
    174     0.6666     0.6666     1.1151     0.0001     30.000    943.000 225043.000     32.615    41.5367    86.9535   -42.1554    -1.9995     0.0009    26.0000     4.0000     9.0000    22.0000    26.0000    10.0000     5.0000    20.0000     3.0006     1.0000    -0.4992    20.7737    41.5368     1.8994    14.4503    14.4502     1.7034     0.0000     1.0000     0.0381     0.000
    175     0.6666     0.6666     1.1201     0.0001     30.000   1001.000 225326.000     32.656    41.5367    87.0036   -42.2946    -1.9995     0.0009    26.0000     4.0000     9.0000    22.0000    26.0000    10.0000     5.0000    20.0000     3.0007     1.0000    -0.4990    20.7737    41.5368     1.9054    14.4503    14.4502     1.7034     0.0000     1.0000     0.0380     0.000
    176     0.6666     0.6666     1.1251     0.0000     30.000   1052.000 225193.000     32.637    41.5367    87.0527   -42.4305    -1.9995     0.0009    26.0000     4.0000     9.0000    22.0000    26.0000    10.0000     5.0000    20.0000     3.0006     1.0000    -0.4991    20.7737    41.5368     1.9112    14.4503    14.4502     1.7034     0.0000     1.0000     0.0380     0.000
    177     0.6666     0.6666     1.1300     0.0001     30.000    984.000 225223.000     32.641    41.5367    87.1010   -42.5645    -1.9995     0.0009    26.0000     4.0000     9.0000    22.0000    26.0000    10.0000     5.0000    20.0000     3.0006     1.0000    -0.4991    20.7738    41.5368     1.9170    14.4503    14.4502     1.7034     0.0000     1.0000     0.0380     0.000
    178     0.6666     0.6666     1.1351     0.0001     30.000    992.000 225537.000     32.687    41.5367    87.1487   -42.7043    -1.9995     0.0009    26.0000     4.0000     9.0000    22.0000    26.0000    10.0000     5.0000    20.0000     3.0006     1.0000    -0.4992    20.7737    41.5368     1.9230    14.4503    14.4502     1.7034     0.0000     1.0000     0.0380     0.000
    179     0.6666     0.6666     1.1400     0.0001     30.000    987.000 225180.000     32.635    41.5367    87.1958   -42.8409    -1.9995     0.0009    26.0000     4.0000     9.0000    22.0000    26.0000    10.0000     5.0000    20.0000     3.0006     1.0000    -0.4990    20.7737    41.5368     1.9289    14.4503    14.4502     1.7033     0.0000     1.0000     0.0381     0.000
    180     0.6665     0.6666     1.1450     0.0001     30.000    985.000 224628.000     32.555    41.5367    87.2419   -42.9780    -1.9995     0.0009    26.0000     4.0000     9.0000    22.0000    26.0000    10.0000     5.0000    20.0000     3.0006     1.0000    -0.4990    20.7738    41.5368     1.9347    14.4503    14.4502     1.7033     0.0000     1.0000     0.0381     0.000
    181     0.6665     0.6666     1.1500     0.0000     30.000    966.000 225202.000     32.638    41.5367    87.2869   -43.1151    -1.9995     0.0009    26.0000     4.0000     9.0000    22.0000    26.0000    10.0000     5.0000    20.0000     3.0006     1.0000    -0.4992    20.7737    41.5368     1.9406    14.4503    14.4502     1.7033     0.0000     1.0000     0.0381     0.000
    182     0.6665     0.6666     1.1550     0.0001     30.000    975.000 225104.000     32.624    41.5367    87.3316   -43.2529    -1.9995     0.0009    26.0000     4.0000     9.0000    22.0000    26.0000    10.0000     5.0000    20.0000     3.0006     1.0000    -0.4991    20.7737    41.5368     1.9465    14.4503    14.4502     1.7032     0.0000     1.0000     0.0380     0.000
    183     0.6666     0.6666     1.1600     0.0001     30.000    949.000 225530.000     32.686    41.5367    87.3747   -43.3929    -1.9995     0.0009    26.0000     4.0000     9.0000    22.0000    26.0000    10.0000     5.0000    20.0000     3.0006     1.0000    -0.4991    20.7737    41.5368     1.9525    14.4503    14.4502     1.7032     0.0000     1.0000     0.0380     0.000
    184     0.6665     0.6666     1.1649     0.0001     30.000    973.000 225408.000     32.668    41.5367    87.4172   -43.5301    -1.9995     0.0009    26.0000     4.0000     9.0000    22.0000    26.0000    10.0000     5.0000    20.0000     3.0006     1.0000    -0.4991    20.7737    41.5368     1.9584    14.4503    14.4502     1.7032     0.0000     1.0000     0.0382     0.000
    185     0.6666     0.6666     1.1700     0.0001     30.000    944.000 225003.000     32.609    41.5367    87.4587   -43.6715    -1.9995     0.0009    26.0000     4.0000     9.0000    22.0000    26.0000    10.0000     5.0000    20.0000     3.0006     1.0000    -0.4991    20.7737    41.5368     1.9645    14.4503    14.4502     1.7032     0.0000     1.0000     0.0382     0.000
    186     0.6666     0.6666     1.1750     0.0000     30.000    980.000 225064.000     32.618    41.5367    87.5005   -43.8110    -1.9995     0.0009    26.0000     4.0000     9.0000    22.0000    26.0000    10.0000     5.0000    20.0000     3.0006     1.0000    -0.4991    20.7738    41.5368     1.9704    14.4503    14.4502     1.7032     0.0000     1.0000     0.0381     0.000
    187     0.6666     0.6666     1.1801     0.0001     30.000    999.000 225953.000     32.747    41.5367    87.5405   -43.9518    -1.9995     0.0009    26.0000     4.0000     9.0000    22.0000    26.0000    10.0000     5.0000    20.0000     3.0006     1.0000    -0.4991    20.7737    41.5368     1.9764    14.4503    14.4502     1.7032     0.0000     1.0000     0.0381     0.000
    188     0.6666     0.6666     1.1851     0.0001     30.000    959.000 225695.000     32.709    41.5367    87.5806   -44.0929    -1.9995     0.0009    26.0000     4.0000     9.0000    22.0000    26.0000    10.0000     5.0000    20.0000     3.0006     1.0000    -0.4990    20.7737    41.5368     1.9825    14.4503    14.4502     1.7032     0.0000     1.0000     0.0381     0.000
    189     0.6666     0.6666     1.1901     0.0001     30.000   1016.000 225611.000     32.697    41.5367    87.6186   -44.2324    -1.9995     0.0009    26.0000     4.0000     9.0000    22.0000    26.0000    10.0000     5.0000    20.0000     3.0006     1.0000    -0.4991    20.7738    41.5368     1.9884    14.4503    14.4502     1.7032     0.0000     1.0000     0.0381     0.000
    190     0.6666     0.6666     1.1950     0.0001     30.000    935.000 224495.000     32.536    41.5367    87.6572   -44.3712    -1.9995     0.0009    26.0000     4.0000     9.0000    22.0000    26.0000    10.0000     5.0000    20.0000     3.0006     1.0000    -0.4991    20.7737    41.5368     1.9944    14.4503    14.4502     1.7031     0.0000     1.0000     0.0381     0.000
    191     0.6666     0.6666     1.2000     0.0000     30.000    969.000 225496.000     32.681    41.5367    87.6940   -44.5111    -1.9995     0.0009    26.0000     4.0000     9.0000    22.0000    26.0000    10.0000     5.0000    20.0000     3.0006     1.0000    -0.4990    20.7737    41.5368     2.0003    14.4503    14.4502     1.7031     0.0000     1.0000     0.0380     0.000
    192     0.6666     0.6666     1.2050     0.0001     30.000   1009.000 225967.000     32.749    41.5367    87.7310   -44.6514    -1.9995     0.0009    26.0000     4.0000     9.0000    22.0000    26.0000    10.0000     5.0000    20.0000     3.0006     1.0000    -0.4991    20.7737    41.5368     2.0063    14.4503    14.4502     1.7030     0.0000     1.0000     0.0380     0.000
    193     0.6665     0.6666     1.2100     0.0001     30.000   1005.000 224813.000     32.582    41.5367    87.7669   -44.7913    -1.9995     0.0009    26.0000     4.0000     9.0000    22.0000    26.0000    10.0000     5.0000    20.0000     3.0006     1.0000    -0.4992    20.7738    41.5368     2.0123    14.4503    14.4502     1.7030     0.0000     1.0000     0.0379     0.000
    194     0.6666     0.6666     1.2150     0.0001     30.000    970.000 225373.000     32.663    41.5367    87.8019   -44.9345    -1.9995     0.0009    26.0000     4.0000     9.0000    22.0000    26.0000    10.0000     5.0000    20.0000     3.0006     1.0000    -0.4991    20.7737    41.5368     2.0184    14.4503    14.4502     1.7030     0.0000     1.0000     0.0379     0.000
    195     0.6666     0.6666     1.2200     0.0001     30.000    998.000 225951.000     32.747    41.5367    87.8362   -45.0756    -1.9995     0.0009    26.0000     4.0000     9.0000    22.0000    26.0000    10.0000     5.0000    20.0000     3.0006     1.0000    -0.4991    20.7737    41.5368     2.0244    14.4503    14.4502     1.7031     0.0000     1.0000     0.0382     0.000
    196     0.6666     0.6666     1.2250     0.0001     30.000    950.000 225462.000     32.676    41.5367    87.8693   -45.2163    -1.9995     0.0009    26.0000     4.0000     9.0000    22.0000    26.0000    10.0000     5.0000    20.0000     3.0006     1.0000    -0.4991    20.7737    41.5368     2.0304    14.4503    14.4502     1.7031     0.0000     1.0000     0.0382     0.000
    197     0.6665     0.6666     1.2300     0.0001     30.000    910.000 224651.000     32.558    41.5367    87.9029   -45.3593    -1.9995     0.0009    26.0000     4.0000     9.0000    22.0000    26.0000    10.0000     5.0000    20.0000     3.0006     1.0000    -0.4990    20.7738    41.5368     2.0364    14.4503    14.4502     1.7031     0.0000     1.0000     0.0381     0.000
    198     0.6666     0.6666     1.2351     0.0001     30.000    952.000 225079.000     32.620    41.5367    87.9343   -45.5023    -1.9995     0.0009    26.0000     4.0000     9.0000    22.0000    26.0000    10.0000     5.0000    20.0000     3.0006     1.0000    -0.4991    20.7737    41.5368     2.0425    14.4503    14.4502     1.7031     0.0000     1.0000     0.0381     0.000
    199     0.6665     0.6666     1.2400     0.0001     30.000    994.000 226368.000     32.807    41.5367    87.9664   -45.6442    -1.9995     0.0009    26.0000     4.0000     9.0000    22.0000    26.0000    10.0000     5.0000    20.0000     3.0006     1.0000    -0.4991    20.7738    41.5368     2.0486    14.4503    14.4502     1.7031     0.0000     1.0000     0.0380     0.000
    200     0.6666     0.6666     1.2452     0.0001     30.000    975.000 225775.000     32.721    41.5367    87.9969   -45.7900    -1.9995     0.0009    26.0000     4.0000     9.0000    22.0000    26.0000    10.0000     5.0000    20.0000     3.0006     1.0000    -0.4990    20.7737    41.5368     2.0547    14.4503    14.4502     1.7031     0.0000     1.0000     0.0380     0.000
    201     0.6665     0.6666     1.2501     0.0001     30.000    952.000 225959.000     32.748    41.5367    88.0269   -45.9306    -1.9995     0.0009    26.0000     4.0000     9.0000    22.0000    26.0000    10.0000     5.0000    20.0000     3.0006     1.0000    -0.4990    20.7738    41.5368     2.0607    14.4503    14.4502     1.7031     0.0000     1.0000     0.0382     0.000
    202     0.6665     0.6666     1.2550     0.0001     30.000    963.000 225419.000     32.669    41.5367    88.0556   -46.0722    -1.9995     0.0009    26.0000     4.0000     9.0000    22.0000    26.0000    10.0000     5.0000    20.0000     3.0006     1.0000    -0.4991    20.7738    41.5368     2.0667    14.4503    14.4502     1.7030     0.0000     1.0000     0.0382     0.000
    203     0.6666     0.6666     1.2600     0.0001     30.000    934.000 224806.000     32.581    41.5367    88.0836   -46.2135    -1.9995     0.0009    26.0000     4.0000     9.0000    22.0000    26.0000    10.0000     5.0000    20.0000     3.0006     1.0000    -0.4991    20.7737    41.5368     2.0727    14.4503    14.4502     1.7030     0.0000     1.0000     0.0382     0.000
    204     0.6665     0.6665     1.2649     0.0001     30.000    978.000 224591.000     32.549    41.5367    88.1122   -46.3558    -1.9995     0.0009    26.0000     4.0000     9.0000    22.0000    26.0000    10.0000     5.0000    20.0000     3.0006     1.0000    -0.4991    20.7737    41.5368     2.0787    14.4503    14.4502     1.7030     0.0000     1.0000     0.0381     0.000
    205     0.6665     0.6666     1.2700     0.0001     30.000    995.000 226085.000     32.766    41.5367    88.1387   -46.5007    -1.9995     0.0009    26.0000     4.0000     9.0000    22.0000    26.0000    10.0000     5.0000    20.0000     3.0006     1.0000    -0.4991    20.7737    41.5368     2.0849    14.4503    14.4502     1.7029     0.0000     1.0000     0.0381     0.000
    206     0.6665     0.6666     1.2750     0.0001     30.000    948.000 226011.000     32.755    41.5367    88.1657   -46.6470    -1.9995     0.0009    26.0000     4.0000     9.0000    22.0000    26.0000    10.0000     5.0000    20.0000     3.0006     1.0000    -0.4991    20.7737    41.5368     2.0911    14.4503    14.4502     1.7029     0.0000     1.0000     0.0381     0.000
    207     0.6665     0.6665     1.2800     0.0001     30.000    983.000 225427.000     32.671    41.5367    88.1914   -46.7888    -1.9995     0.0009    26.0000     4.0000     9.0000    22.0000    26.0000    10.0000     5.0000    20.0000     3.0006     1.0000    -0.4990    20.7737    41.5368     2.0971    14.4503    14.4502     1.7029     0.0000     1.0000     0.0381     0.000
    208     0.6665     0.6666     1.2850     0.0001     30.000   1007.000 225626.000     32.699    41.5367    88.2165   -46.9358    -1.9995     0.0009    26.0000     4.0000     9.0000    22.0000    26.0000    10.0000     5.0000    20.0000     3.0006     1.0000    -0.4991    20.7738    41.5368     2.1033    14.4503    14.4502     1.7029     0.0000     1.0000     0.0381     0.000
    209     0.6665     0.6666     1.2901     0.0001     30.000    959.000 225241.000     32.644    41.5367    88.2406   -47.0809    -1.9995     0.0009    26.0000     4.0000     9.0000    22.0000    26.0000    10.0000     5.0000    20.0000     3.0006     1.0000    -0.4989    20.7737    41.5368     2.1094    14.4503    14.4502     1.7029     0.0000     1.0000     0.0381     0.000
    210     0.6666     0.6666     1.2951     0.0001     30.000    975.000 225115.000     32.625    41.5367    88.2642   -47.2274    -1.9995     0.0009    26.0000     4.0000     9.0000    22.0000    26.0000    10.0000     5.0000    20.0000     3.0006     1.0000    -0.4991    20.7737    41.5368     2.1156    14.4503    14.4502     1.7028     0.0000     1.0000     0.0382     0.000
    211     0.6666     0.6666     1.3000     0.0001     30.000    962.000 225715.000     32.712    41.5367    88.2872   -47.3706    -1.9995     0.0009    26.0000     4.0000     9.0000    22.0000    26.0000    10.0000     5.0000    20.0000     3.0006     1.0000    -0.4991    20.7737    41.5368     2.1217    14.4503    14.4502     1.7027     0.0000     1.0000     0.0382     0.000
    212     0.6666     0.6666     1.3051     0.0001     30.000    976.000 226364.000     32.806    41.5367    88.3093   -47.5169    -1.9995     0.0009    26.0000     4.0000     9.0000    22.0000    26.0000    10.0000     5.0000    20.0000     3.0006     1.0000    -0.4991    20.7738    41.5368     2.1278    14.4503    14.4502     1.7027     0.0000     1.0000     0.0381     0.000
    213     0.6665     0.6666     1.3100     0.0001     30.000    904.000 225124.000     32.627    41.5367    88.3314   -47.6607    -1.9995     0.0009    26.0000     4.0000     9.0000    22.0000    26.0000    10.0000     5.0000    20.0000     3.0006     1.0000    -0.4990    20.7737    41.5368     2.1339    14.4503    14.4502     1.7027     0.0000     1.0000     0.0382     0.000
    214     0.6665     0.6666     1.3149     0.0001     30.000    978.000 225376.000     32.663    41.5367    88.3522   -47.8036    -1.9995     0.0009    26.0000     4.0000     9.0000    22.0000    26.0000    10.0000     5.0000    20.0000     3.0006     1.0000    -0.4990    20.7737    41.5368     2.1399    14.4503    14.4502     1.7027     0.0000     1.0000     0.0382     0.000
    215     0.6665     0.6666     1.3200     0.0001     30.000    976.000 224809.000     32.581    41.5367    88.3726   -47.9506    -1.9995     0.0009    26.0000     4.0000     9.0000    22.0000    26.0000    10.0000     5.0000    20.0000     3.0006     1.0000    -0.4990    20.7737    41.5368     2.1461    14.4503    14.4502     1.7027     0.0000     1.0000     0.0382     0.000
    216     0.6665     0.6666     1.3249     0.0001     30.000    952.000 224684.000     32.563    41.5367    88.3925   -48.0959    -1.9995     0.0009    26.0000     4.0000     9.0000    22.0000    26.0000    10.0000     5.0000    20.0000     3.0006     1.0000    -0.4991    20.7738    41.5368     2.1522    14.4503    14.4502     1.7027     0.0000     1.0000     0.0382     0.000
    217     0.6665     0.6666     1.3301     0.0000     30.000    980.000 224642.000     32.557    41.5367    88.4121   -48.2456    -1.9995     0.0009    26.0000     4.0000     9.0000    22.0000    26.0000    10.0000     5.0000    20.0000     3.0006     1.0000    -0.4990    20.7738    41.5368     2.1585    14.4503    14.4502     1.7027     0.0000     1.0000     0.0382     0.000
    218     0.6665     0.6665     1.3350     0.0001     30.000    988.000 224917.000     32.597    41.5367    88.4312   -48.3901    -1.9995     0.0009    26.0000     4.0000     9.0000    22.0000    26.0000    10.0000     5.0000    20.0000     3.0006     1.0000    -0.4990    20.7738    41.5368     2.1646    14.4503    14.4502     1.7026     0.0000     1.0000     0.0382     0.000
    219     0.6665     0.6665     1.3401     0.0001     30.000    956.000 224990.000     32.607    41.5367    88.4526   -48.5393    -1.9995     0.0009    26.0000     4.0000     9.0000    22.0000    26.0000    10.0000     5.0000    20.0000     3.0006     1.0000    -0.4991    20.7738    41.5368     2.1709    14.4503    14.4502     1.7026     0.0000     1.0000     0.0382     0.000
    220     0.6665     0.6665     1.3451     0.0001     30.000    962.000 225244.000     32.644    41.5367    88.4672   -48.6865    -1.9995     0.0009    26.0000     4.0000     9.0000    22.0000    26.0000    10.0000     5.0000    20.0000     3.0006     1.0000    -0.4990    20.7738    41.5368     2.1771    14.4503    14.4502     1.7026     0.0000     1.0000     0.0382     0.000
    221     0.6665     0.6665     1.3501     0.0001     30.000    955.000 225111.000     32.625    41.5367    88.4831   -48.8354    -1.9995     0.0009    26.0000     4.0000     9.0000    22.0000    26.0000    10.0000     5.0000    20.0000     3.0006     1.0000    -0.4991    20.7737    41.5368     2.1833    14.4503    14.4502     1.7026     0.0000     1.0000     0.0382     0.000
    222     0.6665     0.6666     1.3551     0.0001     30.000    905.000 224272.000     32.503    41.5367    88.4988   -48.9828    -1.9995     0.0009    26.0000     4.0000     9.0000    22.0000    26.0000    10.0000     5.0000    20.0000     3.0006     1.0000    -0.4991    20.7737    41.5368     2.1895    14.4503    14.4502     1.7026     0.0000     1.0000     0.0382     0.000
    223     0.6666     0.6666     1.3601     0.0001     30.000    915.000 225476.000     32.678    41.5367    88.5131   -49.1295    -1.9995     0.0009    26.0000     4.0000     9.0000    22.0000    26.0000    10.0000     5.0000    20.0000     3.0006     1.0000    -0.4990    20.7737    41.5368     2.1956    14.4503    14.4502     1.7025     0.0000     1.0000     0.0383     0.000
    224     0.6665     0.6665     1.3650     0.0001     30.000    958.000 225416.000     32.669    41.5367    88.5295   -49.2750    -1.9995     0.0009    26.0000     4.0000     9.0000    22.0000    26.0000    10.0000     5.0000    20.0000     3.0006     1.0000    -0.4991    20.7737    41.5368     2.2017    14.4503    14.4502     1.7025     0.0000     1.0000     0.0381     0.000
    225     0.6666     0.6666     1.3700     0.0001     30.000    945.000 224917.000     32.597    41.5367    88.5420   -49.4241    -1.9995     0.0009    26.0000     4.0000     9.0000    22.0000    26.0000    10.0000     5.0000    20.0000     3.0006     1.0000    -0.4990    20.7737    41.5368     2.2080    14.4503    14.4502     1.7025     0.0000     1.0000     0.0381     0.000
    226     0.6665     0.6665     1.3750     0.0001     30.000    913.000 225122.000     32.626    41.5367    88.5566   -49.5710    -1.9995     0.0009    26.0000     4.0000     9.0000    22.0000    26.0000    10.0000     5.0000    20.0000     3.0006     1.0000    -0.4989    20.7738    41.5368     2.2141    14.4503    14.4502     1.7025     0.0000     1.0000     0.0383     0.000
    227     0.6665     0.6666     1.3800     0.0001     30.000   1004.000 224854.000     32.588    41.5367    88.5687   -49.7187    -1.9995     0.0009    26.0000     4.0000     9.0000    22.0000    26.0000    10.0000     5.0000    20.0000     3.0006     1.0000    -0.4990    20.7737    41.5368     2.2203    14.4503    14.4502     1.7025     0.0000     1.0000     0.0383     0.000
    228     0.6665     0.6665     1.3851     0.0000     30.000    970.000 224604.000     32.551    41.5367    88.5833   -49.8696    -1.9995     0.0009    26.0000     4.0000     9.0000    22.0000    26.0000    10.0000     5.0000    20.0000     3.0006     1.0000    -0.4991    20.7737    41.5368     2.2266    14.4503    14.4502     1.7024     0.0000     1.0000     0.0381     0.000
    229     0.6665     0.6666     1.3900     0.0001     30.000    986.000 224990.000     32.607    41.5367    88.5930   -50.0164    -1.9995     0.0009    26.0000     4.0000     9.0000    22.0000    26.0000    10.0000     5.0000    20.0000     3.0006     1.0000    -0.4991    20.7737    41.5368     2.2328    14.4503    14.4502     1.7024     0.0000     1.0000     0.0381     0.000
    230     0.6665     0.6666     1.3950     0.0001     30.000    916.000 224886.000     32.592    41.5367    88.6048   -50.1667    -1.9995     0.0009    26.0000     4.0000     9.0000    22.0000    26.0000    10.0000     5.0000    20.0000     3.0007     1.0000    -0.4990    20.7737    41.5368     2.2390    14.4503    14.4502     1.7023     0.0000     1.0000     0.0382     0.000
    231     0.6665     0.6665     1.4000     0.0000     30.000    927.000 225420.000     32.670    41.5367    88.6160   -50.3172    -1.9995     0.0009    26.0000     4.0000     9.0000    22.0000    26.0000    10.0000     5.0000    20.0000     3.0006     1.0000    -0.4989    20.7737    41.5368     2.2453    14.4503    14.4502     1.7024     0.0000     1.0000     0.0382     0.000
    232     0.6666     0.6666     1.4051     0.0001     30.000    956.000 225860.000     32.733    41.5367    88.6249   -50.4687    -1.9995     0.0009    26.0000     4.0000     9.0000    22.0000    26.0000    10.0000     5.0000    20.0000     3.0006     1.0000    -0.4990    20.7738    41.5368     2.2516    14.4503    14.4502     1.7024     0.0000     1.0000     0.0382     0.000
    233     0.6665     0.6665     1.4101     0.0001     30.000    948.000 225372.000     32.663    41.5367    88.6369   -50.6187    -1.9995     0.0009    26.0000     4.0000     9.0000    22.0000    26.0000    10.0000     5.0000    20.0000     3.0006     1.0000    -0.4990    20.7738    41.5368     2.2579    14.4503    14.4502     1.7024     0.0000     1.0000     0.0381     0.000
    234     0.6665     0.6665     1.4151     0.0001     30.000    962.000 224980.000     32.606    41.5367    88.6467   -50.7688    -1.9995     0.0009    26.0000     4.0000     9.0000    22.0000    26.0000    10.0000     5.0000    20.0000     3.0006     1.0000    -0.4990    20.7737    41.5368     2.2641    14.4503    14.4502     1.7024     0.0000     1.0000     0.0381     0.000
    235     0.6664     0.6664     1.4201     0.0000     30.000    999.000 225064.000     32.618    41.5367    88.6574   -50.9171    -1.9995     0.0009    26.0000     4.0000     9.0000    22.0000    26.0000    10.0000     5.0000    20.0000     3.0006     1.0000    -0.4990    20.7738    41.5367     2.2703    14.4503    14.4503     1.7024     0.0000     1.0000     0.0383     0.000
    236     0.6665     0.6665     1.4251     0.0001     30.000   1010.000 225493.000     32.680    41.5367    88.6633   -51.0666    -1.9995     0.0009    26.0000     4.0000     9.0000    22.0000    26.0000    10.0000     5.0000    20.0000     3.0006     1.0000    -0.4989    20.7737    41.5368     2.2765    14.4503    14.4502     1.7024     0.0000     1.0000     0.0383     0.000
    237     0.6664     0.6664     1.4300     0.0000     30.000    977.000 225015.000     32.611    41.5367    88.6736   -51.2152    -1.9995     0.0009    26.0000     4.0000     9.0000    22.0000    26.0000    10.0000     5.0000    20.0000     3.0006     1.0000    -0.4990    20.7737    41.5368     2.2827    14.4503    14.4502     1.7023     0.0000     1.0000     0.0382     0.000
    238     0.6665     0.6666     1.4351     0.0000     30.000    978.000 224512.000     32.538    41.5367    88.6742   -51.3700    -1.9995     0.0009    26.0000     4.0000     9.0000    22.0000    26.0000    10.0000     5.0000    20.0000     3.0006     1.0000    -0.4990    20.7737    41.5367     2.2891    14.4503    14.4503     1.7023     0.0000     1.0000     0.0382     0.000
    239     0.6666     0.6666     1.4400     0.0000     30.000    926.000 225206.000     32.639    41.5367    88.6774   -51.5186    -1.9995     0.0009    26.0000     4.0000     9.0000    22.0000    26.0000    10.0000     5.0000    20.0000     3.0006     1.0000    -0.4990    20.7738    41.5368     2.2953    14.4503    14.4502     1.7023     0.0000     1.0000     0.0381     0.000
    240     0.6666     0.6666     1.4450     0.0000     30.000   1008.000 225497.000     32.681    41.5367    88.6829   -51.6701    -1.9995     0.0009    26.0000     4.0000     9.0000    22.0000    26.0000    10.0000     5.0000    20.0000     3.0007     1.0000    -0.4989    20.7738    41.5368     2.3016    14.4503    14.4502     1.7022     0.0000     1.0000     0.0381     0.000
    241     0.6667     0.6667     1.4499     0.0000     30.000    992.000 225115.000     32.625    41.5367    88.6839   -51.8215    -1.9995     0.0009    26.0000     4.0000     9.0000    22.0000    26.0000    10.0000     5.0000    20.0000     3.0006     1.0000    -0.4992    20.7738    41.5367     2.3079    14.4503    14.4503     1.7022     0.0000     1.0000     0.0381     0.000
    242     0.6666     0.6666     1.4550     0.0000     30.000    965.000 224975.000     32.605    41.5367    88.6919   -51.9729    -1.9995     0.0009    26.0000     4.0000     9.0000    22.0000    26.0000    10.0000     5.0000    20.0000     3.0007     1.0000    -0.4989    20.7738    41.5367     2.3141    14.4503    14.4503     1.7021     0.0000     1.0000     0.0381     0.000
    243     0.6666     0.6666     1.4600     0.0000     30.000    999.000 225410.000     32.668    41.5367    88.6953   -52.1272    -1.9995     0.0009    26.0000     4.0000     9.0000    22.0000    26.0000    10.0000     5.0000    20.0000     3.0006     1.0000    -0.4991    20.7737    41.5367     2.3205    14.4503    14.4503     1.7021     0.0000     1.0000     0.0381     0.000
    244     0.6666     0.6666     1.4650     0.0000     30.000    982.000 225524.000     32.685    41.5367    88.6989   -52.2792    -1.9995     0.0009    26.0000     4.0000     9.0000    22.0000    26.0000    10.0000     5.0000    20.0000     3.0007     1.0000    -0.4989    20.7737    41.5368     2.3268    14.4503    14.4502     1.7021     0.0000     1.0000     0.0382     0.000
    245     0.6666     0.6666     1.4701     0.0000     30.000    998.000 225174.000     32.634    41.5367    88.7044   -52.4319    -1.9995     0.0009    26.0000     4.0000     9.0000    22.0000    26.0000    10.0000     5.0000    20.0000     3.0006     1.0000    -0.4990    20.7737    41.5368     2.3331    14.4503    14.4502     1.7021     0.0000     1.0000     0.0382     0.000
    246     0.6665     0.6665     1.4751     0.0000     30.000   1086.000 224909.000     32.596    41.5367    88.7091   -52.5828    -1.9995     0.0009    26.0000     4.0000     9.0000    22.0000    26.0000    10.0000     5.0000    20.0000     3.0006     1.0000    -0.4989    20.7737    41.5367     2.3394    14.4503    14.4503     1.7020     0.0000     1.0000     0.0380     0.000
    247     0.6666     0.6666     1.4800     0.0000     30.000   1149.000 225399.000     32.667    41.5367    88.7074   -52.7353    -1.9995     0.0009    26.0000     4.0000     9.0000    22.0000    26.0000    10.0000     5.0000    20.0000     3.0007     1.0000    -0.4988    20.7738    41.5367     2.3457    14.4503    14.4503     1.7020     0.0000     1.0000     0.0380     0.000
    248     0.6666     0.6666     1.4849     0.0000     30.000   1453.000 225360.000     32.661    41.5367    88.7101   -52.8853    -1.9995     0.0009    26.0000     4.0000     9.0000    22.0000    26.0000    10.0000     5.0000    20.0000     3.0007     1.0000    -0.4992    20.7738    41.5367     2.3519    14.4503    14.4503     1.7020     0.0000     1.0000     0.0382     0.000
    249     0.6666     0.6666     1.4899     0.0000     30.000   1997.000 226047.000     32.760    41.5367    88.7107   -53.0382    -1.9995     0.0009    26.0000     4.0000     9.0000    22.0000    26.0000    10.0000     5.0000    20.0000     3.0006     1.0000    -0.4990    20.7737    41.5367     2.3582    14.4503    14.4503     1.7020     0.0000     1.0000     0.0382     0.000
    250     0.6666     0.6666     1.4950     0.0000     30.000   2909.000 225261.000     32.647    41.5367    88.7107   -53.1941    -1.9995     0.0009    26.0000     4.0000     9.0000    22.0000    26.0000    10.0000     5.0000    20.0000     3.0006     1.0000    -0.4992    20.7738    41.5367     2.3646    14.4503    14.4503     1.7019     0.0000     1.0000     0.0381     0.000
    251     0.6665     0.6666     1.5000     0.0000     30.000   3437.000 225972.000     32.750    41.5367    88.7116   -53.3465    -1.9995     0.0009    26.0000     4.0000     9.0000    22.0000    26.0000    10.0000     5.0000    20.0000     3.0006     1.0000    -0.4991    20.7738    41.5367     2.3709    14.4503    14.4503     1.7019     0.0000     1.0000     0.0381     0.000
    252     0.6665     0.6665     1.5050     0.0000     30.000   3217.000 224950.000     32.601    41.5367    88.7115   -53.5016    -1.9995     0.0009    26.0000     4.0000     9.0000    22.0000    26.0000    10.0000     5.0000    20.0000     3.0006     1.0000    -0.4990    20.7738    41.5367     2.3773    14.4503    14.4503     1.7019     0.0000     1.0000     0.0381     0.000
    253     0.6666     0.6666     1.5100     0.0000     30.000   2653.000 224875.000     32.591    41.5367    88.7077   -53.6569    -1.9995     0.0009    26.0000     4.0000     9.0000    22.0000    26.0000    10.0000     5.0000    20.0000     3.0006     1.0000    -0.4992    20.7738    41.5367     2.3837    14.4503    14.4503     1.7020     0.0000     1.0000     0.0381     0.000
    254     0.6666     0.6666     1.5150     0.0000     30.000   1944.000 225463.000     32.676    41.5367    88.7061   -53.8100    -1.9995     0.0009    26.0000     4.0000     9.0000    22.0000    26.0000    10.0000     5.0000    20.0000     3.0006     1.0000    -0.4991    20.7738    41.5367     2.3900    14.4503    14.4503     1.7019     0.0000     1.0000     0.0381     0.000
    255     0.6665     0.6666     1.5201     0.0000     30.000   1492.000 224741.000     32.571    41.5367    88.7056   -53.9661    -1.9995     0.0009    26.0000     4.0000     9.0000    22.0000    26.0000    10.0000     5.0000    20.0000     3.0006     1.0000    -0.4991    20.7738    41.5367     2.3964    14.4503    14.4503     1.7018     0.0000     1.0000     0.0381     0.000
    256     0.6665     0.6665     1.5251     0.0000     30.000   1233.000 225703.000     32.711    41.5367    88.7052   -54.1207    -1.9995     0.0009    26.0000     4.0000     9.0000    22.0000    26.0000    10.0000     5.0000    20.0000     3.0006     1.0000    -0.4991    20.7738    41.5367     2.4027    14.4503    14.4503     1.7019     0.0000     1.0000     0.0381     0.000
    257     0.6664     0.6664     1.5301     0.0000     30.000   1253.000 225015.000     32.611    41.5367    88.7050   -54.2724    -1.9995     0.0009    26.0000     4.0000     9.0000    22.0000    26.0000    10.0000     5.0000    20.0000     3.0006     1.0000    -0.4990    20.7738    41.5367     2.4089    14.4503    14.4503     1.7019     0.0000     1.0000     0.0380     0.000
    258     0.6665     0.6665     1.5349     0.0000     30.000   1215.000 225242.000     32.644    41.5367    88.6969   -54.4255    -1.9995     0.0009    26.0000     4.0000     9.0000    22.0000    26.0000    10.0000     5.0000    20.0000     3.0006     1.0000    -0.4990    20.7737    41.5367     2.4152    14.4503    14.4503     1.7019     0.0000     1.0000     0.0380     0.000
    259     0.6664     0.6664     1.5401     0.0000     30.000   1313.000 225249.000     32.645    41.5367    88.6967   -54.5825    -1.9995     0.0009    26.0000     4.0000     9.0000    22.0000    26.0000    10.0000     5.0000    20.0000     3.0006     1.0000    -0.4991    20.7737    41.5367     2.4217    14.4503    14.4503     1.7019     0.0000     1.0000     0.0381     0.000
    260     0.6666     0.6666     1.5450     0.0000     30.000   1273.000 225161.000     32.632    41.5367    88.6848   -54.7386    -1.9995     0.0009    26.0000     4.0000     9.0000    22.0000    26.0000    10.0000     5.0000    20.0000     3.0006     1.0000    -0.4990    20.7737    41.5368     2.4280    14.4503    14.4502     1.7018     0.0000     1.0000     0.0381     0.000
    261     0.6665     0.6665     1.5500     0.0000     30.000   1356.000 225907.000     32.740    41.5367    88.6847   -54.8931    -1.9995     0.0009    26.0000     4.0000     9.0000    22.0000    26.0000    10.0000     5.0000    20.0000     3.0006     1.0000    -0.4991    20.7737    41.5367     2.4344    14.4503    14.4503     1.7018     0.0000     1.0000     0.0380     0.000
    262     0.6666     0.6666     1.5550     0.0000     30.000   1382.000 225644.000     32.702    41.5367    88.6741   -55.0499    -1.9995     0.0009    26.0000     4.0000     9.0000    22.0000    26.0000    10.0000     5.0000    20.0000     3.0006     1.0000    -0.4991    20.7737    41.5367     2.4408    14.4503    14.4503     1.7019     0.0000     1.0000     0.0381     0.000
    263     0.6664     0.6664     1.5601     0.0000     30.000   1349.000 225678.000     32.707    41.5367    88.6740   -55.2075    -1.9995     0.0009    26.0000     4.0000     9.0000    22.0000    26.0000    10.0000     5.0000    20.0000     3.0006     1.0000    -0.4991    20.7737    41.5367     2.4472    14.4503    14.4503     1.7019     0.0000     1.0000     0.0381     0.000
    264     0.6666     0.6666     1.5651     0.0000     30.000   1305.000 225652.000     32.703    41.5367    88.6609   -55.3643    -1.9995     0.0009    26.0000     4.0000     9.0000    22.0000    26.0000    10.0000     5.0000    20.0000     3.0006     1.0000    -0.4991    20.7737    41.5368     2.4536    14.4503    14.4502     1.7019     0.0000     1.0000     0.0382     0.000
    265     0.6664     0.6664     1.5701     0.0000     30.000   1318.000 226042.000     32.760    41.5367    88.6608   -55.5206    -1.9995     0.0009    26.0000     4.0000     9.0000    22.0000    26.0000    10.0000     5.0000    20.0000     3.0006     1.0000    -0.4991    20.7737    41.5368     2.4600    14.4503    14.4502     1.7019     0.0000     1.0000     0.0382     0.000
    266     0.6666     0.6666     1.5750     0.0001     30.000   1364.000 225195.000     32.637    41.5367    88.6462   -55.6753    -1.9995     0.0009    26.0000     4.0000     9.0000    22.0000    26.0000    10.0000     5.0000    20.0000     3.0006     1.0000    -0.4991    20.7737    41.5368     2.4663    14.4503    14.4502     1.7018     0.0000     1.0000     0.0381     0.000
    267     0.6664     0.6664     1.5802     0.0000     30.000   1329.000 225634.000     32.701    41.5367    88.6462   -55.8358    -1.9995     0.0009    26.0000     4.0000     9.0000    22.0000    26.0000    10.0000     5.0000    20.0000     3.0006     1.0000    -0.4991    20.7737    41.5367     2.4728    14.4503    14.4503     1.7018     0.0000     1.0000     0.0381     0.000
    268     0.6666     0.6666     1.5849     0.0001     30.000   1353.000 225277.000     32.649    41.5367    88.6299   -55.9871    -1.9995     0.0009    26.0000     4.0000     9.0000    22.0000    26.0000    10.0000     5.0000    20.0000     3.0006     1.0000    -0.4991    20.7737    41.5368     2.4790    14.4503    14.4502     1.7017     0.0000     1.0000     0.0381     0.000
    269     0.6664     0.6664     1.5901     0.0001     30.000   1389.000 224893.000     32.593    41.5367    88.6298   -56.1445    -1.9995     0.0009    26.0000     4.0000     9.0000    22.0000    26.0000    10.0000     5.0000    20.0000     3.0006     1.0000    -0.4991    20.7737    41.5368     2.4854    14.4503    14.4502     1.7017     0.0000     1.0000     0.0381     0.000
    270     0.6666     0.6666     1.5949     0.0001     30.000   1397.000 226459.000     32.820    41.5367    88.6111   -56.3010    -1.9995     0.0009    26.0000     4.0000     9.0000    22.0000    26.0000    10.0000     5.0000    20.0000     3.0006     1.0000    -0.4990    20.7737    41.5368     2.4918    14.4503    14.4502     1.7017     0.0000     1.0000     0.0383     0.000
    271     0.6663     0.6664     1.6001     0.0000     30.000   1335.000 225624.000     32.699    41.5367    88.6110   -56.4595    -1.9995     0.0009    26.0000     4.0000     9.0000    22.0000    26.0000    10.0000     5.0000    20.0000     3.0006     1.0000    -0.4991    20.7737    41.5367     2.4982    14.4503    14.4503     1.7017     0.0000     1.0000     0.0383     0.000
    272     0.6666     0.6666     1.6049     0.0000     30.000   1311.000 225325.000     32.656    41.5367    88.5908   -56.6165    -1.9995     0.0009    26.0000     4.0000     9.0000    22.0000    26.0000    10.0000     5.0000    20.0000     3.0006     1.0000    -0.4991    20.7737    41.5367     2.5046    14.4503    14.4503     1.7017     0.0000     1.0000     0.0380     0.000
    273     0.6666     0.6666     1.6100     0.0000     30.000   1326.000 226361.000     32.806    41.5367    88.5801   -56.7761    -1.9995     0.0009    26.0000     4.0000     9.0000    22.0000    26.0000    10.0000     5.0000    20.0000     3.0006     1.0000    -0.4991    20.7738    41.5367     2.5111    14.4503    14.4503     1.7017     0.0000     1.0000     0.0381     0.000
    274     0.6666     0.6666     1.6151     0.0000     30.000   1351.000 224875.000     32.591    41.5367    88.5690   -56.9375    -1.9995     0.0009    26.0000     4.0000     9.0000    22.0000    26.0000    10.0000     5.0000    20.0000     3.0006     1.0000    -0.4991    20.7738    41.5367     2.5176    14.4503    14.4503     1.7017     0.0000     1.0000     0.0381     0.000
    275     0.6666     0.6666     1.6201     0.0000     30.000   1312.000 224514.000     32.538    41.5367    88.5566   -57.0962    -1.9995     0.0009    26.0000     4.0000     9.0000    22.0000    26.0000    10.0000     5.0000    20.0000     3.0006     1.0000    -0.4991    20.7738    41.5367     2.5240    14.4503    14.4503     1.7017     0.0000     1.0000     0.0381     0.000
    276     0.6666     0.6666     1.6251     0.0000     30.000   1249.000 226097.000     32.768    41.5367    88.5451   -57.2562    -1.9995     0.0009    26.0000     4.0000     9.0000    22.0000    26.0000    10.0000     5.0000    20.0000     3.0006     1.0000    -0.4991    20.7738    41.5367     2.5305    14.4503    14.4503     1.7017     0.0000     1.0000     0.0381     0.000
    277     0.6666     0.6666     1.6301     0.0000     30.000   1311.000 226210.000     32.784    41.5367    88.5323   -57.4136    -1.9995     0.0009    26.0000     4.0000     9.0000    22.0000    26.0000    10.0000     5.0000    20.0000     3.0006     1.0000    -0.4991    20.7738    41.5367     2.5369    14.4503    14.4503     1.7017     0.0000     1.0000     0.0383     0.000
    278     0.6666     0.6666     1.6350     0.0000     30.000   1197.000 224994.000     32.608    41.5367    88.5191   -57.5714    -1.9995     0.0009    26.0000     4.0000     9.0000    22.0000    26.0000    10.0000     5.0000    20.0000     3.0006     1.0000    -0.4992    20.7738    41.5367     2.5432    14.4503    14.4503     1.7017     0.0000     1.0000     0.0383     0.000
    279     0.6666     0.6666     1.6400     0.0000     30.000   1207.000 225619.000     32.698    41.5367    88.5056   -57.7311    -1.9995     0.0009    26.0000     4.0000     9.0000    22.0000    26.0000    10.0000     5.0000    20.0000     3.0006     1.0000    -0.4991    20.7738    41.5368     2.5497    14.4503    14.4502     1.7016     0.0000     1.0000     0.0380     0.000
    280     0.6666     0.6666     1.6450     0.0000     30.000   1182.000 224799.000     32.580    41.5367    88.4920   -57.8886    -1.9995     0.0009    26.0000     4.0000     9.0000    22.0000    26.0000    10.0000     5.0000    20.0000     3.0006     1.0000    -0.4991    20.7738    41.5367     2.5560    14.4503    14.4503     1.7016     0.0000     1.0000     0.0380     0.000
    281     0.6666     0.6666     1.6500     0.0000     30.000   1278.000 225155.000     32.631    41.5367    88.4773   -58.0488    -1.9995     0.0009    26.0000     4.0000     9.0000    22.0000    26.0000    10.0000     5.0000    20.0000     3.0006     1.0000    -0.4991    20.7738    41.5367     2.5625    14.4503    14.4503     1.7016     0.0000     1.0000     0.0382     0.000
    282     0.6666     0.6666     1.6550     0.0000     30.000   1243.000 225961.000     32.748    41.5367    88.4632   -58.2092    -1.9995     0.0009    26.0000     4.0000     9.0000    22.0000    26.0000    10.0000     5.0000    20.0000     3.0006     1.0000    -0.4991    20.7737    41.5367     2.5690    14.4503    14.4503     1.7016     0.0000     1.0000     0.0382     0.000
    283     0.6666     0.6666     1.6600     0.0000     30.000   1189.000 225092.000     32.622    41.5367    88.4471   -58.3679    -1.9995     0.0009    26.0000     4.0000     9.0000    22.0000    26.0000    10.0000     5.0000    20.0000     3.0006     1.0000    -0.4991    20.7737    41.5367     2.5754    14.4503    14.4503     1.7016     0.0000     1.0000     0.0381     0.000
    284     0.6666     0.6666     1.6650     0.0000     30.000   1202.000 224857.000     32.588    41.5367    88.4320   -58.5281    -1.9995     0.0009    26.0000     4.0000     9.0000    22.0000    26.0000    10.0000     5.0000    20.0000     3.0006     1.0000    -0.4991    20.7738    41.5367     2.5818    14.4503    14.4503     1.7016     0.0000     1.0000     0.0380     0.000
    285     0.6666     0.6666     1.6701     0.0000     30.000   1126.000 225174.000     32.634    41.5367    88.4156   -58.6921    -1.9995     0.0009    26.0000     4.0000     9.0000    22.0000    26.0000    10.0000     5.0000    20.0000     3.0006     1.0000    -0.4992    20.7737    41.5368     2.5884    14.4503    14.4502     1.7016     0.0000     1.0000     0.0380     0.000
    286     0.6666     0.6666     1.6750     0.0000     30.000   1128.000 225172.000     32.634    41.5367    88.3997   -58.8510    -1.9995     0.0009    26.0000     4.0000     9.0000    22.0000    26.0000    10.0000     5.0000    20.0000     3.0006     1.0000    -0.4991    20.7738    41.5367     2.5948    14.4503    14.4503     1.7016     0.0000     1.0000     0.0380     0.000
    287     0.6665     0.6666     1.6801     0.0000     30.000   1143.000 225524.000     32.685    41.5367    88.3842   -59.0125    -1.9995     0.0009    26.0000     4.0000     9.0000    22.0000    26.0000    10.0000     5.0000    20.0000     3.0006     1.0000    -0.4992    20.7737    41.5367     2.6013    14.4503    14.4503     1.7017     0.0000     1.0000     0.0380     0.000
    288     0.6665     0.6665     1.6850     0.0001     30.000   1119.000 226225.000     32.786    41.5367    88.3678   -59.1713    -1.9995     0.0009    26.0000     4.0000     9.0000    22.0000    26.0000    10.0000     5.0000    20.0000     3.0006     1.0000    -0.4991    20.7737    41.5368     2.6076    14.4503    14.4502     1.7016     0.0000     1.0000     0.0382     0.000
    289     0.6665     0.6666     1.6899     0.0001     30.000   1145.000 225541.000     32.687    41.5367    88.3494   -59.3313    -1.9995     0.0009    26.0000     4.0000     9.0000    22.0000    26.0000    10.0000     5.0000    20.0000     3.0006     1.0000    -0.4991    20.7737    41.5368     2.6140    14.4503    14.4502     1.7015     0.0000     1.0000     0.0382     0.000
    290     0.6665     0.6665     1.6951     0.0001     30.000   1195.000 225334.000     32.657    41.5367    88.3335   -59.4956    -1.9995     0.0009    26.0000     4.0000     9.0000    22.0000    26.0000    10.0000     5.0000    20.0000     3.0006     1.0000    -0.4991    20.7738    41.5368     2.6206    14.4503    14.4502     1.7016     0.0000     1.0000     0.0380     0.000
    291     0.6665     0.6665     1.7000     0.0000     30.000   1179.000 226469.000     32.822    41.5367    88.3133   -59.6557    -1.9995     0.0009    26.0000     4.0000     9.0000    22.0000    26.0000    10.0000     5.0000    20.0000     3.0006     1.0000    -0.4992    20.7738    41.5367     2.6270    14.4503    14.4503     1.7015     0.0000     1.0000     0.0380     0.000
    292     0.6665     0.6666     1.7050     0.0000     30.000   1198.000 226309.000     32.798    41.5367    88.2936   -59.8190    -1.9995     0.0009    26.0000     4.0000     9.0000    22.0000    26.0000    10.0000     5.0000    20.0000     3.0006     1.0000    -0.4992    20.7738    41.5367     2.6335    14.4503    14.4503     1.7015     0.0000     1.0000     0.0381     0.000
    293     0.6666     0.6666     1.7100     0.0000     30.000   1119.000 224503.000     32.537    41.5367    88.2736   -59.9798    -1.9995     0.0009    26.0000     4.0000     9.0000    22.0000    26.0000    10.0000     5.0000    20.0000     3.0006     1.0000    -0.4992    20.7738    41.5367     2.6400    14.4503    14.4503     1.7015     0.0000     1.0000     0.0381     0.000
    294     0.6666     0.6666     1.7150     0.0000     30.000   1114.000 225037.000     32.614    41.5367    88.2536   -60.1446    -1.9995     0.0009    26.0000     4.0000     9.0000    22.0000    26.0000    10.0000     5.0000    20.0000     3.0006     1.0000    -0.4991    20.7737    41.5367     2.6465    14.4503    14.4503     1.7014     0.0000     1.0000     0.0380     0.000
    295     0.6666     0.6666     1.7201     0.0000     30.000   1146.000 226492.000     32.825    41.5367    88.2330   -60.3084    -1.9995     0.0009    26.0000     4.0000     9.0000    22.0000    26.0000    10.0000     5.0000    20.0000     3.0006     1.0000    -0.4992    20.7738    41.5367     2.6531    14.4503    14.4503     1.7015     0.0000     1.0000     0.0380     0.000
    296     0.6666     0.6666     1.7251     0.0000     30.000   1083.000 226326.000     32.801    41.5367    88.2123   -60.4722    -1.9995     0.0009    26.0000     4.0000     9.0000    22.0000    26.0000    10.0000     5.0000    20.0000     3.0006     1.0000    -0.4992    20.7737    41.5367     2.6596    14.4503    14.4503     1.7015     0.0000     1.0000     0.0380     0.000
    297     0.6666     0.6666     1.7300     0.0000     30.000   1145.000 225054.000     32.617    41.5367    88.1909   -60.6333    -1.9995     0.0009    26.0000     4.0000     9.0000    22.0000    26.0000    10.0000     5.0000    20.0000     3.0006     1.0000    -0.4992    20.7738    41.5367     2.6660    14.4503    14.4503     1.7015     0.0000     1.0000     0.0381     0.000
    298     0.6666     0.6666     1.7350     0.0000     30.000   1171.000 224450.000     32.529    41.5367    88.1694   -60.7951    -1.9995     0.0009    26.0000     4.0000     9.0000    22.0000    26.0000    10.0000     5.0000    20.0000     3.0006     1.0000    -0.4992    20.7738    41.5367     2.6724    14.4503    14.4503     1.7014     0.0000     1.0000     0.0381     0.000
    299     0.6666     0.6666     1.7400     0.0000     30.000   1115.000 225125.000     32.627    41.5367    88.1480   -60.9580    -1.9995     0.0009    26.0000     4.0000     9.0000    22.0000    26.0000    10.0000     5.0000    20.0000     3.0006     1.0000    -0.4994    20.7738    41.5367     2.6789    14.4503    14.4503     1.7013     0.0000     1.0000     0.0381     0.000
    300     0.6666     0.6666     1.7449     0.0000     30.000   1090.000 224878.000     32.591    41.5367    88.1256   -61.1208    -1.9995     0.0009    26.0000     4.0000     9.0000    22.0000    26.0000    10.0000     5.0000    20.0000     3.0006     1.0000    -0.4992    20.7738    41.5367     2.6854    14.4503    14.4503     1.7012     0.0000     1.0000     0.0381     0.000
    301     0.6666     0.6666     1.7500     0.0000     30.000   1125.000 227212.000     32.929    41.5367    88.1036   -61.2848    -1.9995     0.0009    26.0000     4.0000     9.0000    22.0000    26.0000    10.0000     5.0000    20.0000     3.0006     1.0000    -0.4993    20.7737    41.5367     2.6919    14.4503    14.4503     1.7016     0.0000     1.0000     0.0382     0.000
# Sum of Counts = 364586
# Center of Mass = 0.968288+/-0.002390
# Full Width Half-Maximum = 0.911499+/-0.001276
# 12:55:44 AM  9/20/2023   scan completed.
