# scan = 33
# date = 9/19/2023
# time = 6:37:06 PM
# proposal = 30730
# experiment = Low Temperature Magnetic Structure of CeCl3
# experiment_number = 998
# command = scan h 0.33333 k 0.33333 l 0.25 2.25 0.005 e 0 preset time 30 
# builtin_command = scan h 0.33333 k 0.33333 l 0.25 2.25 0.005 e 0 preset time 30
# users = Adam Aczel, David Mandrus, Matthew Cothrine, Stephen Nagler
# local_contact = A. Aczel
# scan_title = CeBr3, (1/3 1/3 L) scan, T = 0.04 K
# monochromator = PG002
# analyzer = Pg002
# sense = +-+
# collimation = 40-40-40-80
# samplename = CeBr3
# sampletype = crystal
# samplemosaic = 30.000000
# latticeconstants = 7.911813,7.911813,4.442653,90.000000,90.000000,120.000000
# ubmatrix = 0.075384,0.080477,-0.177039,-0.099473,-0.099471,-0.138870,-0.075649,0.070209,0.006183
# mode = 0
# plane_normal = 0.034896,0.000010,0.999390
# ubconf = UB19Sep2023_24416PM.ini
# preset_type = normal 
# preset_channel = time
# preset_value = 30.000000
# def_x = l
# def_y = detector
# col_headers = 
#   Pt.          h          k          l          e       time   detector    monitor        mcu         m2         s1         s2        sgl        sgu   slitb_bt   slitb_lf   slitb_rt   slitb_tp   slita_bt   slita_lf   slita_rt   slita_tp        stl        stu         sz         a1         a2          q         ei         ef        vti     sample       temp dr_tsample    dr_temp
      1     0.3333     0.3333     0.2500    -0.0000     30.000   1622.000 224349.000     32.514    41.5367    78.7191   -13.8460    -1.9995     0.0009    26.0000     4.0000     9.0000    22.0000    26.0000    10.0000     5.0000    20.0000     3.0004     1.0000    -0.4999    20.7757    41.5366     0.6366    14.4503    14.4503     1.7062     0.0000     1.0000     0.0393     0.000
      2     0.3333     0.3333     0.2550     0.0002     30.000   1609.000 224332.000     32.512    41.5367    79.2022   -13.9322    -1.9995     0.0009    26.0000     4.0000     9.0000    22.0000    26.0000    10.0000     5.0000    20.0000     3.0004     1.0000    -0.5000    20.7755    41.5371     0.6406    14.4503    14.4500     1.7061     0.0000     1.0000     0.0393     0.000
      3     0.3333     0.3333     0.2600     0.0001     30.000   1669.000 224479.000     32.533    41.5367    79.6779   -14.0195    -1.9995     0.0009    26.0000     4.0000     9.0000    22.0000    26.0000    10.0000     5.0000    20.0000     3.0004     1.0000    -0.4998    20.7754    41.5368     0.6446    14.4503    14.4502     1.7061     0.0000     1.0000     0.0390     0.000
      4     0.3333     0.3333     0.2650     0.0000     30.000   1617.000 224461.000     32.531    41.5367    80.1465   -14.1076    -1.9995     0.0009    26.0000     4.0000     9.0000    22.0000    26.0000    10.0000     5.0000    20.0000     3.0005     1.0000    -0.4998    20.7753    41.5368     0.6486    14.4503    14.4502     1.7061     0.0000     1.0000     0.0390     0.000
      5     0.3333     0.3333     0.2700     0.0000     30.000   1655.000 223242.000     32.354    41.5367    80.6080   -14.1986    -1.9995     0.0009    26.0000     4.0000     9.0000    22.0000    26.0000    10.0000     5.0000    20.0000     3.0004     1.0000    -0.4998    20.7753    41.5367     0.6527    14.4503    14.4503     1.7061     0.0000     1.0000     0.0388     0.000
      6     0.3333     0.3333     0.2750     0.0000     30.000   1640.000 224152.000     32.486    41.5367    81.0627   -14.2899    -1.9995     0.0009    26.0000     4.0000     9.0000    22.0000    26.0000    10.0000     5.0000    20.0000     3.0005     1.0000    -0.4997    20.7752    41.5367     0.6569    14.4503    14.4503     1.7061     0.0000     1.0000     0.0389     0.000
      7     0.3333     0.3333     0.2800     0.0000     30.000   1627.000 223330.000     32.367    41.5367    81.5113   -14.3831    -1.9995     0.0009    26.0000     4.0000     9.0000    22.0000    26.0000    10.0000     5.0000    20.0000     3.0005     1.0000    -0.4997    20.7751    41.5367     0.6612    14.4503    14.4503     1.7060     0.0000     1.0000     0.0389     0.000
      8     0.3333     0.3334     0.2850     0.0000     30.000   1577.000 224487.000     32.534    41.5367    81.9514   -14.4765    -1.9995     0.0009    26.0000     4.0000     9.0000    22.0000    26.0000    10.0000     5.0000    20.0000     3.0005     1.0000    -0.4996    20.7751    41.5367     0.6655    14.4503    14.4503     1.7060     0.0000     1.0000     0.0388     0.000
      9     0.3333     0.3333     0.2900     0.0000     30.000   1606.000 224207.000     32.494    41.5367    82.3863   -14.5701    -1.9995     0.0009    26.0000     4.0000     9.0000    22.0000    26.0000    10.0000     5.0000    20.0000     3.0005     1.0000    -0.4997    20.7751    41.5367     0.6697    14.4503    14.4503     1.7060     0.0000     1.0000     0.0388     0.000
     10     0.3334     0.3334     0.2951     0.0000     30.000   1634.000 223649.000     32.413    41.5367    82.8143   -14.6675    -1.9995     0.0009    26.0000     4.0000     9.0000    22.0000    26.0000    10.0000     5.0000    20.0000     3.0005     1.0000    -0.4996    20.7751    41.5367     0.6742    14.4503    14.4503     1.7060     0.0000     1.0000     0.0387     0.000
     11     0.3333     0.3334     0.3000     0.0000     30.000   1606.000 224546.000     32.543    41.5367    83.2360   -14.7628    -1.9995     0.0009    26.0000     4.0000     9.0000    22.0000    26.0000    10.0000     5.0000    20.0000     3.0005     1.0000    -0.4998    20.7750    41.5368     0.6785    14.4503    14.4502     1.7059     0.0000     1.0000     0.0387     0.000
     12     0.3333     0.3334     0.3050     0.0001     30.000   1660.000 224453.000     32.529    41.5367    83.6483   -14.8595    -1.9995     0.0009    26.0000     4.0000     9.0000    22.0000    26.0000    10.0000     5.0000    20.0000     3.0005     1.0000    -0.4997    20.7749    41.5369     0.6830    14.4503    14.4502     1.7059     0.0000     1.0000     0.0387     0.000
     13     0.3333     0.3333     0.3100    -0.0000     30.000   1555.000 225148.000     32.630    41.5367    84.0583   -14.9566    -1.9995     0.0009    26.0000     4.0000     9.0000    22.0000    26.0000    10.0000     5.0000    20.0000     3.0005     1.0000    -0.4996    20.7749    41.5366     0.6874    14.4503    14.4503     1.7058     0.0000     1.0000     0.0387     0.000
     14     0.3333     0.3333     0.3150    -0.0000     30.000   1608.000 223706.000     32.421    41.5367    84.4564   -15.0551    -1.9995     0.0009    26.0000     4.0000     9.0000    22.0000    26.0000    10.0000     5.0000    20.0000     3.0005     1.0000    -0.4997    20.7748    41.5367     0.6919    14.4503    14.4503     1.7059     0.0000     1.0000     0.0388     0.000
     15     0.3333     0.3333     0.3200     0.0002     30.000   1637.000 223955.000     32.457    41.5367    84.8533   -15.1550    -1.9995     0.0009    26.0000     4.0000     9.0000    22.0000    26.0000    10.0000     5.0000    20.0000     3.0005     1.0000    -0.4996    20.7748    41.5369     0.6965    14.4503    14.4501     1.7059     0.0000     1.0000     0.0387     0.000
     16     0.3333     0.3333     0.3250    -0.0000     30.000   1645.000 223945.000     32.456    41.5367    85.2411   -15.2560    -1.9995     0.0009    26.0000     4.0000     9.0000    22.0000    26.0000    10.0000     5.0000    20.0000     3.0005     1.0000    -0.4997    20.7747    41.5367     0.7011    14.4503    14.4503     1.7059     0.0000     1.0000     0.0387     0.000
     17     0.3333     0.3333     0.3300     0.0001     30.000   1643.000 224524.000     32.540    41.5367    85.6246   -15.3584    -1.9995     0.0009    26.0000     4.0000     9.0000    22.0000    26.0000    10.0000     5.0000    20.0000     3.0005     1.0000    -0.4996    20.7747    41.5368     0.7058    14.4503    14.4502     1.7059     0.0000     1.0000     0.0387     0.000
     18     0.3333     0.3333     0.3350     0.0001     30.000   1636.000 224411.000     32.523    41.5367    85.9992   -15.4615    -1.9995     0.0009    26.0000     4.0000     9.0000    22.0000    26.0000    10.0000     5.0000    20.0000     3.0005     1.0000    -0.4996    20.7746    41.5368     0.7105    14.4503    14.4502     1.7060     0.0000     1.0000     0.0387     0.000
     19     0.3333     0.3333     0.3400     0.0001     30.000   1595.000 224312.000     32.509    41.5367    86.3716   -15.5646    -1.9995     0.0009    26.0000     4.0000     9.0000    22.0000    26.0000    10.0000     5.0000    20.0000     3.0005     1.0000    -0.4998    20.7746    41.5369     0.7152    14.4503    14.4502     1.7060     0.0000     1.0000     0.0387     0.000
     20     0.3333     0.3333     0.3450     0.0001     30.000   1588.000 224440.000     32.528    41.5367    86.7360   -15.6684    -1.9995     0.0009    26.0000     4.0000     9.0000    22.0000    26.0000    10.0000     5.0000    20.0000     3.0005     1.0000    -0.4996    20.7746    41.5369     0.7199    14.4503    14.4502     1.7060     0.0000     1.0000     0.0387     0.000
     21     0.3333     0.3333     0.3500     0.0001     30.000   1624.000 224208.000     32.494    41.5367    87.0953   -15.7735    -1.9995     0.0009    26.0000     4.0000     9.0000    22.0000    26.0000    10.0000     5.0000    20.0000     3.0005     1.0000    -0.4995    20.7746    41.5368     0.7247    14.4503    14.4502     1.7060     0.0000     1.0000     0.0387     0.000
     22     0.3333     0.3333     0.3549     0.0001     30.000   1618.000 224135.000     32.483    41.5367    87.4404   -15.8804    -1.9995     0.0009    26.0000     4.0000     9.0000    22.0000    26.0000    10.0000     5.0000    20.0000     3.0005     1.0000    -0.4997    20.7745    41.5368     0.7296    14.4503    14.4502     1.7058     0.0000     1.0000     0.0387     0.000
     23     0.3333     0.3334     0.3600     0.0002     30.000   1603.000 224200.000     32.493    41.5367    87.7906   -15.9893    -1.9995     0.0009    26.0000     4.0000     9.0000    22.0000    26.0000    10.0000     5.0000    20.0000     3.0005     1.0000    -0.4996    20.7744    41.5369     0.7346    14.4503    14.4501     1.7058     0.0000     1.0000     0.0387     0.000
     24     0.3333     0.3333     0.3650     0.0000     30.000   1561.000 224750.000     32.572    41.5367    88.1365   -16.0975    -1.9995     0.0009    26.0000     4.0000     9.0000    22.0000    26.0000    10.0000     5.0000    20.0000     3.0006     1.0000    -0.4996    20.7745    41.5367     0.7395    14.4503    14.4503     1.7056     0.0000     1.0000     0.0387     0.000
     25     0.3334     0.3334     0.3700    -0.0000     30.000   1530.000 225055.000     32.617    41.5367    88.4695   -16.2066    -1.9995     0.0009    26.0000     4.0000     9.0000    22.0000    26.0000    10.0000     5.0000    20.0000     3.0005     1.0000    -0.4995    20.7744    41.5367     0.7445    14.4503    14.4503     1.7056     0.0000     1.0000     0.0387     0.000
     26     0.3333     0.3333     0.3751     0.0002     30.000   1639.000 225059.000     32.617    41.5367    88.8057   -16.3154    -1.9995     0.0009    26.0000     4.0000     9.0000    22.0000    26.0000    10.0000     5.0000    20.0000     3.0005     1.0000    -0.4995    20.7745    41.5370     0.7494    14.4503    14.4501     1.7055     0.0000     1.0000     0.0386     0.000
     27     0.3333     0.3333     0.3801     0.0000     30.000   1523.000 225415.000     32.669    41.5367    89.1327   -16.4268    -1.9995     0.0009    26.0000     4.0000     9.0000    22.0000    26.0000    10.0000     5.0000    20.0000     3.0006     1.0000    -0.4992    20.7744    41.5367     0.7545    14.4503    14.4503     1.7055     0.0000     1.0000     0.0386     0.000
     28     0.3333     0.3333     0.3851     0.0001     30.000   1542.000 224493.000     32.535    41.5367    89.4447   -16.5369    -1.9995     0.0009    26.0000     4.0000     9.0000    22.0000    26.0000    10.0000     5.0000    20.0000     3.0005     1.0000    -0.4995    20.7745    41.5369     0.7595    14.4503    14.4502     1.7055     0.0000     1.0000     0.0387     0.000
     29     0.3333     0.3333     0.3900     0.0002     30.000   1532.000 223192.000     32.347    41.5367    89.7577   -16.6472    -1.9995     0.0009    26.0000     4.0000     9.0000    22.0000    26.0000    10.0000     5.0000    20.0000     3.0005     1.0000    -0.4994    20.7745    41.5370     0.7646    14.4503    14.4501     1.7054     0.0000     1.0000     0.0387     0.000
     30     0.3333     0.3333     0.3951     0.0000     30.000   1648.000 224849.000     32.587    41.5367    90.0672   -16.7601    -1.9995     0.0009    26.0000     4.0000     9.0000    22.0000    26.0000    10.0000     5.0000    20.0000     3.0006     1.0000    -0.4991    20.7744    41.5367     0.7697    14.4503    14.4503     1.7054     0.0000     1.0000     0.0387     0.000
     31     0.3333     0.3333     0.4000     0.0002     30.000   1526.000 224258.000     32.501    41.5367    90.3698   -16.8707    -1.9995     0.0009    26.0000     4.0000     9.0000    22.0000    26.0000    10.0000     5.0000    20.0000     3.0006     1.0000    -0.4994    20.7744    41.5370     0.7748    14.4503    14.4501     1.7054     0.0000     1.0000     0.0387     0.000
     32     0.3333     0.3333     0.4050    -0.0000     30.000   1555.000 224152.000     32.486    41.5367    90.6672   -16.9851    -1.9995     0.0009    26.0000     4.0000     9.0000    22.0000    26.0000    10.0000     5.0000    20.0000     3.0006     1.0000    -0.4991    20.7744    41.5367     0.7800    14.4503    14.4503     1.7055     0.0000     1.0000     0.0388     0.000
     33     0.3333     0.3333     0.4099     0.0001     30.000   1537.000 223836.000     32.440    41.5367    90.9613   -17.0964    -1.9995     0.0009    26.0000     4.0000     9.0000    22.0000    26.0000    10.0000     5.0000    20.0000     3.0006     1.0000    -0.4992    20.7743    41.5369     0.7851    14.4503    14.4502     1.7055     0.0000     1.0000     0.0388     0.000
     34     0.3332     0.3332     0.4149    -0.0001     30.000   1486.000 224560.000     32.545    41.5367    91.2491   -17.2088    -1.9995     0.0009    26.0000     4.0000     9.0000    22.0000    26.0000    10.0000     5.0000    20.0000     3.0006     1.0000    -0.4992    20.7744    41.5366     0.7902    14.4503    14.4503     1.7055     0.0000     1.0000     0.0387     0.000
     35     0.3333     0.3333     0.4201     0.0002     30.000   1577.000 224414.000     32.524    41.5367    91.5318   -17.3314    -1.9995     0.0009    26.0000     4.0000     9.0000    22.0000    26.0000    10.0000     5.0000    20.0000     3.0006     1.0000    -0.4990    20.7744    41.5370     0.7958    14.4503    14.4501     1.7056     0.0000     1.0000     0.0387     0.000
     36     0.3333     0.3333     0.4249     0.0001     30.000   1594.000 224353.000     32.515    41.5367    91.8110   -17.4427    -1.9995     0.0009    26.0000     4.0000     9.0000    22.0000    26.0000    10.0000     5.0000    20.0000     3.0006     1.0000    -0.4991    20.7743    41.5368     0.8008    14.4503    14.4502     1.7056     0.0000     1.0000     0.0387     0.000
     37     0.3333     0.3333     0.4300     0.0000     30.000   1571.000 223894.000     32.448    41.5367    92.0855   -17.5625    -1.9995     0.0009    26.0000     4.0000     9.0000    22.0000    26.0000    10.0000     5.0000    20.0000     3.0006     1.0000    -0.4993    20.7743    41.5367     0.8063    14.4503    14.4503     1.7056     0.0000     1.0000     0.0387     0.000
     38     0.3333     0.3333     0.4350     0.0000     30.000   1661.000 223311.000     32.364    41.5367    92.3541   -17.6808    -1.9995     0.0009    26.0000     4.0000     9.0000    22.0000    26.0000    10.0000     5.0000    20.0000     3.0006     1.0000    -0.4989    20.7743    41.5367     0.8117    14.4503    14.4503     1.7056     0.0000     1.0000     0.0387     0.000
     39     0.3333     0.3333     0.4400     0.0000     30.000   1553.000 223679.000     32.417    41.5367    92.6178   -17.7986    -1.9995     0.0009    26.0000     4.0000     9.0000    22.0000    26.0000    10.0000     5.0000    20.0000     3.0006     1.0000    -0.4989    20.7743    41.5367     0.8170    14.4503    14.4503     1.7055     0.0000     1.0000     0.0387     0.000
     40     0.3333     0.3334     0.4451     0.0000     30.000   1502.000 224846.000     32.586    41.5367    92.8784   -17.9190    -1.9995     0.0009    26.0000     4.0000     9.0000    22.0000    26.0000    10.0000     5.0000    20.0000     3.0007     1.0000    -0.4989    20.7742    41.5367     0.8225    14.4503    14.4503     1.7054     0.0000     1.0000     0.0387     0.000
     41     0.3333     0.3334     0.4501     0.0000     30.000   1521.000 223612.000     32.408    41.5367    93.1344   -18.0386    -1.9995     0.0009    26.0000     4.0000     9.0000    22.0000    26.0000    10.0000     5.0000    20.0000     3.0006     1.0000    -0.4989    20.7742    41.5367     0.8280    14.4503    14.4503     1.7054     0.0000     1.0000     0.0388     0.000
     42     0.3333     0.3333     0.4550     0.0000     30.000   1478.000 223691.000     32.419    41.5367    93.3851   -18.1567    -1.9995     0.0009    26.0000     4.0000     9.0000    22.0000    26.0000    10.0000     5.0000    20.0000     3.0006     1.0000    -0.4989    20.7742    41.5367     0.8333    14.4503    14.4503     1.7054     0.0000     1.0000     0.0388     0.000
     43     0.3333     0.3333     0.4600     0.0000     30.000   1493.000 224234.000     32.498    41.5367    93.6309   -18.2757    -1.9995     0.0009    26.0000     4.0000     9.0000    22.0000    26.0000    10.0000     5.0000    20.0000     3.0006     1.0000    -0.4989    20.7742    41.5367     0.8388    14.4503    14.4503     1.7054     0.0000     1.0000     0.0388     0.000
     44     0.3333     0.3333     0.4650     0.0000     30.000   1516.000 224367.000     32.517    41.5367    93.8744   -18.3961    -1.9995     0.0009    26.0000     4.0000     9.0000    22.0000    26.0000    10.0000     5.0000    20.0000     3.0007     1.0000    -0.4988    20.7742    41.5367     0.8442    14.4503    14.4503     1.7054     0.0000     1.0000     0.0388     0.000
     45     0.3333     0.3333     0.4700     0.0002     30.000   1481.000 224086.000     32.476    41.5367    94.1123   -18.5175    -1.9995     0.0009    26.0000     4.0000     9.0000    22.0000    26.0000    10.0000     5.0000    20.0000     3.0006     1.0000    -0.4990    20.7742    41.5369     0.8498    14.4503    14.4501     1.7054     0.0000     1.0000     0.0387     0.000
     46     0.3333     0.3333     0.4750     0.0000     30.000   1537.000 224256.000     32.501    41.5367    94.3463   -18.6388    -1.9995     0.0009    26.0000     4.0000     9.0000    22.0000    26.0000    10.0000     5.0000    20.0000     3.0006     1.0000    -0.4990    20.7742    41.5367     0.8553    14.4503    14.4503     1.7053     0.0000     1.0000     0.0387     0.000
     47     0.3333     0.3333     0.4800     0.0001     30.000   1573.000 224584.000     32.548    41.5367    94.5761   -18.7622    -1.9995     0.0009    26.0000     4.0000     9.0000    22.0000    26.0000    10.0000     5.0000    20.0000     3.0006     1.0000    -0.4990    20.7741    41.5368     0.8609    14.4503    14.4502     1.7053     0.0000     1.0000     0.0387     0.000
     48     0.3333     0.3333     0.4850     0.0001     30.000   1579.000 223917.000     32.452    41.5367    94.8029   -18.8849    -1.9995     0.0009    26.0000     4.0000     9.0000    22.0000    26.0000    10.0000     5.0000    20.0000     3.0006     1.0000    -0.4990    20.7742    41.5368     0.8665    14.4503    14.4502     1.7053     0.0000     1.0000     0.0388     0.000
     49     0.3333     0.3333     0.4900     0.0000     30.000   3037.000 223287.000     32.360    41.5367    95.0255   -19.0072    -1.9995     0.0009    26.0000     4.0000     9.0000    22.0000    26.0000    10.0000     5.0000    20.0000     3.0006     1.0000    -0.4990    20.7742    41.5367     0.8720    14.4503    14.4503     1.7053     0.0000     1.0000     0.0388     0.000
     50     0.3333     0.3333     0.4950     0.0001     30.000   6483.000 223620.000     32.409    41.5367    95.2436   -19.1326    -1.9995     0.0009    26.0000     4.0000     9.0000    22.0000    26.0000    10.0000     5.0000    20.0000     3.0006     1.0000    -0.4989    20.7742    41.5369     0.8777    14.4503    14.4502     1.7053     0.0000     1.0000     0.0387     0.000
     51     0.3333     0.3333     0.5000     0.0001     30.000   7246.000 224054.000     32.472    41.5367    95.4578   -19.2569    -1.9995     0.0009    26.0000     4.0000     9.0000    22.0000    26.0000    10.0000     5.0000    20.0000     3.0006     1.0000    -0.4989    20.7742    41.5369     0.8834    14.4503    14.4502     1.7053     0.0000     1.0000     0.0387     0.000
     52     0.3333     0.3333     0.5051     0.0002     30.000   7517.000 223131.000     32.338    41.5367    95.6684   -19.3836    -1.9995     0.0009    26.0000     4.0000     9.0000    22.0000    26.0000    10.0000     5.0000    20.0000     3.0006     1.0000    -0.4990    20.7741    41.5371     0.8891    14.4503    14.4500     1.7053     0.0000     1.0000     0.0388     0.000
     53     0.3333     0.3333     0.5100     0.0001     30.000   5713.000 224174.000     32.489    41.5367    95.8757   -19.5049    -1.9995     0.0009    26.0000     4.0000     9.0000    22.0000    26.0000    10.0000     5.0000    20.0000     3.0006     1.0000    -0.4989    20.7741    41.5368     0.8946    14.4503    14.4502     1.7053     0.0000     1.0000     0.0388     0.000
     54     0.3333     0.3333     0.5151     0.0001     30.000   1917.000 222850.000     32.297    41.5367    96.0794   -19.6352    -1.9995     0.0009    26.0000     4.0000     9.0000    22.0000    26.0000    10.0000     5.0000    20.0000     3.0006     1.0000    -0.4989    20.7741    41.5368     0.9006    14.4503    14.4502     1.7053     0.0000     1.0000     0.0388     0.000
     55     0.3333     0.3333     0.5200     0.0001     30.000   1449.000 224368.000     32.517    41.5367    96.2795   -19.7585    -1.9995     0.0009    26.0000     4.0000     9.0000    22.0000    26.0000    10.0000     5.0000    20.0000     3.0006     1.0000    -0.4988    20.7741    41.5368     0.9062    14.4503    14.4502     1.7052     0.0000     1.0000     0.0388     0.000
     56     0.3333     0.3333     0.5250     0.0001     30.000   1434.000 224523.000     32.540    41.5367    96.4747   -19.8843    -1.9995     0.0009    26.0000     4.0000     9.0000    22.0000    26.0000    10.0000     5.0000    20.0000     3.0007     1.0000    -0.4988    20.7741    41.5368     0.9119    14.4503    14.4502     1.7052     0.0000     1.0000     0.0388     0.000
     57     0.3333     0.3333     0.5300     0.0001     30.000   1455.000 224487.000     32.534    41.5367    96.6675   -20.0114    -1.9995     0.0009    26.0000     4.0000     9.0000    22.0000    26.0000    10.0000     5.0000    20.0000     3.0006     1.0000    -0.4988    20.7741    41.5368     0.9176    14.4503    14.4502     1.7051     0.0000     1.0000     0.0388     0.000
     58     0.3333     0.3333     0.5349     0.0000     30.000   1454.000 223809.000     32.436    41.5367    96.8574   -20.1376    -1.9995     0.0009    26.0000     4.0000     9.0000    22.0000    26.0000    10.0000     5.0000    20.0000     3.0006     1.0000    -0.4989    20.7741    41.5367     0.9234    14.4503    14.4503     1.7051     0.0000     1.0000     0.0388     0.000
     59     0.3333     0.3333     0.5400     0.0000     30.000   1350.000 223634.000     32.411    41.5367    97.0440   -20.2662    -1.9995     0.0009    26.0000     4.0000     9.0000    22.0000    26.0000    10.0000     5.0000    20.0000     3.0007     1.0000    -0.4988    20.7741    41.5367     0.9292    14.4503    14.4503     1.7051     0.0000     1.0000     0.0388     0.000
     60     0.3333     0.3333     0.5450     0.0000     30.000   1413.000 224556.000     32.544    41.5367    97.2257   -20.3944    -1.9995     0.0009    26.0000     4.0000     9.0000    22.0000    26.0000    10.0000     5.0000    20.0000     3.0006     1.0000    -0.4989    20.7741    41.5367     0.9350    14.4503    14.4503     1.7051     0.0000     1.0000     0.0388     0.000
     61     0.3333     0.3333     0.5500     0.0000     30.000   1413.000 225117.000     32.626    41.5367    97.4052   -20.5247    -1.9995     0.0009    26.0000     4.0000     9.0000    22.0000    26.0000    10.0000     5.0000    20.0000     3.0007     1.0000    -0.4988    20.7741    41.5367     0.9409    14.4503    14.4503     1.7051     0.0000     1.0000     0.0388     0.000
     62     0.3333     0.3333     0.5550     0.0000     30.000   1395.000 224248.000     32.500    41.5367    97.5817   -20.6532    -1.9995     0.0009    26.0000     4.0000     9.0000    22.0000    26.0000    10.0000     5.0000    20.0000     3.0007     1.0000    -0.4989    20.7741    41.5367     0.9468    14.4503    14.4503     1.7052     0.0000     1.0000     0.0388     0.000
     63     0.3333     0.3333     0.5600     0.0000     30.000   1415.000 224078.000     32.475    41.5367    97.7538   -20.7826    -1.9995     0.0009    26.0000     4.0000     9.0000    22.0000    26.0000    10.0000     5.0000    20.0000     3.0006     1.0000    -0.4989    20.7741    41.5367     0.9526    14.4503    14.4503     1.7052     0.0000     1.0000     0.0388     0.000
     64     0.3333     0.3333     0.5650     0.0000     30.000   1428.000 224435.000     32.527    41.5367    97.9247   -20.9143    -1.9995     0.0009    26.0000     4.0000     9.0000    22.0000    26.0000    10.0000     5.0000    20.0000     3.0007     1.0000    -0.4988    20.7741    41.5367     0.9586    14.4503    14.4503     1.7052     0.0000     1.0000     0.0388     0.000
     65     0.3333     0.3333     0.5701     0.0000     30.000   1399.000 223697.000     32.420    41.5367    98.0923   -21.0446    -1.9995     0.0009    26.0000     4.0000     9.0000    22.0000    26.0000    10.0000     5.0000    20.0000     3.0006     1.0000    -0.4988    20.7741    41.5367     0.9645    14.4503    14.4503     1.7052     0.0000     1.0000     0.0387     0.000
     66     0.3333     0.3333     0.5751     0.0000     30.000   1417.000 224672.000     32.561    41.5367    98.2552   -21.1755    -1.9995     0.0009    26.0000     4.0000     9.0000    22.0000    26.0000    10.0000     5.0000    20.0000     3.0007     1.0000    -0.4987    20.7741    41.5367     0.9704    14.4503    14.4503     1.7052     0.0000     1.0000     0.0387     0.000
     67     0.3333     0.3333     0.5801     0.0000     30.000   1378.000 224537.000     32.542    41.5367    98.4166   -21.3063    -1.9995     0.0009    26.0000     4.0000     9.0000    22.0000    26.0000    10.0000     5.0000    20.0000     3.0007     1.0000    -0.4987    20.7740    41.5368     0.9764    14.4503    14.4502     1.7052     0.0000     1.0000     0.0389     0.000
     68     0.3333     0.3333     0.5850     0.0000     30.000   1385.000 224869.000     32.590    41.5367    98.5738   -21.4371    -1.9995     0.0009    26.0000     4.0000     9.0000    22.0000    26.0000    10.0000     5.0000    20.0000     3.0007     1.0000    -0.4987    20.7740    41.5367     0.9823    14.4503    14.4503     1.7051     0.0000     1.0000     0.0389     0.000
     69     0.3333     0.3333     0.5899     0.0000     30.000   1431.000 223837.000     32.440    41.5367    98.7290   -21.5658    -1.9995     0.0009    26.0000     4.0000     9.0000    22.0000    26.0000    10.0000     5.0000    20.0000     3.0007     1.0000    -0.4987    20.7740    41.5367     0.9881    14.4503    14.4503     1.7050     0.0000     1.0000     0.0390     0.000
     70     0.3333     0.3333     0.5950     0.0000     30.000   1355.000 224554.000     32.544    41.5367    98.8818   -21.6985    -1.9995     0.0009    26.0000     4.0000     9.0000    22.0000    26.0000    10.0000     5.0000    20.0000     3.0006     1.0000    -0.4986    20.7740    41.5368     0.9941    14.4503    14.4502     1.7050     0.0000     1.0000     0.0390     0.000
     71     0.3333     0.3333     0.5999     0.0000     30.000   1408.000 223739.000     32.426    41.5367    99.0318   -21.8300    -1.9995     0.0009    26.0000     4.0000     9.0000    22.0000    26.0000    10.0000     5.0000    20.0000     3.0007     1.0000    -0.4987    20.7740    41.5367     1.0001    14.4503    14.4503     1.7049     0.0000     1.0000     0.0390     0.000
     72     0.3333     0.3333     0.6050     0.0000     30.000   1389.000 224395.000     32.521    41.5367    99.1787   -21.9632    -1.9995     0.0009    26.0000     4.0000     9.0000    22.0000    26.0000    10.0000     5.0000    20.0000     3.0007     1.0000    -0.4987    20.7740    41.5368     1.0061    14.4503    14.4502     1.7050     0.0000     1.0000     0.0389     0.000
     73     0.3333     0.3333     0.6100     0.0000     30.000   1427.000 224267.000     32.502    41.5367    99.3227   -22.0972    -1.9995     0.0009    26.0000     4.0000     9.0000    22.0000    26.0000    10.0000     5.0000    20.0000     3.0007     1.0000    -0.4987    20.7740    41.5368     1.0122    14.4503    14.4502     1.7050     0.0000     1.0000     0.0389     0.000
     74     0.3333     0.3333     0.6150     0.0000     30.000   1362.000 223643.000     32.412    41.5367    99.4633   -22.2320    -1.9995     0.0009    26.0000     4.0000     9.0000    22.0000    26.0000    10.0000     5.0000    20.0000     3.0006     1.0000    -0.4987    20.7740    41.5367     1.0183    14.4503    14.4503     1.7049     0.0000     1.0000     0.0389     0.000
     75     0.3333     0.3333     0.6200     0.0000     30.000   1327.000 225388.000     32.665    41.5367    99.6020   -22.3664    -1.9995     0.0009    26.0000     4.0000     9.0000    22.0000    26.0000    10.0000     5.0000    20.0000     3.0006     1.0000    -0.4988    20.7740    41.5368     1.0243    14.4503    14.4502     1.7050     0.0000     1.0000     0.0389     0.000
     76     0.3333     0.3333     0.6250     0.0000     30.000   1287.000 225814.000     32.727    41.5367    99.7384   -22.5004    -1.9995     0.0009    26.0000     4.0000     9.0000    22.0000    26.0000    10.0000     5.0000    20.0000     3.0007     1.0000    -0.4986    20.7740    41.5367     1.0304    14.4503    14.4503     1.7050     0.0000     1.0000     0.0389     0.000
     77     0.3333     0.3333     0.6301     0.0001     30.000   1312.000 224092.000     32.477    41.5367    99.8728   -22.6364    -1.9995     0.0009    26.0000     4.0000     9.0000    22.0000    26.0000    10.0000     5.0000    20.0000     3.0006     1.0000    -0.4987    20.7740    41.5368     1.0365    14.4503    14.4502     1.7050     0.0000     1.0000     0.0389     0.000
     78     0.3333     0.3333     0.6351     0.0000     30.000   1366.000 223080.000     32.330    41.5367   100.0036   -22.7710    -1.9995     0.0009    26.0000     4.0000     9.0000    22.0000    26.0000    10.0000     5.0000    20.0000     3.0007     1.0000    -0.4986    20.7740    41.5368     1.0426    14.4503    14.4502     1.7050     0.0000     1.0000     0.0388     0.000
     79     0.3333     0.3333     0.6401     0.0001     30.000   1399.000 223570.000     32.401    41.5367   100.1330   -22.9061    -1.9995     0.0009    26.0000     4.0000     9.0000    22.0000    26.0000    10.0000     5.0000    20.0000     3.0007     1.0000    -0.4986    20.7740    41.5368     1.0487    14.4503    14.4502     1.7050     0.0000     1.0000     0.0388     0.000
     80     0.3333     0.3333     0.6451     0.0001     30.000   1378.000 223613.000     32.408    41.5367   100.2585   -23.0410    -1.9995     0.0009    26.0000     4.0000     9.0000    22.0000    26.0000    10.0000     5.0000    20.0000     3.0007     1.0000    -0.4987    20.7740    41.5368     1.0548    14.4503    14.4502     1.7049     0.0000     1.0000     0.0388     0.000
     81     0.3333     0.3333     0.6500     0.0001     30.000   1340.000 224982.000     32.606    41.5367   100.3824   -23.1753    -1.9995     0.0009    26.0000     4.0000     9.0000    22.0000    26.0000    10.0000     5.0000    20.0000     3.0007     1.0000    -0.4986    20.7740    41.5368     1.0609    14.4503    14.4502     1.7049     0.0000     1.0000     0.0388     0.000
     82     0.3333     0.3333     0.6550     0.0000     30.000   1358.000 223554.000     32.399    41.5367   100.5042   -23.3102    -1.9995     0.0009    26.0000     4.0000     9.0000    22.0000    26.0000    10.0000     5.0000    20.0000     3.0007     1.0000    -0.4986    20.7740    41.5367     1.0670    14.4503    14.4503     1.7049     0.0000     1.0000     0.0388     0.000
     83     0.3333     0.3333     0.6600     0.0000     30.000   1327.000 224181.000     32.490    41.5367   100.6226   -23.4448    -1.9995     0.0009    26.0000     4.0000     9.0000    22.0000    26.0000    10.0000     5.0000    20.0000     3.0007     1.0000    -0.4986    20.7740    41.5367     1.0730    14.4503    14.4503     1.7048     0.0000     1.0000     0.0389     0.000
     84     0.3333     0.3333     0.6650     0.0001     30.000   1307.000 223927.000     32.453    41.5367   100.7405   -23.5824    -1.9995     0.0009    26.0000     4.0000     9.0000    22.0000    26.0000    10.0000     5.0000    20.0000     3.0007     1.0000    -0.4986    20.7740    41.5368     1.0793    14.4503    14.4502     1.7048     0.0000     1.0000     0.0389     0.000
     85     0.3333     0.3333     0.6699     0.0001     30.000   1336.000 224094.000     32.477    41.5367   100.8544   -23.7176    -1.9995     0.0009    26.0000     4.0000     9.0000    22.0000    26.0000    10.0000     5.0000    20.0000     3.0007     1.0000    -0.4984    20.7740    41.5368     1.0854    14.4503    14.4502     1.7047     0.0000     1.0000     0.0389     0.000
     86     0.3333     0.3333     0.6750     0.0001     30.000   1398.000 223948.000     32.456    41.5367   100.9678   -23.8548    -1.9995     0.0008    26.0000     4.0000     9.0000    22.0000    26.0000    10.0000     5.0000    20.0000     3.0006     1.0000    -0.4986    20.7740    41.5368     1.0915    14.4503    14.4502     1.7047     0.0000     1.0000     0.0389     0.000
     87     0.3333     0.3333     0.6800     0.0001     30.000   1325.000 223397.000     32.376    41.5367   101.0783   -23.9919    -1.9995     0.0009    26.0000     4.0000     9.0000    22.0000    26.0000    10.0000     5.0000    20.0000     3.0007     1.0000    -0.4985    20.7739    41.5368     1.0977    14.4503    14.4502     1.7047     0.0000     1.0000     0.0388     0.000
     88     0.3333     0.3333     0.6850     0.0001     30.000   1401.000 224002.000     32.464    41.5367   101.1866   -24.1312    -1.9995     0.0009    26.0000     4.0000     9.0000    22.0000    26.0000    10.0000     5.0000    20.0000     3.0007     1.0000    -0.4985    20.7739    41.5368     1.1040    14.4503    14.4502     1.7047     0.0000     1.0000     0.0388     0.000
     89     0.3333     0.3333     0.6900     0.0001     30.000   1385.000 223084.000     32.331    41.5367   101.2928   -24.2700    -1.9995     0.0008    26.0000     4.0000     9.0000    22.0000    26.0000    10.0000     5.0000    20.0000     3.0007     1.0000    -0.4986    20.7740    41.5368     1.1103    14.4503    14.4502     1.7047     0.0000     1.0000     0.0388     0.000
     90     0.3333     0.3333     0.6951     0.0001     30.000   1333.000 223088.000     32.332    41.5367   101.3965   -24.4089    -1.9995     0.0009    26.0000     4.0000     9.0000    22.0000    26.0000    10.0000     5.0000    20.0000     3.0007     1.0000    -0.4985    20.7740    41.5368     1.1165    14.4503    14.4502     1.7047     0.0000     1.0000     0.0388     0.000
     91     0.3333     0.3333     0.7001     0.0001     30.000   1397.000 223506.000     32.392    41.5367   101.4979   -24.5472    -1.9995     0.0009    26.0000     4.0000     9.0000    22.0000    26.0000    10.0000     5.0000    20.0000     3.0007     1.0000    -0.4985    20.7739    41.5368     1.1227    14.4503    14.4502     1.7048     0.0000     1.0000     0.0389     0.000
     92     0.3333     0.3333     0.7051     0.0001     30.000   1341.000 223540.000     32.397    41.5367   101.5980   -24.6858    -1.9995     0.0008    26.0000     4.0000     9.0000    22.0000    26.0000    10.0000     5.0000    20.0000     3.0007     1.0000    -0.4984    20.7739    41.5368     1.1290    14.4503    14.4502     1.7048     0.0000     1.0000     0.0389     0.000
     93     0.3333     0.3333     0.7100     0.0001     30.000   1352.000 224047.000     32.471    41.5367   101.6960   -24.8235    -1.9995     0.0008    26.0000     4.0000     9.0000    22.0000    26.0000    10.0000     5.0000    20.0000     3.0007     1.0000    -0.4985    20.7739    41.5368     1.1352    14.4503    14.4502     1.7048     0.0000     1.0000     0.0389     0.000
     94     0.3333     0.3333     0.7151     0.0000     30.000   1340.000 224301.000     32.507    41.5367   101.7921   -24.9633    -1.9995     0.0009    26.0000     4.0000     9.0000    22.0000    26.0000    10.0000     5.0000    20.0000     3.0007     1.0000    -0.4984    20.7739    41.5368     1.1415    14.4503    14.4502     1.7048     0.0000     1.0000     0.0391     0.000
     95     0.3333     0.3333     0.7200     0.0001     30.000   1315.000 223336.000     32.368    41.5367   101.8866   -25.0994    -1.9995     0.0009    26.0000     4.0000     9.0000    22.0000    26.0000    10.0000     5.0000    20.0000     3.0007     1.0000    -0.4984    20.7739    41.5368     1.1476    14.4503    14.4502     1.7048     0.0000     1.0000     0.0391     0.000
     96     0.3333     0.3333     0.7250     0.0001     30.000   1359.000 223239.000     32.353    41.5367   101.9784   -25.2413    -1.9995     0.0008    26.0000     4.0000     9.0000    22.0000    26.0000    10.0000     5.0000    20.0000     3.0007     1.0000    -0.4985    20.7739    41.5368     1.1540    14.4503    14.4502     1.7048     0.0000     1.0000     0.0390     0.000
     97     0.3333     0.3333     0.7300     0.0001     30.000   1342.000 224893.000     32.593    41.5367   102.0692   -25.3803    -1.9995     0.0009    26.0000     4.0000     9.0000    22.0000    26.0000    10.0000     5.0000    20.0000     3.0007     1.0000    -0.4985    20.7739    41.5368     1.1602    14.4503    14.4502     1.7049     0.0000     1.0000     0.0390     0.000
     98     0.3333     0.3333     0.7350     0.0001     30.000   1359.000 224710.000     32.567    41.5367   102.1576   -25.5210    -1.9995     0.0008    26.0000     4.0000     9.0000    22.0000    26.0000    10.0000     5.0000    20.0000     3.0007     1.0000    -0.4984    20.7739    41.5368     1.1666    14.4503    14.4502     1.7050     0.0000     1.0000     0.0390     0.000
     99     0.3333     0.3333     0.7400     0.0000     30.000   1282.000 224208.000     32.494    41.5367   102.2439   -25.6609    -1.9995     0.0009    26.0000     4.0000     9.0000    22.0000    26.0000    10.0000     5.0000    20.0000     3.0007     1.0000    -0.4984    20.7739    41.5368     1.1729    14.4503    14.4502     1.7052     0.0000     1.0000     0.0390     0.000
    100     0.3333     0.3333     0.7451     0.0000     30.000   1254.000 223624.000     32.409    41.5367   102.3289   -25.8030    -1.9995     0.0008    26.0000     4.0000     9.0000    22.0000    26.0000    10.0000     5.0000    20.0000     3.0007     1.0000    -0.4984    20.7739    41.5367     1.1792    14.4503    14.4503     1.7052     0.0000     1.0000     0.0391     0.000
    101     0.3333     0.3333     0.7500     0.0001     30.000   1391.000 224704.000     32.566    41.5367   102.4116   -25.9412    -1.9995     0.0008    26.0000     4.0000     9.0000    22.0000    26.0000    10.0000     5.0000    20.0000     3.0006     1.0000    -0.4985    20.7739    41.5368     1.1854    14.4503    14.4502     1.7052     0.0000     1.0000     0.0391     0.000
    102     0.3333     0.3333     0.7551     0.0000     30.000   1226.000 224651.000     32.558    41.5367   102.4929   -26.0850    -1.9995     0.0009    26.0000     4.0000     9.0000    22.0000    26.0000    10.0000     5.0000    20.0000     3.0008     1.0000    -0.4984    20.7739    41.5368     1.1919    14.4503    14.4502     1.7052     0.0000     1.0000     0.0391     0.000
    103     0.3333     0.3333     0.7601     0.0001     30.000   1267.000 223712.000     32.422    41.5367   102.5719   -26.2274    -1.9995     0.0009    26.0000     4.0000     9.0000    22.0000    26.0000    10.0000     5.0000    20.0000     3.0007     1.0000    -0.4983    20.7739    41.5368     1.1983    14.4503    14.4502     1.7052     0.0000     1.0000     0.0391     0.000
    104     0.3333     0.3333     0.7650     0.0000     30.000   1270.000 223427.000     32.381    41.5367   102.6508   -26.3669    -1.9995     0.0008    26.0000     4.0000     9.0000    22.0000    26.0000    10.0000     5.0000    20.0000     3.0007     1.0000    -0.4984    20.7739    41.5367     1.2046    14.4503    14.4503     1.7053     0.0000     1.0000     0.0391     0.000
    105     0.3333     0.3333     0.7700     0.0000     30.000   1237.000 224081.000     32.476    41.5367   102.7268   -26.5060    -1.9995     0.0008    26.0000     4.0000     9.0000    22.0000    26.0000    10.0000     5.0000    20.0000     3.0007     1.0000    -0.4984    20.7739    41.5367     1.2108    14.4503    14.4503     1.7051     0.0000     1.0000     0.0391     0.000
    106     0.3333     0.3333     0.7749     0.0000     30.000   1240.000 224336.000     32.512    41.5367   102.8015   -26.6467    -1.9995     0.0009    26.0000     4.0000     9.0000    22.0000    26.0000    10.0000     5.0000    20.0000     3.0007     1.0000    -0.4984    20.7739    41.5368     1.2171    14.4503    14.4502     1.7051     0.0000     1.0000     0.0391     0.000
    107     0.3333     0.3333     0.7800     0.0000     30.000   1246.000 225170.000     32.633    41.5367   102.8746   -26.7918    -1.9995     0.0009    26.0000     4.0000     9.0000    22.0000    26.0000    10.0000     5.0000    20.0000     3.0007     1.0000    -0.4982    20.7739    41.5368     1.2236    14.4503    14.4502     1.7051     0.0000     1.0000     0.0390     0.000
    108     0.3333     0.3333     0.7849     0.0001     30.000   1233.000 223100.000     32.333    41.5367   102.9464   -26.9304    -1.9995     0.0008    26.0000     4.0000     9.0000    22.0000    26.0000    10.0000     5.0000    20.0000     3.0007     1.0000    -0.4983    20.7739    41.5368     1.2298    14.4503    14.4502     1.7050     0.0000     1.0000     0.0390     0.000
    109     0.3333     0.3333     0.7900     0.0001     30.000   1219.000 224358.000     32.516    41.5367   103.0159   -27.0765    -1.9995     0.0009    26.0000     4.0000     9.0000    22.0000    26.0000    10.0000     5.0000    20.0000     3.0007     1.0000    -0.4984    20.7739    41.5368     1.2364    14.4503    14.4502     1.7050     0.0000     1.0000     0.0391     0.000
    110     0.3333     0.3333     0.7950     0.0001     30.000   1261.000 223582.000     32.403    41.5367   103.0839   -27.2184    -1.9995     0.0009    26.0000     4.0000     9.0000    22.0000    26.0000    10.0000     5.0000    20.0000     3.0007     1.0000    -0.4981    20.7739    41.5368     1.2427    14.4503    14.4502     1.7050     0.0000     1.0000     0.0391     0.000
    111     0.3333     0.3333     0.8000     0.0000     30.000   1164.000 224221.000     32.496    41.5367   103.1513   -27.3612    -1.9995     0.0008    26.0000     4.0000     9.0000    22.0000    26.0000    10.0000     5.0000    20.0000     3.0007     1.0000    -0.4983    20.7739    41.5368     1.2491    14.4503    14.4502     1.7050     0.0000     1.0000     0.0391     0.000
    112     0.3333     0.3333     0.8051     0.0001     30.000   1188.000 224582.000     32.548    41.5367   103.2163   -27.5073    -1.9995     0.0008    26.0000     4.0000     9.0000    22.0000    26.0000    10.0000     5.0000    20.0000     3.0007     1.0000    -0.4983    20.7739    41.5368     1.2557    14.4503    14.4502     1.7050     0.0000     1.0000     0.0391     0.000
    113     0.3333     0.3333     0.8100     0.0001     30.000   1190.000 223870.000     32.445    41.5367   103.2802   -27.6487    -1.9995     0.0008    26.0000     4.0000     9.0000    22.0000    26.0000    10.0000     5.0000    20.0000     3.0007     1.0000    -0.4982    20.7738    41.5368     1.2620    14.4503    14.4502     1.7050     0.0000     1.0000     0.0392     0.000
    114     0.3333     0.3333     0.8151     0.0001     30.000   1142.000 223738.000     32.426    41.5367   103.3418   -27.7937    -1.9995     0.0008    26.0000     4.0000     9.0000    22.0000    26.0000    10.0000     5.0000    20.0000     3.0007     1.0000    -0.4984    20.7739    41.5368     1.2685    14.4503    14.4502     1.7050     0.0000     1.0000     0.0392     0.000
    115     0.3333     0.3333     0.8201     0.0001     30.000   1129.000 223819.000     32.438    41.5367   103.4024   -27.9373    -1.9995     0.0008    26.0000     4.0000     9.0000    22.0000    26.0000    10.0000     5.0000    20.0000     3.0008     1.0000    -0.4982    20.7739    41.5368     1.2749    14.4503    14.4502     1.7051     0.0000     1.0000     0.0391     0.000
    116     0.3333     0.3333     0.8250     0.0001     30.000   1142.000 223912.000     32.451    41.5367   103.4618   -28.0800    -1.9995     0.0008    26.0000     4.0000     9.0000    22.0000    26.0000    10.0000     5.0000    20.0000     3.0007     1.0000    -0.4984    20.7738    41.5368     1.2813    14.4503    14.4502     1.7051     0.0000     1.0000     0.0391     0.000
    117     0.3333     0.3333     0.8299     0.0001     30.000   1125.000 223687.000     32.418    41.5367   103.5202   -28.2204    -1.9995     0.0009    26.0000     4.0000     9.0000    22.0000    26.0000    10.0000     5.0000    20.0000     3.0007     1.0000    -0.4982    20.7738    41.5368     1.2876    14.4503    14.4502     1.7051     0.0000     1.0000     0.0391     0.000
    118     0.3333     0.3333     0.8349     0.0000     30.000   1143.000 223166.000     32.343    41.5367   103.5760   -28.3653    -1.9995     0.0008    26.0000     4.0000     9.0000    22.0000    26.0000    10.0000     5.0000    20.0000     3.0007     1.0000    -0.4982    20.7738    41.5368     1.2941    14.4503    14.4502     1.7052     0.0000     1.0000     0.0390     0.000
    119     0.3333     0.3333     0.8400     0.0000     30.000   1127.000 223698.000     32.420    41.5367   103.6313   -28.5114    -1.9995     0.0008    26.0000     4.0000     9.0000    22.0000    26.0000    10.0000     5.0000    20.0000     3.0007     1.0000    -0.4983    20.7738    41.5367     1.3006    14.4503    14.4503     1.7051     0.0000     1.0000     0.0390     0.000
    120     0.3333     0.3333     0.8450     0.0000     30.000   1128.000 222972.000     32.315    41.5367   103.6855   -28.6570    -1.9995     0.0008    26.0000     4.0000     9.0000    22.0000    26.0000    10.0000     5.0000    20.0000     3.0007     1.0000    -0.4983    20.7739    41.5368     1.3071    14.4503    14.4502     1.7051     0.0000     1.0000     0.0390     0.000
    121     0.3333     0.3333     0.8500     0.0000     30.000   1129.000 223591.000     32.404    41.5367   103.7375   -28.8017    -1.9995     0.0008    26.0000     4.0000     9.0000    22.0000    26.0000    10.0000     5.0000    20.0000     3.0007     1.0000    -0.4984    20.7739    41.5367     1.3135    14.4503    14.4503     1.7052     0.0000     1.0000     0.0390     0.000
    122     0.3333     0.3333     0.8551     0.0000     30.000   1121.000 223731.000     32.425    41.5367   103.7891   -28.9508    -1.9995     0.0008    26.0000     4.0000     9.0000    22.0000    26.0000    10.0000     5.0000    20.0000     3.0007     1.0000    -0.4983    20.7739    41.5368     1.3202    14.4503    14.4502     1.7052     0.0000     1.0000     0.0391     0.000
    123     0.3333     0.3333     0.8599     0.0000     30.000   1110.000 224381.000     32.519    41.5367   103.8387   -29.0889    -1.9995     0.0008    26.0000     4.0000     9.0000    22.0000    26.0000    10.0000     5.0000    20.0000     3.0008     1.0000    -0.4982    20.7738    41.5368     1.3264    14.4503    14.4502     1.7053     0.0000     1.0000     0.0391     0.000
    124     0.3333     0.3333     0.8651     0.0001     30.000   1199.000 224576.000     32.547    41.5367   103.8875   -29.2406    -1.9995     0.0009    26.0000     4.0000     9.0000    22.0000    26.0000    10.0000     5.0000    20.0000     3.0008     1.0000    -0.4982    20.7738    41.5368     1.3331    14.4503    14.4502     1.7053     0.0000     1.0000     0.0391     0.000
    125     0.3333     0.3333     0.8701     0.0000     30.000   1112.000 224248.000     32.500    41.5367   103.9351   -29.3852    -1.9995     0.0008    26.0000     4.0000     9.0000    22.0000    26.0000    10.0000     5.0000    20.0000     3.0007     1.0000    -0.4983    20.7738    41.5367     1.3396    14.4503    14.4503     1.7054     0.0000     1.0000     0.0391     0.000
    126     0.3333     0.3333     0.8751     0.0001     30.000   1115.000 224601.000     32.551    41.5367   103.9815   -29.5326    -1.9995     0.0008    26.0000     4.0000     9.0000    22.0000    26.0000    10.0000     5.0000    20.0000     3.0007     1.0000    -0.4983    20.7738    41.5368     1.3461    14.4503    14.4502     1.7055     0.0000     1.0000     0.0391     0.000
    127     0.3333     0.3333     0.8800     0.0000     30.000   1072.000 224881.000     32.591    41.5367   104.0269   -29.6756    -1.9995     0.0009    26.0000     4.0000     9.0000    22.0000    26.0000    10.0000     5.0000    20.0000     3.0009     1.0000    -0.4982    20.7738    41.5368     1.3525    14.4503    14.4502     1.7054     0.0000     1.0000     0.0391     0.000
    128     0.3333     0.3333     0.8850     0.0000     30.000   1077.000 224430.000     32.526    41.5367   104.0700   -29.8216    -1.9995     0.0008    26.0000     4.0000     9.0000    22.0000    26.0000    10.0000     5.0000    20.0000     3.0007     1.0000    -0.4982    20.7738    41.5367     1.3590    14.4503    14.4503     1.7052     0.0000     1.0000     0.0391     0.000
    129     0.3333     0.3333     0.8899     0.0001     30.000   1044.000 224183.000     32.490    41.5367   104.1122   -29.9655    -1.9995     0.0009    26.0000     4.0000     9.0000    22.0000    26.0000    10.0000     5.0000    20.0000     3.0007     1.0000    -0.4982    20.7738    41.5368     1.3654    14.4503    14.4502     1.7049     0.0000     1.0000     0.0392     0.000
    130     0.3333     0.3333     0.8950     0.0000     30.000   1099.000 224277.000     32.504    41.5367   104.1530   -30.1138    -1.9995     0.0008    26.0000     4.0000     9.0000    22.0000    26.0000    10.0000     5.0000    20.0000     3.0007     1.0000    -0.4982    20.7738    41.5367     1.3720    14.4503    14.4503     1.7043     0.0000     1.0000     0.0392     0.000
    131     0.3333     0.3333     0.9000     0.0000     30.000   1089.000 223634.000     32.411    41.5367   104.1934   -30.2591    -1.9995     0.0008    26.0000     4.0000     9.0000    22.0000    26.0000    10.0000     5.0000    20.0000     3.0007     1.0000    -0.4982    20.7738    41.5368     1.3785    14.4503    14.4502     1.7039     0.0000     1.0000     0.0392     0.000
    132     0.3333     0.3333     0.9049     0.0000     30.000   1038.000 224493.000     32.535    41.5367   104.2318   -30.4052    -1.9995     0.0008    26.0000     4.0000     9.0000    22.0000    26.0000    10.0000     5.0000    20.0000     3.0007     1.0000    -0.4982    20.7738    41.5367     1.3850    14.4503    14.4503     1.7037     0.0000     1.0000     0.0392     0.000
    133     0.3333     0.3333     0.9099     0.0000     30.000   1095.000 224106.000     32.479    41.5367   104.2705   -30.5516    -1.9995     0.0008    26.0000     4.0000     9.0000    22.0000    26.0000    10.0000     5.0000    20.0000     3.0007     1.0000    -0.4982    20.7738    41.5368     1.3915    14.4503    14.4502     1.7037     0.0000     1.0000     0.0392     0.000
    134     0.3333     0.3333     0.9151     0.0000     30.000   1016.000 223857.000     32.443    41.5367   104.3067   -30.7047    -1.9995     0.0009    26.0000     4.0000     9.0000    22.0000    26.0000    10.0000     5.0000    20.0000     3.0007     1.0000    -0.4981    20.7737    41.5368     1.3983    14.4503    14.4502     1.7038     0.0000     1.0000     0.0392     0.000
    135     0.3333     0.3333     0.9200     0.0001     30.000   1112.000 224685.000     32.563    41.5367   104.3419   -30.8491    -1.9995     0.0008    26.0000     4.0000     9.0000    22.0000    26.0000    10.0000     5.0000    20.0000     3.0008     1.0000    -0.4981    20.7738    41.5368     1.4047    14.4503    14.4502     1.7038     0.0000     1.0000     0.0391     0.000
    136     0.3333     0.3333     0.9251     0.0001     30.000   1089.000 224015.000     32.466    41.5367   104.3763   -30.9986    -1.9995     0.0008    26.0000     4.0000     9.0000    22.0000    26.0000    10.0000     5.0000    20.0000     3.0007     1.0000    -0.4981    20.7738    41.5368     1.4114    14.4503    14.4502     1.7037     0.0000     1.0000     0.0391     0.000
    137     0.3333     0.3333     0.9301     0.0001     30.000   1009.000 223551.000     32.399    41.5367   104.4102   -31.1461    -1.9995     0.0008    26.0000     4.0000     9.0000    22.0000    26.0000    10.0000     5.0000    20.0000     3.0007     1.0000    -0.4981    20.7738    41.5368     1.4179    14.4503    14.4502     1.7036     0.0000     1.0000     0.0391     0.000
    138     0.3333     0.3333     0.9351     0.0000     30.000   1078.000 223782.000     32.432    41.5367   104.4425   -31.2938    -1.9995     0.0008    26.0000     4.0000     9.0000    22.0000    26.0000    10.0000     5.0000    20.0000     3.0008     1.0000    -0.4982    20.7738    41.5367     1.4245    14.4503    14.4503     1.7036     0.0000     1.0000     0.0391     0.000
    139     0.3333     0.3333     0.9400     0.0000     30.000   1033.000 224357.000     32.516    41.5367   104.4738   -31.4404    -1.9995     0.0008    26.0000     4.0000     9.0000    22.0000    26.0000    10.0000     5.0000    20.0000     3.0008     1.0000    -0.4981    20.7738    41.5367     1.4310    14.4503    14.4503     1.7035     0.0000     1.0000     0.0391     0.000
    140     0.3333     0.3333     0.9450     0.0000     30.000   1056.000 223430.000     32.381    41.5367   104.5042   -31.5870    -1.9995     0.0009    26.0000     4.0000     9.0000    22.0000    26.0000    10.0000     5.0000    20.0000     3.0009     1.0000    -0.4982    20.7738    41.5367     1.4375    14.4503    14.4503     1.7034     0.0000     1.0000     0.0392     0.000
    141     0.3333     0.3333     0.9499     0.0000     30.000   1090.000 224547.000     32.543    41.5367   104.5321   -31.7344    -1.9995     0.0008    26.0000     4.0000     9.0000    22.0000    26.0000    10.0000     5.0000    20.0000     3.0007     1.0000    -0.4981    20.7738    41.5367     1.4440    14.4503    14.4503     1.7033     0.0000     1.0000     0.0392     0.000
    142     0.3333     0.3333     0.9550     0.0000     30.000   1022.000 225985.000     32.751    41.5367   104.5606   -31.8853    -1.9995     0.0009    26.0000     4.0000     9.0000    22.0000    26.0000    10.0000     5.0000    20.0000     3.0008     1.0000    -0.4982    20.7737    41.5367     1.4507    14.4503    14.4503     1.7032     0.0000     1.0000     0.0392     0.000
    143     0.3333     0.3333     0.9600     0.0000     30.000   1020.000 224779.000     32.577    41.5367   104.5887   -32.0344    -1.9995     0.0008    26.0000     4.0000     9.0000    22.0000    26.0000    10.0000     5.0000    20.0000     3.0007     1.0000    -0.4982    20.7738    41.5367     1.4573    14.4503    14.4503     1.7031     0.0000     1.0000     0.0392     0.000
    144     0.3333     0.3333     0.9650     0.0000     30.000   1055.000 224024.000     32.467    41.5367   104.6143   -32.1811    -1.9995     0.0008    26.0000     4.0000     9.0000    22.0000    26.0000    10.0000     5.0000    20.0000     3.0008     1.0000    -0.4981    20.7738    41.5367     1.4638    14.4503    14.4503     1.7031     0.0000     1.0000     0.0393     0.000
    145     0.3333     0.3333     0.9700     0.0000     30.000   1034.000 223452.000     32.384    41.5367   104.6397   -32.3316    -1.9995     0.0008    26.0000     4.0000     9.0000    22.0000    26.0000    10.0000     5.0000    20.0000     3.0007     1.0000    -0.4983    20.7738    41.5367     1.4705    14.4503    14.4503     1.7030     0.0000     1.0000     0.0393     0.000
    146     0.3333     0.3333     0.9750     0.0000     30.000   1066.000 224419.000     32.524    41.5367   104.6640   -32.4801    -1.9995     0.0009    26.0000     4.0000     9.0000    22.0000    26.0000    10.0000     5.0000    20.0000     3.0009     1.0000    -0.4983    20.7738    41.5367     1.4770    14.4503    14.4503     1.7029     0.0000     1.0000     0.0395     0.000
    147     0.3333     0.3333     0.9801     0.0000     30.000   1006.000 224393.000     32.521    41.5367   104.6863   -32.6325    -1.9995     0.0008    26.0000     4.0000     9.0000    22.0000    26.0000    10.0000     5.0000    20.0000     3.0008     1.0000    -0.4983    20.7737    41.5367     1.4838    14.4503    14.4503     1.7029     0.0000     1.0000     0.0395     0.000
    148     0.3333     0.3333     0.9850     0.0000     30.000   1040.000 225203.000     32.638    41.5367   104.7098   -32.7797    -1.9995     0.0008    26.0000     4.0000     9.0000    22.0000    26.0000    10.0000     5.0000    20.0000     3.0007     1.0000    -0.4982    20.7738    41.5367     1.4903    14.4503    14.4503     1.7028     0.0000     1.0000     0.0396     0.000
    149     0.3333     0.3333     0.9900     0.0000     30.000   1049.000 224100.000     32.478    41.5367   104.7307   -32.9281    -1.9995     0.0008    26.0000     4.0000     9.0000    22.0000    26.0000    10.0000     5.0000    20.0000     3.0007     1.0000    -0.4983    20.7737    41.5367     1.4969    14.4503    14.4503     1.7027     0.0000     1.0000     0.0396     0.000
    150     0.3333     0.3333     0.9949     0.0000     30.000    961.000 224513.000     32.538    41.5367   104.7510   -33.0759    -1.9995     0.0008    26.0000     4.0000     9.0000    22.0000    26.0000    10.0000     5.0000    20.0000     3.0007     1.0000    -0.4982    20.7737    41.5368     1.5034    14.4503    14.4502     1.7026     0.0000     1.0000     0.0392     0.000
    151     0.3333     0.3333     0.9999     0.0000     30.000   1000.000 224639.000     32.556    41.5367   104.7705   -33.2261    -1.9995     0.0008    26.0000     4.0000     9.0000    22.0000    26.0000    10.0000     5.0000    20.0000     3.0007     1.0000    -0.4982    20.7737    41.5368     1.5100    14.4503    14.4502     1.7025     0.0000     1.0000     0.0392     0.000
    152     0.3333     0.3333     1.0049     0.0000     30.000    978.000 224179.000     32.490    41.5367   104.7896   -33.3754    -1.9995     0.0008    26.0000     4.0000     9.0000    22.0000    26.0000    10.0000     5.0000    20.0000     3.0007     1.0000    -0.4982    20.7738    41.5367     1.5166    14.4503    14.4503     1.7025     0.0000     1.0000     0.0392     0.000
    153     0.3333     0.3333     1.0100     0.0000     30.000    992.000 224295.000     32.507    41.5367   104.8070   -33.5292    -1.9995     0.0008    26.0000     4.0000     9.0000    22.0000    26.0000    10.0000     5.0000    20.0000     3.0007     1.0000    -0.4982    20.7738    41.5367     1.5234    14.4503    14.4503     1.7024     0.0000     1.0000     0.0392     0.000
    154     0.3333     0.3333     1.0150     0.0000     30.000   1020.000 223900.000     32.449    41.5367   104.8239   -33.6773    -1.9995     0.0008    26.0000     4.0000     9.0000    22.0000    26.0000    10.0000     5.0000    20.0000     3.0007     1.0000    -0.4982    20.7737    41.5368     1.5299    14.4503    14.4502     1.7023     0.0000     1.0000     0.0392     0.000
    155     0.3333     0.3333     1.0200     0.0000     30.000   1013.000 224430.000     32.526    41.5367   104.8408   -33.8284    -1.9995     0.0008    26.0000     4.0000     9.0000    22.0000    26.0000    10.0000     5.0000    20.0000     3.0007     1.0000    -0.4983    20.7738    41.5367     1.5366    14.4503    14.4503     1.7021     0.0000     1.0000     0.0392     0.000
    156     0.3333     0.3333     1.0251     0.0000     30.000    947.000 224450.000     32.529    41.5367   104.8554   -33.9820    -1.9995     0.0008    26.0000     4.0000     9.0000    22.0000    26.0000    10.0000     5.0000    20.0000     3.0009     1.0000    -0.4984    20.7737    41.5367     1.5434    14.4503    14.4503     1.7020     0.0000     1.0000     0.0392     0.000
    157     0.3333     0.3333     1.0301     0.0000     30.000    958.000 224147.000     32.485    41.5367   104.8699   -34.1335    -1.9995     0.0008    26.0000     4.0000     9.0000    22.0000    26.0000    10.0000     5.0000    20.0000     3.0007     1.0000    -0.4983    20.7737    41.5368     1.5501    14.4503    14.4502     1.7018     0.0000     1.0000     0.0393     0.000
    158     0.3333     0.3333     1.0350     0.0000     30.000    944.000 224520.000     32.539    41.5367   104.8826   -34.2829    -1.9995     0.0008    26.0000     4.0000     9.0000    22.0000    26.0000    10.0000     5.0000    20.0000     3.0006     1.0000    -0.4982    20.7737    41.5367     1.5566    14.4503    14.4503     1.7012     0.0000     1.0000     0.0393     0.000
    159     0.3333     0.3333     1.0400     0.0000     30.000    968.000 223187.000     32.346    41.5367   104.8960   -34.4333    -1.9995     0.0008    26.0000     4.0000     9.0000    22.0000    26.0000    10.0000     5.0000    20.0000     3.0007     1.0000    -0.4982    20.7737    41.5368     1.5633    14.4503    14.4502     1.7006     0.0000     1.0000     0.0391     0.000
    160     0.3333     0.3333     1.0450     0.0001     30.000    944.000 224066.000     32.473    41.5367   104.9071   -34.5843    -1.9995     0.0008    26.0000     4.0000     9.0000    22.0000    26.0000    10.0000     5.0000    20.0000     3.0008     1.0000    -0.4982    20.7737    41.5368     1.5699    14.4503    14.4502     1.7000     0.0000     1.0000     0.0391     0.000
    161     0.3333     0.3333     1.0499     0.0000     30.000   1040.000 224413.000     32.524    41.5367   104.9183   -34.7327    -1.9995     0.0008    26.0000     4.0000     9.0000    22.0000    26.0000    10.0000     5.0000    20.0000     3.0007     1.0000    -0.4983    20.7737    41.5367     1.5764    14.4503    14.4503     1.7002     0.0000     1.0000     0.0392     0.000
    162     0.3333     0.3333     1.0549     0.0000     30.000    959.000 224727.000     32.569    41.5367   104.9287   -34.8840    -1.9995     0.0008    26.0000     4.0000     9.0000    22.0000    26.0000    10.0000     5.0000    20.0000     3.0007     1.0000    -0.4982    20.7737    41.5367     1.5831    14.4503    14.4503     1.7015     0.0000     1.0000     0.0392     0.000
    163     0.3333     0.3333     1.0599     0.0000     30.000    945.000 224580.000     32.548    41.5367   104.9378   -35.0363    -1.9995     0.0008    26.0000     4.0000     9.0000    22.0000    26.0000    10.0000     5.0000    20.0000     3.0007     1.0000    -0.4982    20.7737    41.5368     1.5898    14.4503    14.4502     1.7034     0.0000     1.0000     0.0392     0.000
    164     0.3333     0.3333     1.0650     0.0000     30.000    996.000 224634.000     32.556    41.5367   104.9467   -35.1897    -1.9995     0.0008    26.0000     4.0000     9.0000    22.0000    26.0000    10.0000     5.0000    20.0000     3.0007     1.0000    -0.4981    20.7737    41.5367     1.5965    14.4503    14.4503     1.7046     0.0000     1.0000     0.0391     0.000
    165     0.3333     0.3333     1.0700     0.0000     30.000    913.000 224726.000     32.569    41.5367   104.9545   -35.3417    -1.9995     0.0008    26.0000     4.0000     9.0000    22.0000    26.0000    10.0000     5.0000    20.0000     3.0007     1.0000    -0.4983    20.7737    41.5368     1.6032    14.4503    14.4502     1.7056     0.0000     1.0000     0.0391     0.000
    166     0.3333     0.3333     1.0750     0.0000     30.000    941.000 223566.000     32.401    41.5367   104.9617   -35.4946    -1.9995     0.0008    26.0000     4.0000     9.0000    22.0000    26.0000    10.0000     5.0000    20.0000     3.0007     1.0000    -0.4982    20.7737    41.5367     1.6099    14.4503    14.4503     1.7066     0.0000     1.0000     0.0392     0.000
    167     0.3333     0.3333     1.0801     0.0000     30.000    929.000 224612.000     32.552    41.5367   104.9679   -35.6477    -1.9995     0.0008    26.0000     4.0000     9.0000    22.0000    26.0000    10.0000     5.0000    20.0000     3.0007     1.0000    -0.4982    20.7737    41.5367     1.6166    14.4503    14.4503     1.7074     0.0000     1.0000     0.0392     0.000
    168     0.3333     0.3333     1.0850     0.0000     30.000    969.000 223945.000     32.456    41.5367   104.9734   -35.7983    -1.9995     0.0008    26.0000     4.0000     9.0000    22.0000    26.0000    10.0000     5.0000    20.0000     3.0007     1.0000    -0.4982    20.7738    41.5367     1.6232    14.4503    14.4503     1.7082     0.0000     1.0000     0.0392     0.000
    169     0.3333     0.3333     1.0901     0.0000     30.000    935.000 224201.000     32.493    41.5367   104.9784   -35.9549    -1.9995     0.0008    26.0000     4.0000     9.0000    22.0000    26.0000    10.0000     5.0000    20.0000     3.0007     1.0000    -0.4982    20.7737    41.5367     1.6301    14.4503    14.4503     1.7089     0.0000     1.0000     0.0392     0.000
    170     0.3333     0.3333     1.0950     0.0000     30.000    954.000 224751.000     32.573    41.5367   104.9823   -36.1036    -1.9995     0.0008    26.0000     4.0000     9.0000    22.0000    26.0000    10.0000     5.0000    20.0000     3.0007     1.0000    -0.4982    20.7738    41.5367     1.6366    14.4503    14.4503     1.7092     0.0000     1.0000     0.0392     0.000
    171     0.3333     0.3333     1.1000     0.0000     30.000    973.000 224469.000     32.532    41.5367   104.9865   -36.2555    -1.9995     0.0008    26.0000     4.0000     9.0000    22.0000    26.0000    10.0000     5.0000    20.0000     3.0007     1.0000    -0.4982    20.7737    41.5368     1.6433    14.4503    14.4502     1.7080     0.0000     1.0000     0.0392     0.000
    172     0.3333     0.3333     1.1050     0.0000     30.000    917.000 223742.000     32.426    41.5367   104.9884   -36.4091    -1.9995     0.0008    26.0000     4.0000     9.0000    22.0000    26.0000    10.0000     5.0000    20.0000     3.0007     1.0000    -0.4983    20.7737    41.5367     1.6500    14.4503    14.4503     1.7066     0.0000     1.0000     0.0391     0.000
    173     0.3333     0.3333     1.1100     0.0000     30.000    952.000 225266.000     32.647    41.5367   104.9909   -36.5619    -1.9995     0.0008    26.0000     4.0000     9.0000    22.0000    26.0000    10.0000     5.0000    20.0000     3.0007     1.0000    -0.4982    20.7737    41.5368     1.6567    14.4503    14.4502     1.7054     0.0000     1.0000     0.0391     0.000
    174     0.3333     0.3333     1.1150     0.0000     30.000    970.000 225318.000     32.655    41.5367   104.9908   -36.7148    -1.9995     0.0008    26.0000     4.0000     9.0000    22.0000    26.0000    10.0000     5.0000    20.0000     3.0007     1.0000    -0.4982    20.7737    41.5367     1.6634    14.4503    14.4503     1.7043     0.0000     1.0000     0.0391     0.000
    175     0.3333     0.3333     1.1199     0.0000     30.000    980.000 223939.000     32.455    41.5367   104.9908   -36.8670    -1.9995     0.0008    26.0000     4.0000     9.0000    22.0000    26.0000    10.0000     5.0000    20.0000     3.0007     1.0000    -0.4982    20.7737    41.5367     1.6700    14.4503    14.4503     1.7035     0.0000     1.0000     0.0391     0.000
    176     0.3333     0.3333     1.1249     0.0000     30.000    949.000 224089.000     32.477    41.5367   104.9908   -37.0201    -1.9995     0.0008    26.0000     4.0000     9.0000    22.0000    26.0000    10.0000     5.0000    20.0000     3.0007     1.0000    -0.4982    20.7737    41.5367     1.6767    14.4503    14.4503     1.7028     0.0000     1.0000     0.0391     0.000
    177     0.3333     0.3333     1.1300     0.0000     30.000    909.000 224366.000     32.517    41.5367   104.9908   -37.1768    -1.9995     0.0008    26.0000     4.0000     9.0000    22.0000    26.0000    10.0000     5.0000    20.0000     3.0007     1.0000    -0.4982    20.7737    41.5367     1.6836    14.4503    14.4503     1.7024     0.0000     1.0000     0.0391     0.000
    178     0.3333     0.3333     1.1351     0.0000     30.000    963.000 224571.000     32.547    41.5367   104.9908   -37.3322    -1.9995     0.0008    26.0000     4.0000     9.0000    22.0000    26.0000    10.0000     5.0000    20.0000     3.0007     1.0000    -0.4982    20.7737    41.5367     1.6904    14.4503    14.4503     1.7020     0.0000     1.0000     0.0391     0.000
    179     0.3332     0.3332     1.1401     0.0000     30.000    921.000 224777.000     32.576    41.5367   104.9908   -37.4850    -1.9995     0.0008    26.0000     4.0000     9.0000    22.0000    26.0000    10.0000     5.0000    20.0000     3.0007     1.0000    -0.4982    20.7737    41.5367     1.6970    14.4503    14.4503     1.7018     0.0000     1.0000     0.0390     0.000
    180     0.3332     0.3332     1.1451     0.0000     30.000    976.000 223896.000     32.449    41.5367   104.9908   -37.6402    -1.9995     0.0008    26.0000     4.0000     9.0000    22.0000    26.0000    10.0000     5.0000    20.0000     3.0007     1.0000    -0.4982    20.7737    41.5367     1.7038    14.4503    14.4503     1.7016     0.0000     1.0000     0.0390     0.000
    181     0.3333     0.3333     1.1501     0.0000     30.000    988.000 224416.000     32.524    41.5367   104.9797   -37.7935    -1.9995     0.0008    26.0000     4.0000     9.0000    22.0000    26.0000    10.0000     5.0000    20.0000     3.0007     1.0000    -0.4982    20.7737    41.5367     1.7105    14.4503    14.4503     1.7014     0.0000     1.0000     0.0391     0.000
    182     0.3333     0.3333     1.1551    -0.0000     30.000    951.000 223584.000     32.403    41.5367   104.9796   -37.9477    -1.9995     0.0008    26.0000     4.0000     9.0000    22.0000    26.0000    10.0000     5.0000    20.0000     3.0007     1.0000    -0.4982    20.7737    41.5367     1.7172    14.4503    14.4503     1.7012     0.0000     1.0000     0.0391     0.000
    183     0.3332     0.3332     1.1600     0.0000     30.000    871.000 224447.000     32.529    41.5367   104.9796   -38.0995    -1.9995     0.0008    26.0000     4.0000     9.0000    22.0000    26.0000    10.0000     5.0000    20.0000     3.0007     1.0000    -0.4982    20.7737    41.5367     1.7238    14.4503    14.4503     1.7012     0.0000     1.0000     0.0390     0.000
    184     0.3333     0.3333     1.1650     0.0000     30.000    893.000 224304.000     32.508    41.5367   104.9654   -38.2538    -1.9995     0.0008    26.0000     4.0000     9.0000    22.0000    26.0000    10.0000     5.0000    20.0000     3.0007     1.0000    -0.4982    20.7737    41.5367     1.7306    14.4503    14.4503     1.7012     0.0000     1.0000     0.0390     0.000
    185     0.3332     0.3332     1.1700     0.0000     30.000    908.000 225348.000     32.659    41.5367   104.9653   -38.4092    -1.9995     0.0008    26.0000     4.0000     9.0000    22.0000    26.0000    10.0000     5.0000    20.0000     3.0007     1.0000    -0.4982    20.7737    41.5367     1.7373    14.4503    14.4503     1.7011     0.0000     1.0000     0.0391     0.000
    186     0.3333     0.3333     1.1750     0.0000     30.000    953.000 223922.000     32.452    41.5367   104.9525   -38.5658    -1.9995     0.0008    26.0000     4.0000     9.0000    22.0000    26.0000    10.0000     5.0000    20.0000     3.0007     1.0000    -0.4982    20.7737    41.5367     1.7441    14.4503    14.4503     1.7010     0.0000     1.0000     0.0391     0.000
    187     0.3332     0.3332     1.1800    -0.0000     30.000    891.000 224429.000     32.526    41.5367   104.9523   -38.7188    -1.9995     0.0008    26.0000     4.0000     9.0000    22.0000    26.0000    10.0000     5.0000    20.0000     3.0007     1.0000    -0.4982    20.7737    41.5367     1.7508    14.4503    14.4503     1.7008     0.0000     1.0000     0.0391     0.000
    188     0.3332     0.3332     1.1850     0.0002     30.000    953.000 223887.000     32.447    41.5367   104.9426   -38.8745    -1.9995     0.0008    26.0000     4.0000     9.0000    22.0000    26.0000    10.0000     5.0000    20.0000     3.0007     1.0000    -0.4983    20.7738    41.5370     1.7576    14.4503    14.4501     1.7009     0.0000     1.0000     0.0391     0.000
    189     0.3332     0.3332     1.1901     0.0001     30.000    946.000 224465.000     32.531    41.5367   104.9377   -39.0308    -1.9995     0.0008    26.0000     4.0000     9.0000    22.0000    26.0000    10.0000     5.0000    20.0000     3.0007     1.0000    -0.4982    20.7737    41.5368     1.7643    14.4503    14.4502     1.7008     0.0000     1.0000     0.0391     0.000
    190     0.3334     0.3334     1.1951     0.0000     30.000    941.000 224878.000     32.591    41.5367   104.9162   -39.1876    -1.9995     0.0008    26.0000     4.0000     9.0000    22.0000    26.0000    10.0000     5.0000    20.0000     3.0007     1.0000    -0.4982    20.7737    41.5367     1.7712    14.4503    14.4503     1.7007     0.0000     1.0000     0.0391     0.000
    191     0.3333     0.3333     1.2001     0.0000     30.000    967.000 224046.000     32.470    41.5367   104.9123   -39.3423    -1.9995     0.0008    26.0000     4.0000     9.0000    22.0000    26.0000    10.0000     5.0000    20.0000     3.0006     1.0000    -0.4984    20.7737    41.5367     1.7779    14.4503    14.4503     1.7007     0.0000     1.0000     0.0391     0.000
    192     0.3333     0.3333     1.2050     0.0000     30.000    966.000 224649.000     32.558    41.5367   104.9029   -39.4955    -1.9995     0.0008    26.0000     4.0000     9.0000    22.0000    26.0000    10.0000     5.0000    20.0000     3.0007     1.0000    -0.4983    20.7737    41.5367     1.7845    14.4503    14.4503     1.7005     0.0000     1.0000     0.0392     0.000
    193     0.3332     0.3332     1.2100     0.0002     30.000    907.000 223981.000     32.461    41.5367   104.8949   -39.6509    -1.9995     0.0008    26.0000     4.0000     9.0000    22.0000    26.0000    10.0000     5.0000    20.0000     3.0007     1.0000    -0.4983    20.7738    41.5370     1.7913    14.4503    14.4501     1.7006     0.0000     1.0000     0.0392     0.000
    194     0.3332     0.3332     1.2150     0.0000     30.000    874.000 224841.000     32.586    41.5367   104.8864   -39.8064    -1.9995     0.0008    26.0000     4.0000     9.0000    22.0000    26.0000    10.0000     5.0000    20.0000     3.0007     1.0000    -0.4983    20.7737    41.5367     1.7980    14.4503    14.4503     1.7005     0.0000     1.0000     0.0391     0.000
    195     0.3334     0.3334     1.2200     0.0000     30.000    986.000 224576.000     32.547    41.5367   104.8646   -39.9627    -1.9995     0.0008    26.0000     4.0000     9.0000    22.0000    26.0000    10.0000     5.0000    20.0000     3.0007     1.0000    -0.4982    20.7737    41.5367     1.8048    14.4503    14.4503     1.7005     0.0000     1.0000     0.0391     0.000
    196     0.3333     0.3333     1.2249     0.0000     30.000    880.000 224485.000     32.534    41.5367   104.8559   -40.1178    -1.9995     0.0008    26.0000     4.0000     9.0000    22.0000    26.0000    10.0000     5.0000    20.0000     3.0007     1.0000    -0.4983    20.7737    41.5367     1.8115    14.4503    14.4503     1.7005     0.0000     1.0000     0.0391     0.000
    197     0.3333     0.3334     1.2300     0.0000     30.000    902.000 224439.000     32.527    41.5367   104.8398   -40.2750    -1.9995     0.0008    26.0000     4.0000     9.0000    22.0000    26.0000    10.0000     5.0000    20.0000     3.0007     1.0000    -0.4985    20.7737    41.5367     1.8183    14.4503    14.4503     1.7004     0.0000     1.0000     0.0391     0.000
    198     0.3333     0.3333     1.2350     0.0001     30.000    874.000 224409.000     32.523    41.5367   104.8276   -40.4329    -1.9995     0.0008    26.0000     4.0000     9.0000    22.0000    26.0000    10.0000     5.0000    20.0000     3.0007     1.0000    -0.4982    20.7738    41.5369     1.8251    14.4503    14.4501     1.7004     0.0000     1.0000     0.0392     0.000
    199     0.3333     0.3333     1.2400     0.0001     30.000    944.000 223954.000     32.457    41.5367   104.8148   -40.5878    -1.9995     0.0008    26.0000     4.0000     9.0000    22.0000    26.0000    10.0000     5.0000    20.0000     3.0007     1.0000    -0.4983    20.7737    41.5368     1.8318    14.4503    14.4502     1.7003     0.0000     1.0000     0.0391     0.000
    200     0.3333     0.3333     1.2451     0.0001     30.000    872.000 223699.000     32.420    41.5367   104.7983   -40.7485    -1.9995     0.0008    26.0000     4.0000     9.0000    22.0000    26.0000    10.0000     5.0000    20.0000     3.0007     1.0000    -0.4983    20.7737    41.5369     1.8388    14.4503    14.4502     1.7004     0.0000     1.0000     0.0391     0.000
    201     0.3333     0.3333     1.2500     0.0002     30.000    960.000 224414.000     32.524    41.5367   104.7857   -40.9029    -1.9995     0.0008    26.0000     4.0000     9.0000    22.0000    26.0000    10.0000     5.0000    20.0000     3.0007     1.0000    -0.4984    20.7737    41.5369     1.8454    14.4503    14.4501     1.7004     0.0000     1.0000     0.0391     0.000
    202     0.3333     0.3333     1.2550     0.0001     30.000    949.000 223977.000     32.460    41.5367   104.7673   -41.0607    -1.9995     0.0008    26.0000     4.0000     9.0000    22.0000    26.0000    10.0000     5.0000    20.0000     3.0007     1.0000    -0.4984    20.7737    41.5368     1.8523    14.4503    14.4502     1.7003     0.0000     1.0000     0.0391     0.000
    203     0.3332     0.3332     1.2600     0.0002     30.000    883.000 224337.000     32.513    41.5367   104.7573   -41.2147    -1.9995     0.0008    26.0000     4.0000     9.0000    22.0000    26.0000    10.0000     5.0000    20.0000     3.0007     1.0000    -0.4984    20.7736    41.5369     1.8589    14.4503    14.4501     1.7003     0.0000     1.0000     0.0390     0.000
    204     0.3333     0.3333     1.2649     0.0000     30.000    936.000 225135.000     32.628    41.5367   104.7349   -41.3715    -1.9995     0.0008    26.0000     4.0000     9.0000    22.0000    26.0000    10.0000     5.0000    20.0000     3.0007     1.0000    -0.4982    20.7737    41.5367     1.8657    14.4503    14.4503     1.7003     0.0000     1.0000     0.0390     0.000
    205     0.3333     0.3333     1.2699     0.0002     30.000    888.000 224454.000     32.530    41.5367   104.7198   -41.5281    -1.9995     0.0008    26.0000     4.0000     9.0000    22.0000    26.0000    10.0000     5.0000    20.0000     3.0007     1.0000    -0.4983    20.7737    41.5370     1.8724    14.4503    14.4501     1.7003     0.0000     1.0000     0.0391     0.000
    206     0.3333     0.3333     1.2750    -0.0000     30.000    897.000 223826.000     32.439    41.5367   104.7011   -41.6881    -1.9995     0.0008    26.0000     4.0000     9.0000    22.0000    26.0000    10.0000     5.0000    20.0000     3.0006     1.0000    -0.4983    20.7737    41.5367     1.8793    14.4503    14.4503     1.7003     0.0000     1.0000     0.0391     0.000
    207     0.3333     0.3333     1.2800     0.0001     30.000    912.000 224693.000     32.564    41.5367   104.6825   -41.8454    -1.9995     0.0008    26.0000     4.0000     9.0000    22.0000    26.0000    10.0000     5.0000    20.0000     3.0007     1.0000    -0.4983    20.7737    41.5369     1.8861    14.4503    14.4502     1.7003     0.0000     1.0000     0.0393     0.000
    208     0.3333     0.3333     1.2850     0.0001     30.000    870.000 223398.000     32.377    41.5367   104.6645   -42.0037    -1.9995     0.0008    26.0000     4.0000     9.0000    22.0000    26.0000    10.0000     5.0000    20.0000     3.0007     1.0000    -0.4984    20.7736    41.5369     1.8929    14.4503    14.4501     1.7002     0.0000     1.0000     0.0393     0.000
    209     0.3333     0.3333     1.2901     0.0002     30.000    892.000 223802.000     32.435    41.5367   104.6452   -42.1644    -1.9995     0.0008    26.0000     4.0000     9.0000    22.0000    26.0000    10.0000     5.0000    20.0000     3.0007     1.0000    -0.4984    20.7737    41.5369     1.8998    14.4503    14.4501     1.7002     0.0000     1.0000     0.0391     0.000
    210     0.3333     0.3333     1.2951     0.0002     30.000    926.000 223430.000     32.381    41.5367   104.6259   -42.3226    -1.9995     0.0008    26.0000     4.0000     9.0000    22.0000    26.0000    10.0000     5.0000    20.0000     3.0006     1.0000    -0.4984    20.7736    41.5370     1.9066    14.4503    14.4501     1.7002     0.0000     1.0000     0.0392     0.000
    211     0.3333     0.3333     1.3000    -0.0000     30.000    862.000 223740.000     32.426    41.5367   104.6064   -42.4787    -1.9995     0.0008    26.0000     4.0000     9.0000    22.0000    26.0000    10.0000     5.0000    20.0000     3.0006     1.0000    -0.4984    20.7737    41.5367     1.9133    14.4503    14.4503     1.7002     0.0000     1.0000     0.0392     0.000
    212     0.3332     0.3332     1.3051    -0.0000     30.000    892.000 224162.000     32.487    41.5367   104.5888   -42.6394    -1.9995     0.0008    26.0000     4.0000     9.0000    22.0000    26.0000    10.0000     5.0000    20.0000     3.0006     1.0000    -0.4984    20.7737    41.5367     1.9202    14.4503    14.4503     1.7001     0.0000     1.0000     0.0390     0.000
    213     0.3332     0.3332     1.3101     0.0001     30.000    908.000 224944.000     32.601    41.5367   104.5661   -42.7960    -1.9995     0.0008    26.0000     4.0000     9.0000    22.0000    26.0000    10.0000     5.0000    20.0000     3.0006     1.0000    -0.4984    20.7738    41.5368     1.9269    14.4503    14.4502     1.7000     0.0000     1.0000     0.0390     0.000
    214     0.3332     0.3332     1.3150     0.0001     30.000    885.000 224001.000     32.464    41.5367   104.5454   -42.9528    -1.9995     0.0008    26.0000     4.0000     9.0000    22.0000    26.0000    10.0000     5.0000    20.0000     3.0006     1.0000    -0.4985    20.7737    41.5369     1.9337    14.4503    14.4501     1.7004     0.0000     1.0000     0.0391     0.000
    215     0.3332     0.3332     1.3200    -0.0000     30.000    889.000 224097.000     32.478    41.5367   104.5226   -43.1094    -1.9995     0.0008    26.0000     4.0000     9.0000    22.0000    26.0000    10.0000     5.0000    20.0000     3.0006     1.0000    -0.4984    20.7737    41.5367     1.9404    14.4503    14.4503     1.7017     0.0000     1.0000     0.0391     0.000
    216     0.3331     0.3331     1.3250     0.0001     30.000    881.000 225199.000     32.638    41.5367   104.5042   -43.2692    -1.9995     0.0008    26.0000     4.0000     9.0000    22.0000    26.0000    10.0000     5.0000    20.0000     3.0006     1.0000    -0.4984    20.7737    41.5368     1.9472    14.4503    14.4502     1.7026     0.0000     1.0000     0.0390     0.000
    217     0.3332     0.3332     1.3300     0.0001     30.000    905.000 224318.000     32.510    41.5367   104.4777   -43.4272    -1.9995     0.0009    26.0000     4.0000     9.0000    22.0000    26.0000    10.0000     5.0000    20.0000     3.0006     1.0000    -0.4984    20.7737    41.5369     1.9540    14.4503    14.4502     1.7032     0.0000     1.0000     0.0390     0.000
    218     0.3332     0.3332     1.3350     0.0002     30.000    880.000 224243.000     32.499    41.5367   104.4535   -43.5871    -1.9995     0.0008    26.0000     4.0000     9.0000    22.0000    26.0000    10.0000     5.0000    20.0000     3.0006     1.0000    -0.4984    20.7736    41.5370     1.9608    14.4503    14.4501     1.7038     0.0000     1.0000     0.0391     0.000
    219     0.3332     0.3332     1.3400     0.0001     30.000    894.000 224725.000     32.569    41.5367   104.4287   -43.7471    -1.9995     0.0008    26.0000     4.0000     9.0000    22.0000    26.0000    10.0000     5.0000    20.0000     3.0006     1.0000    -0.4985    20.7737    41.5368     1.9677    14.4503    14.4502     1.7043     0.0000     1.0000     0.0390     0.000
    220     0.3332     0.3332     1.3451     0.0000     30.000    900.000 225091.000     32.622    41.5367   104.4068   -43.9080    -1.9995     0.0009    26.0000     4.0000     9.0000    22.0000    26.0000    10.0000     5.0000    20.0000     3.0006     1.0000    -0.4984    20.7737    41.5367     1.9746    14.4503    14.4503     1.7047     0.0000     1.0000     0.0390     0.000
    221     0.3332     0.3332     1.3501     0.0000     30.000    927.000 224011.000     32.465    41.5367   104.3801   -44.0691    -1.9995     0.0008    26.0000     4.0000     9.0000    22.0000    26.0000    10.0000     5.0000    20.0000     3.0006     1.0000    -0.4985    20.7737    41.5367     1.9814    14.4503    14.4503     1.7050     0.0000     1.0000     0.0390     0.000
    222     0.3332     0.3332     1.3551     0.0000     30.000    907.000 224324.000     32.511    41.5367   104.3537   -44.2280    -1.9995     0.0009    26.0000     4.0000     9.0000    22.0000    26.0000    10.0000     5.0000    20.0000     3.0006     1.0000    -0.4986    20.7737    41.5367     1.9882    14.4503    14.4503     1.7051     0.0000     1.0000     0.0390     0.000
    223     0.3332     0.3332     1.3601     0.0000     30.000    891.000 223849.000     32.442    41.5367   104.3309   -44.3864    -1.9995     0.0008    26.0000     4.0000     9.0000    22.0000    26.0000    10.0000     5.0000    20.0000     3.0006     1.0000    -0.4985    20.7737    41.5367     1.9950    14.4503    14.4503     1.7053     0.0000     1.0000     0.0390     0.000
    224     0.3332     0.3332     1.3651    -0.0000     30.000    914.000 224173.000     32.489    41.5367   104.3047   -44.5459    -1.9995     0.0009    26.0000     4.0000     9.0000    22.0000    26.0000    10.0000     5.0000    20.0000     3.0006     1.0000    -0.4985    20.7737    41.5367     2.0018    14.4503    14.4503     1.7054     0.0000     1.0000     0.0390     0.000
    225     0.3332     0.3332     1.3700    -0.0000     30.000    890.000 224719.000     32.568    41.5367   104.2757   -44.7040    -1.9995     0.0008    26.0000     4.0000     9.0000    22.0000    26.0000    10.0000     5.0000    20.0000     3.0006     1.0000    -0.4986    20.7737    41.5367     2.0085    14.4503    14.4503     1.7055     0.0000     1.0000     0.0389     0.000
    226     0.3332     0.3332     1.3750     0.0000     30.000    871.000 224324.000     32.511    41.5367   104.2483   -44.8651    -1.9995     0.0009    26.0000     4.0000     9.0000    22.0000    26.0000    10.0000     5.0000    20.0000     3.0006     1.0000    -0.4984    20.7737    41.5367     2.0154    14.4503    14.4503     1.7057     0.0000     1.0000     0.0389     0.000
    227     0.3332     0.3332     1.3800     0.0001     30.000    925.000 224282.000     32.505    41.5367   104.2241   -45.0254    -1.9995     0.0009    26.0000     4.0000     9.0000    22.0000    26.0000    10.0000     5.0000    20.0000     3.0006     1.0000    -0.4985    20.7736    41.5368     2.0222    14.4503    14.4502     1.7057     0.0000     1.0000     0.0390     0.000
    228     0.3332     0.3332     1.3850     0.0002     30.000    909.000 224463.000     32.531    41.5367   104.1929   -45.1859    -1.9995     0.0009    26.0000     4.0000     9.0000    22.0000    26.0000    10.0000     5.0000    20.0000     3.0006     1.0000    -0.4985    20.7738    41.5370     2.0291    14.4503    14.4501     1.7059     0.0000     1.0000     0.0390     0.000
    229     0.3332     0.3332     1.3900     0.0001     30.000    862.000 224625.000     32.554    41.5367   104.1644   -45.3457    -1.9995     0.0009    26.0000     4.0000     9.0000    22.0000    26.0000    10.0000     5.0000    20.0000     3.0006     1.0000    -0.4985    20.7737    41.5368     2.0359    14.4503    14.4502     1.7059     0.0000     1.0000     0.0389     0.000
    230     0.3332     0.3332     1.3950     0.0000     30.000    868.000 224785.000     32.578    41.5367   104.1362   -45.5077    -1.9995     0.0009    26.0000     4.0000     9.0000    22.0000    26.0000    10.0000     5.0000    20.0000     3.0006     1.0000    -0.4984    20.7737    41.5367     2.0428    14.4503    14.4503     1.7061     0.0000     1.0000     0.0389     0.000
    231     0.3332     0.3332     1.4001     0.0000     30.000    867.000 224739.000     32.571    41.5367   104.1090   -45.6693    -1.9995     0.0008    26.0000     4.0000     9.0000    22.0000    26.0000    10.0000     5.0000    20.0000     3.0006     1.0000    -0.4986    20.7737    41.5367     2.0496    14.4503    14.4503     1.7061     0.0000     1.0000     0.0389     0.000
    232     0.3332     0.3332     1.4051     0.0000     30.000    905.000 225083.000     32.621    41.5367   104.0775   -45.8302    -1.9995     0.0009    26.0000     4.0000     9.0000    22.0000    26.0000    10.0000     5.0000    20.0000     3.0006     1.0000    -0.4985    20.7737    41.5367     2.0565    14.4503    14.4503     1.7061     0.0000     1.0000     0.0389     0.000
    233     0.3332     0.3333     1.4100     0.0000     30.000    894.000 225185.000     32.636    41.5367   104.0464   -45.9902    -1.9995     0.0009    26.0000     4.0000     9.0000    22.0000    26.0000    10.0000     5.0000    20.0000     3.0006     1.0000    -0.4985    20.7737    41.5367     2.0632    14.4503    14.4503     1.7061     0.0000     1.0000     0.0389     0.000
    234     0.3332     0.3332     1.4150     0.0000     30.000    865.000 224591.000     32.549    41.5367   104.0187   -46.1495    -1.9995     0.0009    26.0000     4.0000     9.0000    22.0000    26.0000    10.0000     5.0000    20.0000     3.0006     1.0000    -0.4985    20.7737    41.5367     2.0700    14.4503    14.4503     1.7061     0.0000     1.0000     0.0389     0.000
    235     0.3332     0.3332     1.4200     0.0000     30.000    855.000 224352.000     32.515    41.5367   103.9899   -46.3102    -1.9995     0.0009    26.0000     4.0000     9.0000    22.0000    26.0000    10.0000     5.0000    20.0000     3.0006     1.0000    -0.4985    20.7737    41.5367     2.0768    14.4503    14.4503     1.7061     0.0000     1.0000     0.0389     0.000
    236     0.3332     0.3332     1.4250     0.0000     30.000    875.000 224795.000     32.579    41.5367   103.9554   -46.4715    -1.9995     0.0009    26.0000     4.0000     9.0000    22.0000    26.0000    10.0000     5.0000    20.0000     3.0006     1.0000    -0.4985    20.7737    41.5367     2.0836    14.4503    14.4503     1.7061     0.0000     1.0000     0.0390     0.000
    237     0.3332     0.3332     1.4300    -0.0000     30.000    854.000 224974.000     32.605    41.5367   103.9262   -46.6329    -1.9995     0.0009    26.0000     4.0000     9.0000    22.0000    26.0000    10.0000     5.0000    20.0000     3.0006     1.0000    -0.4985    20.7737    41.5367     2.0905    14.4503    14.4503     1.7061     0.0000     1.0000     0.0390     0.000
    238     0.3332     0.3332     1.4351     0.0000     30.000    904.000 225129.000     32.627    41.5367   103.8948   -46.7975    -1.9995     0.0009    26.0000     4.0000     9.0000    22.0000    26.0000    10.0000     5.0000    20.0000     3.0006     1.0000    -0.4986    20.7737    41.5367     2.0974    14.4503    14.4503     1.7061     0.0000     1.0000     0.0391     0.000
    239     0.3332     0.3332     1.4400     0.0001     30.000    892.000 225649.000     32.703    41.5367   103.8602   -46.9573    -1.9995     0.0009    26.0000     4.0000     9.0000    22.0000    26.0000    10.0000     5.0000    20.0000     3.0006     1.0000    -0.4985    20.7737    41.5368     2.1042    14.4503    14.4502     1.7061     0.0000     1.0000     0.0391     0.000
    240     0.3332     0.3332     1.4450     0.0001     30.000    885.000 224234.000     32.498    41.5367   103.8256   -47.1212    -1.9995     0.0009    26.0000     4.0000     9.0000    22.0000    26.0000    10.0000     5.0000    20.0000     3.0006     1.0000    -0.4986    20.7737    41.5368     2.1111    14.4503    14.4502     1.7061     0.0000     1.0000     0.0390     0.000
    241     0.3333     0.3333     1.4501     0.0003     30.000    943.000 225005.000     32.609    41.5367   103.7888   -47.2845    -1.9995     0.0009    26.0000     4.0000     9.0000    22.0000    26.0000    10.0000     5.0000    20.0000     3.0006     1.0000    -0.4987    20.7737    41.5371     2.1180    14.4503    14.4500     1.7060     0.0000     1.0000     0.0391     0.000
    242     0.3333     0.3333     1.4551     0.0001     30.000    877.000 224979.000     32.606    41.5367   103.7579   -47.4473    -1.9995     0.0009    26.0000     4.0000     9.0000    22.0000    26.0000    10.0000     5.0000    20.0000     3.0006     1.0000    -0.4985    20.7737    41.5368     2.1249    14.4503    14.4502     1.7059     0.0000     1.0000     0.0391     0.000
    243     0.3332     0.3332     1.4600     0.0001     30.000    859.000 224964.000     32.603    41.5367   103.7258   -47.6078    -1.9995     0.0009    26.0000     4.0000     9.0000    22.0000    26.0000    10.0000     5.0000    20.0000     3.0006     1.0000    -0.4985    20.7737    41.5368     2.1317    14.4503    14.4502     1.7058     0.0000     1.0000     0.0390     0.000
    244     0.3332     0.3332     1.4650     0.0001     30.000    947.000 223969.000     32.459    41.5367   103.6934   -47.7681    -1.9995     0.0009    26.0000     4.0000     9.0000    22.0000    26.0000    10.0000     5.0000    20.0000     3.0005     1.0000    -0.4986    20.7737    41.5368     2.1384    14.4503    14.4502     1.7057     0.0000     1.0000     0.0390     0.000
    245     0.3332     0.3332     1.4699     0.0000     30.000    900.000 224837.000     32.585    41.5367   103.6597   -47.9294    -1.9995     0.0009    26.0000     4.0000     9.0000    22.0000    26.0000    10.0000     5.0000    20.0000     3.0005     1.0000    -0.4986    20.7737    41.5368     2.1452    14.4503    14.4502     1.7057     0.0000     1.0000     0.0390     0.000
    246     0.3331     0.3331     1.4750     0.0000     30.000    912.000 224845.000     32.586    41.5367   103.6271   -48.0927    -1.9995     0.0009    26.0000     4.0000     9.0000    22.0000    26.0000    10.0000     5.0000    20.0000     3.0006     1.0000    -0.4985    20.7737    41.5368     2.1521    14.4503    14.4502     1.7058     0.0000     1.0000     0.0390     0.000
    247     0.3332     0.3332     1.4800     0.0000     30.000    969.000 225099.000     32.623    41.5367   103.5873   -48.2559    -1.9995     0.0009    26.0000     4.0000     9.0000    22.0000    26.0000    10.0000     5.0000    20.0000     3.0006     1.0000    -0.4986    20.7737    41.5367     2.1590    14.4503    14.4503     1.7058     0.0000     1.0000     0.0391     0.000
    248     0.3331     0.3331     1.4850     0.0000     30.000   1034.000 224121.000     32.481    41.5367   103.5558   -48.4210    -1.9995     0.0009    26.0000     4.0000     9.0000    22.0000    26.0000    10.0000     5.0000    20.0000     3.0005     1.0000    -0.4986    20.7737    41.5367     2.1659    14.4503    14.4503     1.7058     0.0000     1.0000     0.0391     0.000
    249     0.3332     0.3332     1.4900     0.0000     30.000   1153.000 225472.000     32.677    41.5367   103.5178   -48.5837    -1.9995     0.0009    26.0000     4.0000     9.0000    22.0000    26.0000    10.0000     5.0000    20.0000     3.0005     1.0000    -0.4985    20.7737    41.5367     2.1727    14.4503    14.4503     1.7057     0.0000     1.0000     0.0390     0.000
    250     0.3332     0.3332     1.4951     0.0000     30.000   1367.000 226154.000     32.776    41.5367   103.4786   -48.7498    -1.9995     0.0009    26.0000     4.0000     9.0000    22.0000    26.0000    10.0000     5.0000    20.0000     3.0005     1.0000    -0.4986    20.7737    41.5367     2.1797    14.4503    14.4503     1.7057     0.0000     1.0000     0.0390     0.000
    251     0.3331     0.3332     1.5001     0.0000     30.000   1413.000 224561.000     32.545    41.5367   103.4456   -48.9114    -1.9995     0.0009    26.0000     4.0000     9.0000    22.0000    26.0000    10.0000     5.0000    20.0000     3.0006     1.0000    -0.4986    20.7737    41.5367     2.1865    14.4503    14.4503     1.7056     0.0000     1.0000     0.0389     0.000
    252     0.3331     0.3331     1.5052     0.0000     30.000   1282.000 224166.000     32.488    41.5367   103.4094   -49.0783    -1.9995     0.0009    26.0000     4.0000     9.0000    22.0000    26.0000    10.0000     5.0000    20.0000     3.0005     1.0000    -0.4987    20.7737    41.5367     2.1935    14.4503    14.4503     1.7055     0.0000     1.0000     0.0390     0.000
    253     0.3331     0.3332     1.5101     0.0000     30.000   1148.000 224656.000     32.559    41.5367   103.3707   -49.2408    -1.9995     0.0009    26.0000     4.0000     9.0000    22.0000    26.0000    10.0000     5.0000    20.0000     3.0005     1.0000    -0.4986    20.7737    41.5367     2.2003    14.4503    14.4503     1.7055     0.0000     1.0000     0.0390     0.000
    254     0.3332     0.3332     1.5151     0.0000     30.000   1083.000 224194.000     32.492    41.5367   103.3324   -49.4032    -1.9995     0.0009    26.0000     4.0000     9.0000    22.0000    26.0000    10.0000     5.0000    20.0000     3.0005     1.0000    -0.4986    20.7737    41.5367     2.2071    14.4503    14.4503     1.7054     0.0000     1.0000     0.0389     0.000
    255     0.3331     0.3331     1.5200    -0.0000     30.000    918.000 224899.000     32.594    41.5367   103.2961   -49.5649    -1.9995     0.0009    26.0000     4.0000     9.0000    22.0000    26.0000    10.0000     5.0000    20.0000     3.0005     1.0000    -0.4986    20.7737    41.5367     2.2139    14.4503    14.4503     1.7054     0.0000     1.0000     0.0389     0.000
    256     0.3332     0.3332     1.5250    -0.0000     30.000    980.000 224955.000     32.602    41.5367   103.2564   -49.7291    -1.9995     0.0009    26.0000     4.0000     9.0000    22.0000    26.0000    10.0000     5.0000    20.0000     3.0005     1.0000    -0.4986    20.7737    41.5367     2.2208    14.4503    14.4503     1.7053     0.0000     1.0000     0.0391     0.000
    257     0.3333     0.3333     1.5299     0.0002     30.000    970.000 224084.000     32.476    41.5367   103.2100   -49.8931    -1.9995     0.0009    26.0000     4.0000     9.0000    22.0000    26.0000    10.0000     5.0000    20.0000     3.0006     1.0000    -0.4986    20.7737    41.5369     2.2276    14.4503    14.4501     1.7054     0.0000     1.0000     0.0391     0.000
    258     0.3332     0.3332     1.5350     0.0002     30.000    924.000 223770.000     32.430    41.5367   103.1758   -50.0585    -1.9995     0.0009    26.0000     4.0000     9.0000    22.0000    26.0000    10.0000     5.0000    20.0000     3.0006     1.0000    -0.4986    20.7738    41.5369     2.2345    14.4503    14.4501     1.7054     0.0000     1.0000     0.0389     0.000
    259     0.3333     0.3333     1.5400     0.0000     30.000    849.000 223884.000     32.447    41.5367   103.1313   -50.2235    -1.9995     0.0009    26.0000     4.0000     9.0000    22.0000    26.0000    10.0000     5.0000    20.0000     3.0005     1.0000    -0.4988    20.7737    41.5367     2.2414    14.4503    14.4503     1.7054     0.0000     1.0000     0.0389     0.000
    260     0.3332     0.3332     1.5450     0.0001     30.000    919.000 224815.000     32.582    41.5367   103.0962   -50.3893    -1.9995     0.0009    26.0000     4.0000     9.0000    22.0000    26.0000    10.0000     5.0000    20.0000     3.0005     1.0000    -0.4986    20.7737    41.5368     2.2483    14.4503    14.4502     1.7053     0.0000     1.0000     0.0389     0.000
    261     0.3332     0.3332     1.5501     0.0002     30.000    902.000 224851.000     32.587    41.5367   103.0572   -50.5547    -1.9995     0.0009    26.0000     4.0000     9.0000    22.0000    26.0000    10.0000     5.0000    20.0000     3.0005     1.0000    -0.4986    20.7737    41.5370     2.2552    14.4503    14.4501     1.7051     0.0000     1.0000     0.0389     0.000
    262     0.3333     0.3333     1.5551     0.0000     30.000    867.000 224057.000     32.472    41.5367   103.0111   -50.7212    -1.9995     0.0009    26.0000     4.0000     9.0000    22.0000    26.0000    10.0000     5.0000    20.0000     3.0005     1.0000    -0.4988    20.7737    41.5367     2.2622    14.4503    14.4503     1.7050     0.0000     1.0000     0.0389     0.000
    263     0.3332     0.3332     1.5600    -0.0000     30.000    950.000 223859.000     32.443    41.5367   102.9750   -50.8841    -1.9995     0.0009    26.0000     4.0000     9.0000    22.0000    26.0000    10.0000     5.0000    20.0000     3.0005     1.0000    -0.4987    20.7737    41.5367     2.2689    14.4503    14.4503     1.7050     0.0000     1.0000     0.0388     0.000
    264     0.3333     0.3333     1.5650     0.0003     30.000    930.000 224802.000     32.580    41.5367   102.9293   -51.0503    -1.9995     0.0009    26.0000     4.0000     9.0000    22.0000    26.0000    10.0000     5.0000    20.0000     3.0005     1.0000    -0.4987    20.7737    41.5371     2.2758    14.4503    14.4500     1.7050     0.0000     1.0000     0.0388     0.000
    265     0.3332     0.3332     1.5700     0.0001     30.000    897.000 224504.000     32.537    41.5367   102.8953   -51.2128    -1.9995     0.0009    26.0000     4.0000     9.0000    22.0000    26.0000    10.0000     5.0000    20.0000     3.0005     1.0000    -0.4986    20.7737    41.5368     2.2826    14.4503    14.4502     1.7050     0.0000     1.0000     0.0388     0.000
    266     0.3331     0.3331     1.5750     0.0001     30.000    869.000 225239.000     32.643    41.5367   102.8553   -51.3789    -1.9995     0.0009    26.0000     4.0000     9.0000    22.0000    26.0000    10.0000     5.0000    20.0000     3.0005     1.0000    -0.4987    20.7737    41.5368     2.2895    14.4503    14.4502     1.7049     0.0000     1.0000     0.0388     0.000
    267     0.3333     0.3333     1.5800     0.0000     30.000    919.000 224705.000     32.566    41.5367   102.8044   -51.5457    -1.9995     0.0009    26.0000     4.0000     9.0000    22.0000    26.0000    10.0000     5.0000    20.0000     3.0005     1.0000    -0.4987    20.7737    41.5368     2.2964    14.4503    14.4502     1.7049     0.0000     1.0000     0.0389     0.000
    268     0.3332     0.3332     1.5851     0.0000     30.000    894.000 224391.000     32.520    41.5367   102.7677   -51.7127    -1.9995     0.0009    26.0000     4.0000     9.0000    22.0000    26.0000    10.0000     5.0000    20.0000     3.0005     1.0000    -0.4987    20.7737    41.5367     2.3034    14.4503    14.4503     1.7049     0.0000     1.0000     0.0389     0.000
    269     0.3333     0.3333     1.5900     0.0000     30.000    900.000 224601.000     32.551    41.5367   102.7193   -51.8764    -1.9995     0.0009    26.0000     4.0000     9.0000    22.0000    26.0000    10.0000     5.0000    20.0000     3.0005     1.0000    -0.4987    20.7737    41.5367     2.3102    14.4503    14.4503     1.7049     0.0000     1.0000     0.0389     0.000
    270     0.3332     0.3332     1.5950     0.0000     30.000    871.000 223826.000     32.439    41.5367   102.6828   -52.0434    -1.9995     0.0009    26.0000     4.0000     9.0000    22.0000    26.0000    10.0000     5.0000    20.0000     3.0005     1.0000    -0.4987    20.7737    41.5367     2.3171    14.4503    14.4503     1.7049     0.0000     1.0000     0.0389     0.000
    271     0.3333     0.3333     1.6001     0.0000     30.000    829.000 224656.000     32.559    41.5367   102.6325   -52.2116    -1.9995     0.0009    26.0000     4.0000     9.0000    22.0000    26.0000    10.0000     5.0000    20.0000     3.0005     1.0000    -0.4988    20.7737    41.5367     2.3240    14.4503    14.4503     1.7048     0.0000     1.0000     0.0389     0.000
    272     0.3333     0.3333     1.6051     0.0000     30.000    892.000 224834.000     32.585    41.5367   102.5897   -52.3782    -1.9995     0.0009    26.0000     4.0000     9.0000    22.0000    26.0000    10.0000     5.0000    20.0000     3.0005     1.0000    -0.4988    20.7737    41.5367     2.3309    14.4503    14.4503     1.7047     0.0000     1.0000     0.0389     0.000
    273     0.3332     0.3332     1.6101     0.0000     30.000    929.000 225084.000     32.621    41.5367   102.5509   -52.5443    -1.9995     0.0009    26.0000     4.0000     9.0000    22.0000    26.0000    10.0000     5.0000    20.0000     3.0005     1.0000    -0.4987    20.7737    41.5367     2.3378    14.4503    14.4503     1.7047     0.0000     1.0000     0.0390     0.000
    274     0.3333     0.3333     1.6149     0.0000     30.000    938.000 223920.000     32.452    41.5367   102.5017   -52.7076    -1.9995     0.0009    26.0000     4.0000     9.0000    22.0000    26.0000    10.0000     5.0000    20.0000     3.0005     1.0000    -0.4988    20.7737    41.5367     2.3445    14.4503    14.4503     1.7047     0.0000     1.0000     0.0390     0.000
    275     0.3333     0.3334     1.6199     0.0002     30.000    945.000 224266.000     32.502    41.5367   102.4563   -52.8736    -1.9995     0.0009    26.0000     4.0000     9.0000    22.0000    26.0000    10.0000     5.0000    20.0000     3.0005     1.0000    -0.4986    20.7737    41.5370     2.3514    14.4503    14.4501     1.7046     0.0000     1.0000     0.0389     0.000
    276     0.3333     0.3334     1.6249     0.0000     30.000    907.000 224968.000     32.604    41.5367   102.4117   -53.0412    -1.9995     0.0009    26.0000     4.0000     9.0000    22.0000    26.0000    10.0000     5.0000    20.0000     3.0005     1.0000    -0.4986    20.7738    41.5367     2.3583    14.4503    14.4503     1.7045     0.0000     1.0000     0.0390     0.000
    277     0.3332     0.3332     1.6300     0.0000     30.000    953.000 224730.000     32.570    41.5367   102.3728   -53.2103    -1.9995     0.0009    26.0000     4.0000     9.0000    22.0000    26.0000    10.0000     5.0000    20.0000     3.0005     1.0000    -0.4987    20.7738    41.5367     2.3653    14.4503    14.4503     1.7044     0.0000     1.0000     0.0390     0.000
    278     0.3333     0.3333     1.6350     0.0000     30.000    972.000 223523.000     32.395    41.5367   102.3215   -53.3774    -1.9995     0.0009    26.0000     4.0000     9.0000    22.0000    26.0000    10.0000     5.0000    20.0000     3.0005     1.0000    -0.4986    20.7738    41.5367     2.3722    14.4503    14.4503     1.7044     0.0000     1.0000     0.0388     0.000
    279     0.3331     0.3331     1.6400     0.0002     30.000   1009.000 223719.000     32.423    41.5367   102.2844   -53.5443    -1.9995     0.0009    26.0000     4.0000     9.0000    22.0000    26.0000    10.0000     5.0000    20.0000     3.0005     1.0000    -0.4987    20.7737    41.5369     2.3790    14.4503    14.4501     1.7043     0.0000     1.0000     0.0388     0.000
    280     0.3333     0.3333     1.6450     0.0003     30.000   1028.000 224244.000     32.499    41.5367   102.2292   -53.7144    -1.9995     0.0009    26.0000     4.0000     9.0000    22.0000    26.0000    10.0000     5.0000    20.0000     3.0005     1.0000    -0.4987    20.7737    41.5371     2.3860    14.4503    14.4500     1.7042     0.0000     1.0000     0.0388     0.000
    281     0.3333     0.3333     1.6500     0.0001     30.000   1040.000 224816.000     32.582    41.5367   102.1833   -53.8820    -1.9995     0.0009    26.0000     4.0000     9.0000    22.0000    26.0000    10.0000     5.0000    20.0000     3.0005     1.0000    -0.4988    20.7738    41.5368     2.3929    14.4503    14.4502     1.7041     0.0000     1.0000     0.0388     0.000
    282     0.3333     0.3333     1.6551     0.0001     30.000   1092.000 224541.000     32.542    41.5367   102.1369   -54.0509    -1.9995     0.0009    26.0000     4.0000     9.0000    22.0000    26.0000    10.0000     5.0000    20.0000     3.0005     1.0000    -0.4987    20.7738    41.5368     2.3999    14.4503    14.4502     1.7040     0.0000     1.0000     0.0388     0.000
    283     0.3332     0.3332     1.6600     0.0000     30.000   1098.000 224908.000     32.595    41.5367   102.0963   -54.2166    -1.9995     0.0009    26.0000     4.0000     9.0000    22.0000    26.0000    10.0000     5.0000    20.0000     3.0005     1.0000    -0.4988    20.7738    41.5368     2.4067    14.4503    14.4502     1.7040     0.0000     1.0000     0.0388     0.000
    284     0.3332     0.3332     1.6650     0.0000     30.000   1184.000 224855.000     32.588    41.5367   102.0490   -54.3830    -1.9995     0.0009    26.0000     4.0000     9.0000    22.0000    26.0000    10.0000     5.0000    20.0000     3.0005     1.0000    -0.4986    20.7738    41.5367     2.4135    14.4503    14.4503     1.7040     0.0000     1.0000     0.0388     0.000
    285     0.3333     0.3333     1.6699     0.0000     30.000   1162.000 224563.000     32.545    41.5367   101.9963   -54.5513    -1.9995     0.0009    26.0000     4.0000     9.0000    22.0000    26.0000    10.0000     5.0000    20.0000     3.0005     1.0000    -0.4987    20.7738    41.5367     2.4204    14.4503    14.4503     1.7040     0.0000     1.0000     0.0388     0.000
    286     0.3333     0.3333     1.6750     0.0000     30.000   1138.000 225594.000     32.695    41.5367   101.9473   -54.7205    -1.9995     0.0009    26.0000     4.0000     9.0000    22.0000    26.0000    10.0000     5.0000    20.0000     3.0005     1.0000    -0.4988    20.7737    41.5368     2.4273    14.4503    14.4502     1.7040     0.0000     1.0000     0.0387     0.000
    287     0.3333     0.3333     1.6800     0.0000     30.000   1209.000 225143.000     32.629    41.5367   101.8999   -54.8894    -1.9995     0.0009    26.0000     4.0000     9.0000    22.0000    26.0000    10.0000     5.0000    20.0000     3.0005     1.0000    -0.4986    20.7738    41.5367     2.4342    14.4503    14.4503     1.7039     0.0000     1.0000     0.0388     0.000
    288     0.3332     0.3332     1.6850     0.0000     30.000   1193.000 224464.000     32.531    41.5367   101.8554   -55.0597    -1.9995     0.0009    26.0000     4.0000     9.0000    22.0000    26.0000    10.0000     5.0000    20.0000     3.0005     1.0000    -0.4986    20.7737    41.5367     2.4412    14.4503    14.4503     1.7040     0.0000     1.0000     0.0388     0.000
    289     0.3332     0.3332     1.6901     0.0000     30.000   1140.000 224601.000     32.551    41.5367   101.8069   -55.2314    -1.9995     0.0009    26.0000     4.0000     9.0000    22.0000    26.0000    10.0000     5.0000    20.0000     3.0005     1.0000    -0.4988    20.7738    41.5367     2.4482    14.4503    14.4503     1.7039     0.0000     1.0000     0.0388     0.000
    290     0.3333     0.3333     1.6950     0.0000     30.000   1246.000 223852.000     32.442    41.5367   101.7552   -55.3982    -1.9995     0.0009    26.0000     4.0000     9.0000    22.0000    26.0000    10.0000     5.0000    20.0000     3.0005     1.0000    -0.4987    20.7737    41.5367     2.4550    14.4503    14.4503     1.7039     0.0000     1.0000     0.0388     0.000
    291     0.3333     0.3333     1.7000     0.0000     30.000   1173.000 223941.000     32.455    41.5367   101.7040   -55.5666    -1.9995     0.0009    26.0000     4.0000     9.0000    22.0000    26.0000    10.0000     5.0000    20.0000     3.0005     1.0000    -0.4988    20.7738    41.5367     2.4619    14.4503    14.4503     1.7038     0.0000     1.0000     0.0387     0.000
    292     0.3333     0.3333     1.7051     0.0000     30.000   1184.000 225553.000     32.689    41.5367   101.6561   -55.7386    -1.9995     0.0009    26.0000     4.0000     9.0000    22.0000    26.0000    10.0000     5.0000    20.0000     3.0005     1.0000    -0.4988    20.7738    41.5367     2.4689    14.4503    14.4503     1.7037     0.0000     1.0000     0.0387     0.000
    293     0.3332     0.3332     1.7101     0.0000     30.000   1210.000 225048.000     32.616    41.5367   101.6111   -55.9064    -1.9995     0.0009    26.0000     4.0000     9.0000    22.0000    26.0000    10.0000     5.0000    20.0000     3.0005     1.0000    -0.4987    20.7738    41.5367     2.4757    14.4503    14.4503     1.7037     0.0000     1.0000     0.0387     0.000
    294     0.3333     0.3333     1.7150     0.0000     30.000   1196.000 224519.000     32.539    41.5367   101.5570   -56.0739    -1.9995     0.0009    26.0000     4.0000     9.0000    22.0000    26.0000    10.0000     5.0000    20.0000     3.0005     1.0000    -0.4987    20.7737    41.5367     2.4825    14.4503    14.4503     1.7036     0.0000     1.0000     0.0387     0.000
    295     0.3332     0.3332     1.7200     0.0000     30.000   1150.000 224624.000     32.554    41.5367   101.5114   -56.2430    -1.9995     0.0009    26.0000     4.0000     9.0000    22.0000    26.0000    10.0000     5.0000    20.0000     3.0005     1.0000    -0.4986    20.7737    41.5367     2.4894    14.4503    14.4503     1.7036     0.0000     1.0000     0.0387     0.000
    296     0.3333     0.3333     1.7250    -0.0000     30.000   1203.000 225109.000     32.624    41.5367   101.4547   -56.4144    -1.9995     0.0009    26.0000     4.0000     9.0000    22.0000    26.0000    10.0000     5.0000    20.0000     3.0005     1.0000    -0.4988    20.7738    41.5367     2.4964    14.4503    14.4503     1.7036     0.0000     1.0000     0.0387     0.000
    297     0.3333     0.3333     1.7299    -0.0000     30.000   1184.000 224510.000     32.538    41.5367   101.4044   -56.5824    -1.9995     0.0009    26.0000     4.0000     9.0000    22.0000    26.0000    10.0000     5.0000    20.0000     3.0005     1.0000    -0.4988    20.7738    41.5367     2.5032    14.4503    14.4503     1.7035     0.0000     1.0000     0.0387     0.000
    298     0.3331     0.3331     1.7350     0.0000     30.000   1155.000 224574.000     32.547    41.5367   101.3601   -56.7539    -1.9995     0.0009    26.0000     4.0000     9.0000    22.0000    26.0000    10.0000     5.0000    20.0000     3.0005     1.0000    -0.4987    20.7738    41.5367     2.5102    14.4503    14.4503     1.7035     0.0000     1.0000     0.0387     0.000
    299     0.3333     0.3333     1.7400     0.0002     30.000   1157.000 225656.000     32.704    41.5367   101.3034   -56.9277    -1.9995     0.0009    26.0000     4.0000     9.0000    22.0000    26.0000    10.0000     5.0000    20.0000     3.0005     1.0000    -0.4988    20.7737    41.5369     2.5172    14.4503    14.4501     1.7036     0.0000     1.0000     0.0387     0.000
    300     0.3331     0.3331     1.7451     0.0002     30.000   1207.000 225149.000     32.630    41.5367   101.2554   -57.1000    -1.9995     0.0009    26.0000     4.0000     9.0000    22.0000    26.0000    10.0000     5.0000    20.0000     3.0005     1.0000    -0.4988    20.7737    41.5370     2.5242    14.4503    14.4501     1.7035     0.0000     1.0000     0.0387     0.000
    301     0.3333     0.3333     1.7501     0.0000     30.000   1081.000 223929.000     32.453    41.5367   101.1983   -57.2701    -1.9995     0.0009    26.0000     4.0000     9.0000    22.0000    26.0000    10.0000     5.0000    20.0000     3.0005     1.0000    -0.4988    20.7738    41.5367     2.5311    14.4503    14.4503     1.7034     0.0000     1.0000     0.0387     0.000
    302     0.3331     0.3331     1.7551     0.0000     30.000   1120.000 224637.000     32.556    41.5367   101.1546   -57.4407    -1.9995     0.0009    26.0000     4.0000     9.0000    22.0000    26.0000    10.0000     5.0000    20.0000     3.0005     1.0000    -0.4988    20.7737    41.5367     2.5380    14.4503    14.4503     1.7034     0.0000     1.0000     0.0387     0.000
    303     0.3331     0.3331     1.7601     0.0002     30.000   1093.000 224923.000     32.598    41.5367   101.1024   -57.6106    -1.9995     0.0009    26.0000     4.0000     9.0000    22.0000    26.0000    10.0000     5.0000    20.0000     3.0005     1.0000    -0.4987    20.7738    41.5370     2.5448    14.4503    14.4501     1.7034     0.0000     1.0000     0.0387     0.000
    304     0.3331     0.3331     1.7651     0.0001     30.000   1126.000 223472.000     32.387    41.5367   101.0475   -57.7822    -1.9995     0.0009    26.0000     4.0000     9.0000    22.0000    26.0000    10.0000     5.0000    20.0000     3.0005     1.0000    -0.4988    20.7737    41.5368     2.5518    14.4503    14.4502     1.7034     0.0000     1.0000     0.0387     0.000
    305     0.3332     0.3332     1.7700     0.0000     30.000   1047.000 224731.000     32.570    41.5367   100.9936   -57.9519    -1.9995     0.0009    26.0000     4.0000     9.0000    22.0000    26.0000    10.0000     5.0000    20.0000     3.0005     1.0000    -0.4987    20.7737    41.5367     2.5586    14.4503    14.4503     1.7033     0.0000     1.0000     0.0387     0.000
    306     0.3331     0.3331     1.7751     0.0000     30.000   1093.000 224741.000     32.571    41.5367   100.9434   -58.1252    -1.9995     0.0009    26.0000     4.0000     9.0000    22.0000    26.0000    10.0000     5.0000    20.0000     3.0005     1.0000    -0.4988    20.7738    41.5367     2.5656    14.4503    14.4503     1.7033     0.0000     1.0000     0.0388     0.000
    307     0.3331     0.3331     1.7801     0.0002     30.000   1105.000 224526.000     32.540    41.5367   100.8877   -58.2976    -1.9995     0.0009    26.0000     4.0000     9.0000    22.0000    26.0000    10.0000     5.0000    20.0000     3.0005     1.0000    -0.4988    20.7737    41.5370     2.5725    14.4503    14.4501     1.7032     0.0000     1.0000     0.0387     0.000
    308     0.3333     0.3333     1.7849     0.0000     30.000   1128.000 225471.000     32.677    41.5367   100.8281   -58.4670    -1.9995     0.0009    26.0000     4.0000     9.0000    22.0000    26.0000    10.0000     5.0000    20.0000     3.0005     1.0000    -0.4988    20.7737    41.5367     2.5793    14.4503    14.4503     1.7032     0.0000     1.0000     0.0387     0.000
    309     0.3332     0.3332     1.7900     0.0000     30.000   1078.000 224398.000     32.521    41.5367   100.7780   -58.6406    -1.9995     0.0009    26.0000     4.0000     9.0000    22.0000    26.0000    10.0000     5.0000    20.0000     3.0005     1.0000    -0.4987    20.7737    41.5367     2.5863    14.4503    14.4503     1.7031     0.0000     1.0000     0.0388     0.000
    310     0.3332     0.3332     1.7951     0.0000     30.000   1084.000 224354.000     32.515    41.5367   100.7232   -58.8157    -1.9995     0.0009    26.0000     4.0000     9.0000    22.0000    26.0000    10.0000     5.0000    20.0000     3.0005     1.0000    -0.4989    20.7738    41.5367     2.5934    14.4503    14.4503     1.7030     0.0000     1.0000     0.0388     0.000
    311     0.3331     0.3332     1.8001     0.0002     30.000   1069.000 224052.000     32.471    41.5367   100.6708   -58.9871    -1.9995     0.0009    26.0000     4.0000     9.0000    22.0000    26.0000    10.0000     5.0000    20.0000     3.0005     1.0000    -0.4988    20.7737    41.5370     2.6002    14.4503    14.4501     1.7029     0.0000     1.0000     0.0387     0.000
    312     0.3331     0.3331     1.8051    -0.0000     30.000   1074.000 224787.000     32.578    41.5367   100.6190   -59.1588    -1.9995     0.0009    26.0000     4.0000     9.0000    22.0000    26.0000    10.0000     5.0000    20.0000     3.0005     1.0000    -0.4988    20.7738    41.5367     2.6071    14.4503    14.4503     1.7028     0.0000     1.0000     0.0387     0.000
    313     0.3332     0.3332     1.8099     0.0001     30.000   1050.000 224729.000     32.569    41.5367   100.5617   -59.3271    -1.9995     0.0009    26.0000     4.0000     9.0000    22.0000    26.0000    10.0000     5.0000    20.0000     3.0005     1.0000    -0.4988    20.7737    41.5369     2.6139    14.4503    14.4502     1.7028     0.0000     1.0000     0.0387     0.000
    314     0.3332     0.3332     1.8150     0.0001     30.000   1053.000 224715.000     32.567    41.5367   100.5047   -59.5023    -1.9995     0.0009    26.0000     4.0000     9.0000    22.0000    26.0000    10.0000     5.0000    20.0000     3.0005     1.0000    -0.4988    20.7738    41.5369     2.6209    14.4503    14.4502     1.7028     0.0000     1.0000     0.0387     0.000
    315     0.3333     0.3333     1.8199     0.0002     30.000   1047.000 224123.000     32.482    41.5367   100.4482   -59.6740    -1.9995     0.0009    26.0000     4.0000     9.0000    22.0000    26.0000    10.0000     5.0000    20.0000     3.0005     1.0000    -0.4988    20.7738    41.5370     2.6277    14.4503    14.4501     1.7028     0.0000     1.0000     0.0388     0.000
    316     0.3332     0.3332     1.8250     0.0000     30.000    996.000 224175.000     32.489    41.5367   100.3933   -59.8494    -1.9995     0.0009    26.0000     4.0000     9.0000    22.0000    26.0000    10.0000     5.0000    20.0000     3.0005     1.0000    -0.4987    20.7737    41.5367     2.6348    14.4503    14.4503     1.7028     0.0000     1.0000     0.0388     0.000
    317     0.3332     0.3332     1.8300     0.0003     30.000   1061.000 224595.000     32.550    41.5367   100.3376   -60.0245    -1.9995     0.0009    26.0000     4.0000     9.0000    22.0000    26.0000    10.0000     5.0000    20.0000     3.0005     1.0000    -0.4989    20.7737    41.5371     2.6417    14.4503    14.4500     1.7028     0.0000     1.0000     0.0390     0.000
    318     0.3332     0.3332     1.8350     0.0001     30.000   1024.000 224631.000     32.555    41.5367   100.2811   -60.1979    -1.9995     0.0009    26.0000     4.0000     9.0000    22.0000    26.0000    10.0000     5.0000    20.0000     3.0005     1.0000    -0.4988    20.7738    41.5368     2.6487    14.4503    14.4502     1.7028     0.0000     1.0000     0.0389     0.000
    319     0.3332     0.3332     1.8401     0.0000     30.000   1000.000 224291.000     32.506    41.5367   100.2260   -60.3729    -1.9995     0.0009    26.0000     4.0000     9.0000    22.0000    26.0000    10.0000     5.0000    20.0000     3.0005     1.0000    -0.4989    20.7737    41.5368     2.6556    14.4503    14.4502     1.7027     0.0000     1.0000     0.0389     0.000
    320     0.3332     0.3332     1.8451     0.0000     30.000    979.000 224525.000     32.540    41.5367   100.1687   -60.5484    -1.9995     0.0009    26.0000     4.0000     9.0000    22.0000    26.0000    10.0000     5.0000    20.0000     3.0005     1.0000    -0.4988    20.7737    41.5367     2.6626    14.4503    14.4503     1.7026     0.0000     1.0000     0.0387     0.000
    321     0.3332     0.3332     1.8500     0.0000     30.000    976.000 223653.000     32.413    41.5367   100.1097   -60.7211    -1.9995     0.0009    26.0000     4.0000     9.0000    22.0000    26.0000    10.0000     5.0000    20.0000     3.0005     1.0000    -0.4988    20.7737    41.5367     2.6695    14.4503    14.4503     1.7026     0.0000     1.0000     0.0387     0.000
    322     0.3333     0.3333     1.8550     0.0000     30.000    974.000 225082.000     32.621    41.5367   100.0524   -60.8933    -1.9995     0.0009    26.0000     4.0000     9.0000    22.0000    26.0000    10.0000     5.0000    20.0000     3.0005     1.0000    -0.4988    20.7737    41.5367     2.6763    14.4503    14.4503     1.7026     0.0000     1.0000     0.0388     0.000
    323     0.3333     0.3333     1.8600     0.0000     30.000   1031.000 225118.000     32.626    41.5367    99.9951   -61.0683    -1.9995     0.0009    26.0000     4.0000     9.0000    22.0000    26.0000    10.0000     5.0000    20.0000     3.0005     1.0000    -0.4988    20.7737    41.5367     2.6833    14.4503    14.4503     1.7025     0.0000     1.0000     0.0388     0.000
    324     0.3333     0.3333     1.8649     0.0002     30.000   1002.000 225152.000     32.631    41.5367    99.9377   -61.2409    -1.9995     0.0009    26.0000     4.0000     9.0000    22.0000    26.0000    10.0000     5.0000    20.0000     3.0005     1.0000    -0.4990    20.7737    41.5370     2.6901    14.4503    14.4501     1.7025     0.0000     1.0000     0.0388     0.000
    325     0.3332     0.3332     1.8700     0.0001     30.000   1039.000 224200.000     32.493    41.5367    99.8814   -61.4164    -1.9995     0.0009    26.0000     4.0000     9.0000    22.0000    26.0000    10.0000     5.0000    20.0000     3.0005     1.0000    -0.4988    20.7737    41.5368     2.6971    14.4503    14.4502     1.7024     0.0000     1.0000     0.0388     0.000
    326     0.3332     0.3333     1.8750     0.0000     30.000   1040.000 225285.000     32.650    41.5367    99.8213   -61.5938    -1.9995     0.0009    26.0000     4.0000     9.0000    22.0000    26.0000    10.0000     5.0000    20.0000     3.0005     1.0000    -0.4989    20.7738    41.5368     2.7041    14.4503    14.4502     1.7023     0.0000     1.0000     0.0388     0.000
    327     0.3332     0.3332     1.8801     0.0000     30.000   1025.000 224975.000     32.605    41.5367    99.7630   -61.7709    -1.9995     0.0009    26.0000     4.0000     9.0000    22.0000    26.0000    10.0000     5.0000    20.0000     3.0005     1.0000    -0.4989    20.7738    41.5367     2.7111    14.4503    14.4503     1.7022     0.0000     1.0000     0.0388     0.000
    328     0.3332     0.3332     1.8850     0.0000     30.000    973.000 224595.000     32.550    41.5367    99.7045   -61.9449    -1.9995     0.0009    26.0000     4.0000     9.0000    22.0000    26.0000    10.0000     5.0000    20.0000     3.0005     1.0000    -0.4988    20.7738    41.5367     2.7180    14.4503    14.4503     1.7021     0.0000     1.0000     0.0389     0.000
    329     0.3332     0.3332     1.8901     0.0000     30.000    985.000 224727.000     32.569    41.5367    99.6445   -62.1244    -1.9995     0.0009    26.0000     4.0000     9.0000    22.0000    26.0000    10.0000     5.0000    20.0000     3.0005     1.0000    -0.4988    20.7737    41.5367     2.7251    14.4503    14.4503     1.7021     0.0000     1.0000     0.0388     0.000
    330     0.3332     0.3332     1.8951    -0.0000     30.000    961.000 223894.000     32.448    41.5367    99.5873   -62.2966    -1.9995     0.0009    26.0000     4.0000     9.0000    22.0000    26.0000    10.0000     5.0000    20.0000     3.0005     1.0000    -0.4988    20.7738    41.5367     2.7319    14.4503    14.4503     1.7020     0.0000     1.0000     0.0388     0.000
    331     0.3333     0.3333     1.9000     0.0000     30.000   1019.000 224938.000     32.600    41.5367    99.5263   -62.4712    -1.9995     0.0009    26.0000     4.0000     9.0000    22.0000    26.0000    10.0000     5.0000    20.0000     3.0005     1.0000    -0.4988    20.7737    41.5367     2.7388    14.4503    14.4503     1.7019     0.0000     1.0000     0.0389     0.000
    332     0.3332     0.3332     1.9050     0.0000     30.000   1023.000 224659.000     32.559    41.5367    99.4700   -62.6455    -1.9995     0.0009    26.0000     4.0000     9.0000    22.0000    26.0000    10.0000     5.0000    20.0000     3.0005     1.0000    -0.4988    20.7737    41.5367     2.7456    14.4503    14.4503     1.7018     0.0000     1.0000     0.0389     0.000
    333     0.3333     0.3333     1.9099     0.0003     30.000    979.000 225416.000     32.669    41.5367    99.4069   -62.8216    -1.9995     0.0009    26.0000     4.0000     9.0000    22.0000    26.0000    10.0000     5.0000    20.0000     3.0005     1.0000    -0.4989    20.7737    41.5371     2.7526    14.4503    14.4500     1.7018     0.0000     1.0000     0.0388     0.000
    334     0.3333     0.3333     1.9149     0.0001     30.000    992.000 224109.000     32.480    41.5367    99.3469   -62.9986    -1.9995     0.0009    26.0000     4.0000     9.0000    22.0000    26.0000    10.0000     5.0000    20.0000     3.0005     1.0000    -0.4989    20.7737    41.5368     2.7595    14.4503    14.4502     1.7018     0.0000     1.0000     0.0388     0.000
    335     0.3333     0.3333     1.9199     0.0000     30.000   1037.000 225172.000     32.634    41.5367    99.2854   -63.1746    -1.9995     0.0009    26.0000     4.0000     9.0000    22.0000    26.0000    10.0000     5.0000    20.0000     3.0005     1.0000    -0.4989    20.7737    41.5367     2.7665    14.4503    14.4503     1.7018     0.0000     1.0000     0.0388     0.000
    336     0.3333     0.3333     1.9250     0.0000     30.000    990.000 224492.000     32.535    41.5367    99.2253   -63.3527    -1.9995     0.0009    26.0000     4.0000     9.0000    22.0000    26.0000    10.0000     5.0000    20.0000     3.0005     1.0000    -0.4989    20.7737    41.5367     2.7734    14.4503    14.4503     1.7018     0.0000     1.0000     0.0388     0.000
    337     0.3333     0.3333     1.9300     0.0000     30.000    989.000 223608.000     32.407    41.5367    99.1646   -63.5322    -1.9995     0.0009    26.0000     4.0000     9.0000    22.0000    26.0000    10.0000     5.0000    20.0000     3.0005     1.0000    -0.4989    20.7737    41.5367     2.7805    14.4503    14.4503     1.7017     0.0000     1.0000     0.0388     0.000
    338     0.3333     0.3333     1.9351     0.0000     30.000   1044.000 224552.000     32.544    41.5367    99.1033   -63.7114    -1.9995     0.0009    26.0000     4.0000     9.0000    22.0000    26.0000    10.0000     5.0000    20.0000     3.0005     1.0000    -0.4989    20.7737    41.5367     2.7875    14.4503    14.4503     1.7016     0.0000     1.0000     0.0388     0.000
    339     0.3333     0.3333     1.9401     0.0002     30.000   1049.000 224629.000     32.555    41.5367    99.0424   -63.8879    -1.9995     0.0009    26.0000     4.0000     9.0000    22.0000    26.0000    10.0000     5.0000    20.0000     3.0005     1.0000    -0.4990    20.7737    41.5370     2.7944    14.4503    14.4501     1.7016     0.0000     1.0000     0.0387     0.000
    340     0.3333     0.3333     1.9451     0.0000     30.000   1052.000 224223.000     32.496    41.5367    98.9810   -64.0655    -1.9995     0.0009    26.0000     4.0000     9.0000    22.0000    26.0000    10.0000     5.0000    20.0000     3.0005     1.0000    -0.4989    20.7737    41.5368     2.8013    14.4503    14.4502     1.7015     0.0000     1.0000     0.0388     0.000
    341     0.3333     0.3333     1.9499     0.0000     30.000    988.000 223461.000     32.386    41.5367    98.9192   -64.2390    -1.9995     0.0009    26.0000     4.0000     9.0000    22.0000    26.0000    10.0000     5.0000    20.0000     3.0005     1.0000    -0.4990    20.7737    41.5367     2.8081    14.4503    14.4503     1.7015     0.0000     1.0000     0.0388     0.000
    342     0.3333     0.3333     1.9550     0.0000     30.000   1082.000 224238.000     32.498    41.5367    98.8580   -64.4182    -1.9995     0.0009    26.0000     4.0000     9.0000    22.0000    26.0000    10.0000     5.0000    20.0000     3.0005     1.0000    -0.4989    20.7737    41.5367     2.8151    14.4503    14.4503     1.7014     0.0000     1.0000     0.0389     0.000
    343     0.3333     0.3333     1.9600     0.0000     30.000   1055.000 225678.000     32.707    41.5367    98.7944   -64.5967    -1.9995     0.0009    26.0000     4.0000     9.0000    22.0000    26.0000    10.0000     5.0000    20.0000     3.0005     1.0000    -0.4989    20.7737    41.5367     2.8221    14.4503    14.4503     1.7013     0.0000     1.0000     0.0389     0.000
    344     0.3333     0.3333     1.9650    -0.0000     30.000    994.000 224986.000     32.607    41.5367    98.7335   -64.7759    -1.9995     0.0009    26.0000     4.0000     9.0000    22.0000    26.0000    10.0000     5.0000    20.0000     3.0005     1.0000    -0.4989    20.7737    41.5367     2.8291    14.4503    14.4503     1.7013     0.0000     1.0000     0.0388     0.000
    345     0.3333     0.3333     1.9700     0.0000     30.000   1072.000 224472.000     32.532    41.5367    98.6706   -64.9539    -1.9995     0.0009    26.0000     4.0000     9.0000    22.0000    26.0000    10.0000     5.0000    20.0000     3.0005     1.0000    -0.4989    20.7737    41.5367     2.8360    14.4503    14.4503     1.7013     0.0000     1.0000     0.0388     0.000
    346     0.3333     0.3333     1.9750     0.0001     30.000   1038.000 225180.000     32.635    41.5367    98.6087   -65.1331    -1.9995     0.0009    26.0000     4.0000     9.0000    22.0000    26.0000    10.0000     5.0000    20.0000     3.0005     1.0000    -0.4990    20.7738    41.5369     2.8429    14.4503    14.4501     1.7013     0.0000     1.0000     0.0389     0.000
    347     0.3333     0.3333     1.9800    -0.0000     30.000   1097.000 224469.000     32.532    41.5367    98.5447   -65.3134    -1.9995     0.0009    26.0000     4.0000     9.0000    22.0000    26.0000    10.0000     5.0000    20.0000     3.0005     1.0000    -0.4989    20.7737    41.5367     2.8499    14.4503    14.4503     1.7012     0.0000     1.0000     0.0389     0.000
    348     0.3333     0.3333     1.9851     0.0002     30.000   1068.000 225515.000     32.683    41.5367    98.4816   -65.4934    -1.9995     0.0009    26.0000     4.0000     9.0000    22.0000    26.0000    10.0000     5.0000    20.0000     3.0005     1.0000    -0.4989    20.7737    41.5370     2.8569    14.4503    14.4501     1.7012     0.0000     1.0000     0.0389     0.000
    349     0.3333     0.3333     1.9900     0.0001     30.000   1089.000 224215.000     32.495    41.5367    98.4186   -65.6711    -1.9995     0.0009    26.0000     4.0000     9.0000    22.0000    26.0000    10.0000     5.0000    20.0000     3.0005     1.0000    -0.4989    20.7737    41.5368     2.8638    14.4503    14.4502     1.7011     0.0000     1.0000     0.0389     0.000
    350     0.3333     0.3334     1.9949     0.0001     30.000   1110.000 225153.000     32.631    41.5367    98.3538   -65.8479    -1.9995     0.0009    26.0000     4.0000     9.0000    22.0000    26.0000    10.0000     5.0000    20.0000     3.0005     1.0000    -0.4989    20.7737    41.5368     2.8706    14.4503    14.4502     1.7009     0.0000     1.0000     0.0388     0.000
    351     0.3334     0.3334     1.9999     0.0000     30.000   1160.000 224111.000     32.480    41.5367    98.2900   -66.0262    -1.9995     0.0009    26.0000     4.0000     9.0000    22.0000    26.0000    10.0000     5.0000    20.0000     3.0005     1.0000    -0.4989    20.7737    41.5368     2.8775    14.4503    14.4502     1.7008     0.0000     1.0000     0.0387     0.000
    352     0.3333     0.3333     2.0049     0.0000     30.000   1142.000 224160.000     32.487    41.5367    98.2271   -66.2079    -1.9995     0.0009    26.0000     4.0000     9.0000    22.0000    26.0000    10.0000     5.0000    20.0000     3.0005     1.0000    -0.4989    20.7737    41.5367     2.8846    14.4503    14.4503     1.7016     0.0000     1.0000     0.0387     0.000
    353     0.3334     0.3334     2.0099     0.0000     30.000   1168.000 224563.000     32.545    41.5367    98.1612   -66.3870    -1.9995     0.0009    26.0000     4.0000     9.0000    22.0000    26.0000    10.0000     5.0000    20.0000     3.0005     1.0000    -0.4990    20.7737    41.5367     2.8915    14.4503    14.4503     1.7021     0.0000     1.0000     0.0387     0.000
    354     0.3333     0.3333     2.0150     0.0000     30.000   1224.000 224895.000     32.593    41.5367    98.0977   -66.5694    -1.9995     0.0009    26.0000     4.0000     9.0000    22.0000    26.0000    10.0000     5.0000    20.0000     3.0005     1.0000    -0.4989    20.7737    41.5367     2.8985    14.4503    14.4503     1.7024     0.0000     1.0000     0.0387     0.000
    355     0.3333     0.3333     2.0200    -0.0000     30.000   1214.000 223865.000     32.444    41.5367    98.0316   -66.7521    -1.9995     0.0009    26.0000     4.0000     9.0000    22.0000    26.0000    10.0000     5.0000    20.0000     3.0005     1.0000    -0.4989    20.7737    41.5367     2.9055    14.4503    14.4503     1.7026     0.0000     1.0000     0.0387     0.000
    356     0.3333     0.3333     2.0250     0.0000     30.000   1328.000 224460.000     32.530    41.5367    97.9679   -66.9329    -1.9995     0.0009    26.0000     4.0000     9.0000    22.0000    26.0000    10.0000     5.0000    20.0000     3.0005     1.0000    -0.4989    20.7737    41.5367     2.9125    14.4503    14.4503     1.7027     0.0000     1.0000     0.0387     0.000
    357     0.3333     0.3333     2.0301     0.0000     30.000   1319.000 224712.000     32.567    41.5367    97.9016   -67.1146    -1.9995     0.0009    26.0000     4.0000     9.0000    22.0000    26.0000    10.0000     5.0000    20.0000     3.0005     1.0000    -0.4989    20.7737    41.5367     2.9195    14.4503    14.4503     1.7029     0.0000     1.0000     0.0387     0.000
    358     0.3333     0.3333     2.0350     0.0003     30.000   1336.000 224988.000     32.607    41.5367    97.8363   -67.2944    -1.9995     0.0009    26.0000     4.0000     9.0000    22.0000    26.0000    10.0000     5.0000    20.0000     3.0005     1.0000    -0.4990    20.7736    41.5371     2.9264    14.4503    14.4500     1.7030     0.0000     1.0000     0.0387     0.000
    359     0.3333     0.3333     2.0400     0.0001     30.000   1368.000 224768.000     32.575    41.5367    97.7704   -67.4753    -1.9995     0.0009    26.0000     4.0000     9.0000    22.0000    26.0000    10.0000     5.0000    20.0000     3.0005     1.0000    -0.4991    20.7737    41.5368     2.9333    14.4503    14.4502     1.7030     0.0000     1.0000     0.0387     0.000
    360     0.3333     0.3333     2.0449     0.0001     30.000   1397.000 225022.000     32.612    41.5367    97.7052   -67.6539    -1.9995     0.0009    26.0000     4.0000     9.0000    22.0000    26.0000    10.0000     5.0000    20.0000     3.0005     1.0000    -0.4990    20.7737    41.5368     2.9402    14.4503    14.4502     1.7030     0.0000     1.0000     0.0387     0.000
    361     0.3333     0.3333     2.0500     0.0000     30.000   1494.000 224291.000     32.506    41.5367    97.6398   -67.8370    -1.9995     0.0009    26.0000     4.0000     9.0000    22.0000    26.0000    10.0000     5.0000    20.0000     3.0005     1.0000    -0.4990    20.7736    41.5367     2.9472    14.4503    14.4503     1.7030     0.0000     1.0000     0.0386     0.000
    362     0.3333     0.3333     2.0550     0.0000     30.000   1600.000 225778.000     32.721    41.5367    97.5735   -68.0200    -1.9995     0.0009    26.0000     4.0000     9.0000    22.0000    26.0000    10.0000     5.0000    20.0000     3.0005     1.0000    -0.4990    20.7737    41.5367     2.9542    14.4503    14.4503     1.7030     0.0000     1.0000     0.0388     0.000
    363     0.3333     0.3333     2.0600     0.0000     30.000   1932.000 225036.000     32.614    41.5367    97.5060   -68.2025    -1.9995     0.0009    26.0000     4.0000     9.0000    22.0000    26.0000    10.0000     5.0000    20.0000     3.0005     1.0000    -0.4990    20.7736    41.5367     2.9611    14.4503    14.4503     1.7030     0.0000     1.0000     0.0388     0.000
    364     0.3333     0.3333     2.0651     0.0000     30.000   3004.000 224209.000     32.494    41.5367    97.4398   -68.3868    -1.9995     0.0009    26.0000     4.0000     9.0000    22.0000    26.0000    10.0000     5.0000    20.0000     3.0005     1.0000    -0.4990    20.7736    41.5367     2.9682    14.4503    14.4503     1.7030     0.0000     1.0000     0.0388     0.000
    365     0.3333     0.3333     2.0701     0.0000     30.000   6340.000 225137.000     32.629    41.5367    97.3714   -68.5704    -1.9995     0.0009    26.0000     4.0000     9.0000    22.0000    26.0000    10.0000     5.0000    20.0000     3.0005     1.0000    -0.4990    20.7736    41.5367     2.9752    14.4503    14.4503     1.7030     0.0000     1.0000     0.0388     0.000
    366     0.3333     0.3333     2.0750     0.0000     30.000  13382.000 224990.000     32.607    41.5367    97.3044   -68.7507    -1.9995     0.0009    26.0000     4.0000     9.0000    22.0000    26.0000    10.0000     5.0000    20.0000     3.0005     1.0000    -0.4990    20.7736    41.5367     2.9820    14.4503    14.4503     1.7030     0.0000     1.0000     0.0387     0.000
    367     0.3333     0.3333     2.0801     0.0000     30.000  24982.000 224867.000     32.589    41.5367    97.2371   -68.9358    -1.9995     0.0009    26.0000     4.0000     9.0000    22.0000    26.0000    10.0000     5.0000    20.0000     3.0005     1.0000    -0.4990    20.7736    41.5367     2.9891    14.4503    14.4503     1.7030     0.0000     1.0000     0.0387     0.000
    368     0.3333     0.3333     2.0850     0.0000     30.000  39066.000 224668.000     32.561    41.5367    97.1696   -69.1155    -1.9995     0.0009    26.0000     4.0000     9.0000    22.0000    26.0000    10.0000     5.0000    20.0000     3.0005     1.0000    -0.4990    20.7736    41.5367     2.9959    14.4503    14.4503     1.7030     0.0000     1.0000     0.0388     0.000
    369     0.3334     0.3334     2.0899     0.0000     30.000  54388.000 224848.000     32.587    41.5367    97.1010   -69.2978    -1.9995     0.0009    26.0000     4.0000     9.0000    22.0000    26.0000    10.0000     5.0000    20.0000     3.0004     1.0000    -0.4991    20.7736    41.5367     3.0028    14.4503    14.4503     1.7029     0.0000     1.0000     0.0388     0.000
    370     0.3333     0.3333     2.0949     0.0000     30.000  65909.000 225274.000     32.648    41.5367    97.0338   -69.4822    -1.9995     0.0009    26.0000     4.0000     9.0000    22.0000    26.0000    10.0000     5.0000    20.0000     3.0005     1.0000    -0.4990    20.7736    41.5367     3.0098    14.4503    14.4503     1.7029     0.0000     1.0000     0.0387     0.000
    371     0.3333     0.3333     2.0999     0.0000     30.000  68892.000 224520.000     32.539    41.5367    96.9653   -69.6656    -1.9995     0.0009    26.0000     4.0000     9.0000    22.0000    26.0000    10.0000     5.0000    20.0000     3.0005     1.0000    -0.4991    20.7736    41.5367     3.0167    14.4503    14.4503     1.7029     0.0000     1.0000     0.0387     0.000
    372     0.3333     0.3333     2.1049     0.0000     30.000  65174.000 223986.000     32.462    41.5367    96.8967   -69.8500    -1.9995     0.0009    26.0000     4.0000     9.0000    22.0000    26.0000    10.0000     5.0000    20.0000     3.0004     1.0000    -0.4991    20.7736    41.5367     3.0237    14.4503    14.4503     1.7029     0.0000     1.0000     0.0387     0.000
    373     0.3333     0.3333     2.1101     0.0000     30.000  55257.000 223883.000     32.447    41.5367    96.8282   -70.0381    -1.9995     0.0009    26.0000     4.0000     9.0000    22.0000    26.0000    10.0000     5.0000    20.0000     3.0005     1.0000    -0.4991    20.7736    41.5367     3.0308    14.4503    14.4503     1.7029     0.0000     1.0000     0.0388     0.000
    374     0.3333     0.3333     2.1151     0.0000     30.000  40490.000 224552.000     32.544    41.5367    96.7588   -70.2230    -1.9995     0.0009    26.0000     4.0000     9.0000    22.0000    26.0000    10.0000     5.0000    20.0000     3.0005     1.0000    -0.4990    20.7736    41.5367     3.0378    14.4503    14.4503     1.7029     0.0000     1.0000     0.0388     0.000
    375     0.3333     0.3333     2.1201     0.0000     30.000  25899.000 224200.000     32.493    41.5367    96.6899   -70.4093    -1.9995     0.0009    26.0000     4.0000     9.0000    22.0000    26.0000    10.0000     5.0000    20.0000     3.0005     1.0000    -0.4990    20.7736    41.5367     3.0448    14.4503    14.4503     1.7028     0.0000     1.0000     0.0387     0.000
    376     0.3333     0.3333     2.1251     0.0000     30.000  13479.000 224033.000     32.469    41.5367    96.6207   -70.5926    -1.9995     0.0009    26.0000     4.0000     9.0000    22.0000    26.0000    10.0000     5.0000    20.0000     3.0004     1.0000    -0.4991    20.7736    41.5367     3.0517    14.4503    14.4503     1.7028     0.0000     1.0000     0.0387     0.000
    377     0.3333     0.3333     2.1300     0.0000     30.000   6327.000 223993.000     32.463    41.5367    96.5510   -70.7764    -1.9995     0.0009    26.0000     4.0000     9.0000    22.0000    26.0000    10.0000     5.0000    20.0000     3.0004     1.0000    -0.4991    20.7736    41.5367     3.0586    14.4503    14.4503     1.7027     0.0000     1.0000     0.0387     0.000
    378     0.3333     0.3333     2.1350     0.0000     30.000   3013.000 224888.000     32.592    41.5367    96.4810   -70.9625    -1.9995     0.0009    26.0000     4.0000     9.0000    22.0000    26.0000    10.0000     5.0000    20.0000     3.0004     1.0000    -0.4991    20.7736    41.5367     3.0656    14.4503    14.4503     1.7027     0.0000     1.0000     0.0387     0.000
    379     0.3333     0.3333     2.1400     0.0000     30.000   1915.000 225757.000     32.718    41.5367    96.4107   -71.1476    -1.9995     0.0009    26.0000     4.0000     9.0000    22.0000    26.0000    10.0000     5.0000    20.0000     3.0004     1.0000    -0.4990    20.7735    41.5367     3.0725    14.4503    14.4503     1.7026     0.0000     1.0000     0.0386     0.000
    380     0.3333     0.3333     2.1450    -0.0000     30.000   1495.000 223922.000     32.452    41.5367    96.3399   -71.3336    -1.9995     0.0009    26.0000     4.0000     9.0000    22.0000    26.0000    10.0000     5.0000    20.0000     3.0005     1.0000    -0.4991    20.7736    41.5367     3.0795    14.4503    14.4503     1.7025     0.0000     1.0000     0.0386     0.000
    381     0.3333     0.3333     2.1500    -0.0000     30.000   1420.000 225276.000     32.649    41.5367    96.2697   -71.5196    -1.9995     0.0009    26.0000     4.0000     9.0000    22.0000    26.0000    10.0000     5.0000    20.0000     3.0004     1.0000    -0.4991    20.7735    41.5367     3.0865    14.4503    14.4503     1.7025     0.0000     1.0000     0.0388     0.000
    382     0.3333     0.3333     2.1550    -0.0000     30.000   1372.000 223812.000     32.437    41.5367    96.1991   -71.7059    -1.9995     0.0009    26.0000     4.0000     9.0000    22.0000    26.0000    10.0000     5.0000    20.0000     3.0005     1.0000    -0.4991    20.7736    41.5367     3.0934    14.4503    14.4503     1.7025     0.0000     1.0000     0.0388     0.000
    383     0.3333     0.3333     2.1601    -0.0000     30.000   1315.000 225521.000     32.684    41.5367    96.1278   -71.8944    -1.9995     0.0009    26.0000     4.0000     9.0000    22.0000    26.0000    10.0000     5.0000    20.0000     3.0004     1.0000    -0.4992    20.7735    41.5367     3.1005    14.4503    14.4503     1.7024     0.0000     1.0000     0.0386     0.000
    384     0.3333     0.3333     2.1651     0.0003     30.000   1306.000 225132.000     32.628    41.5367    96.0566   -72.0816    -1.9995     0.0009    26.0000     4.0000     9.0000    22.0000    26.0000    10.0000     5.0000    20.0000     3.0004     1.0000    -0.4991    20.7735    41.5372     3.1074    14.4503    14.4499     1.7024     0.0000     1.0000     0.0387     0.000
    385     0.3333     0.3333     2.1700     0.0002     30.000   1262.000 224782.000     32.577    41.5367    95.9856   -72.2663    -1.9995     0.0009    26.0000     4.0000     9.0000    22.0000    26.0000    10.0000     5.0000    20.0000     3.0004     1.0000    -0.4991    20.7735    41.5369     3.1143    14.4503    14.4501     1.7023     0.0000     1.0000     0.0387     0.000
    386     0.3333     0.3334     2.1749     0.0001     30.000   1168.000 224949.000     32.601    41.5367    95.9140   -72.4511    -1.9995     0.0009    26.0000     4.0000     9.0000    22.0000    26.0000    10.0000     5.0000    20.0000     3.0004     1.0000    -0.4991    20.7735    41.5369     3.1212    14.4503    14.4502     1.7023     0.0000     1.0000     0.0388     0.000
    387     0.3333     0.3334     2.1799     0.0001     30.000   1284.000 225250.000     32.645    41.5367    95.8426   -72.6377    -1.9995     0.0009    26.0000     4.0000     9.0000    22.0000    26.0000    10.0000     5.0000    20.0000     3.0004     1.0000    -0.4992    20.7735    41.5369     3.1281    14.4503    14.4502     1.7023     0.0000     1.0000     0.0388     0.000
    388     0.3333     0.3333     2.1850     0.0001     30.000   1260.000 225417.000     32.669    41.5367    95.7704   -72.8285    -1.9995     0.0009    26.0000     4.0000     9.0000    22.0000    26.0000    10.0000     5.0000    20.0000     3.0005     1.0000    -0.4991    20.7735    41.5369     3.1352    14.4503    14.4502     1.7022     0.0000     1.0000     0.0386     0.000
    389     0.3333     0.3333     2.1900     0.0001     30.000   1273.000 225347.000     32.659    41.5367    95.6982   -73.0154    -1.9995     0.0009    26.0000     4.0000     9.0000    22.0000    26.0000    10.0000     5.0000    20.0000     3.0004     1.0000    -0.4991    20.7735    41.5368     3.1421    14.4503    14.4502     1.7021     0.0000     1.0000     0.0386     0.000
    390     0.3333     0.3333     2.1950     0.0001     30.000   1277.000 224850.000     32.587    41.5367    95.6258   -73.2043    -1.9995     0.0009    26.0000     4.0000     9.0000    22.0000    26.0000    10.0000     5.0000    20.0000     3.0004     1.0000    -0.4992    20.7735    41.5368     3.1491    14.4503    14.4502     1.7021     0.0000     1.0000     0.0387     0.000
    391     0.3333     0.3333     2.2001     0.0001     30.000   1188.000 224498.000     32.536    41.5367    95.5529   -73.3962    -1.9995     0.0009    26.0000     4.0000     9.0000    22.0000    26.0000    10.0000     5.0000    20.0000     3.0004     1.0000    -0.4992    20.7735    41.5368     3.1562    14.4503    14.4502     1.7020     0.0000     1.0000     0.0387     0.000
    392     0.3333     0.3333     2.2050     0.0001     30.000   1234.000 224582.000     32.548    41.5367    95.4805   -73.5840    -1.9995     0.0009    26.0000     4.0000     9.0000    22.0000    26.0000    10.0000     5.0000    20.0000     3.0004     1.0000    -0.4992    20.7735    41.5368     3.1632    14.4503    14.4502     1.7020     0.0000     1.0000     0.0385     0.000
    393     0.3333     0.3333     2.2101     0.0001     30.000   1183.000 223443.000     32.383    41.5367    95.4066   -73.7737    -1.9995     0.0009    26.0000     4.0000     9.0000    22.0000    26.0000    10.0000     5.0000    20.0000     3.0005     1.0000    -0.4991    20.7735    41.5368     3.1702    14.4503    14.4502     1.7019     0.0000     1.0000     0.0385     0.000
    394     0.3334     0.3334     2.2149     0.0001     30.000   1184.000 224921.000     32.597    41.5367    95.3331   -73.9590    -1.9995     0.0009    26.0000     4.0000     9.0000    22.0000    26.0000    10.0000     5.0000    20.0000     3.0004     1.0000    -0.4992    20.7735    41.5368     3.1770    14.4503    14.4502     1.7019     0.0000     1.0000     0.0386     0.000
    395     0.3333     0.3333     2.2200     0.0001     30.000   1168.000 225223.000     32.641    41.5367    95.2600   -74.1499    -1.9995     0.0009    26.0000     4.0000     9.0000    22.0000    26.0000    10.0000     5.0000    20.0000     3.0004     1.0000    -0.4992    20.7734    41.5369     3.1840    14.4503    14.4502     1.7019     0.0000     1.0000     0.0385     0.000
    396     0.3333     0.3333     2.2250     0.0001     30.000   1212.000 225400.000     32.667    41.5367    95.1860   -74.3385    -1.9995     0.0009    26.0000     4.0000     9.0000    22.0000    26.0000    10.0000     5.0000    20.0000     3.0004     1.0000    -0.4992    20.7735    41.5368     3.1909    14.4503    14.4502     1.7018     0.0000     1.0000     0.0385     0.000
    397     0.3334     0.3334     2.2300     0.0001     30.000   1170.000 225282.000     32.650    41.5367    95.1116   -74.5289    -1.9995     0.0009    26.0000     4.0000     9.0000    22.0000    26.0000    10.0000     5.0000    20.0000     3.0004     1.0000    -0.4992    20.7734    41.5368     3.1979    14.4503    14.4502     1.7018     0.0000     1.0000     0.0385     0.000
    398     0.3333     0.3333     2.2350     0.0001     30.000   1128.000 224908.000     32.595    41.5367    95.0380   -74.7207    -1.9995     0.0009    26.0000     4.0000     9.0000    22.0000    26.0000    10.0000     5.0000    20.0000     3.0004     1.0000    -0.4992    20.7734    41.5368     3.2050    14.4503    14.4502     1.7018     0.0000     1.0000     0.0385     0.000
    399     0.3333     0.3333     2.2400     0.0001     30.000   1230.000 225936.000     32.744    41.5367    94.9637   -74.9123    -1.9995     0.0009    26.0000     4.0000     9.0000    22.0000    26.0000    10.0000     5.0000    20.0000     3.0004     1.0000    -0.4992    20.7734    41.5368     3.2120    14.4503    14.4502     1.7018     0.0000     1.0000     0.0386     0.000
    400     0.3333     0.3333     2.2451     0.0001     30.000   1127.000 225508.000     32.682    41.5367    94.8892   -75.1044    -1.9995     0.0009    26.0000     4.0000     9.0000    22.0000    26.0000    10.0000     5.0000    20.0000     3.0004     1.0000    -0.4992    20.7734    41.5368     3.2190    14.4503    14.4502     1.7017     0.0000     1.0000     0.0386     0.000
    401     0.3333     0.3333     2.2500     0.0001     30.000   1167.000 225323.000     32.656    41.5367    94.8139   -75.2931    -1.9995     0.0009    26.0000     4.0000     9.0000    22.0000    26.0000    10.0000     5.0000    20.0000     3.0004     1.0000    -0.4993    20.7734    41.5368     3.2259    14.4503    14.4502     1.7016     0.0000     1.0000     0.0385     0.000
# Sum of Counts = 957046
# Center of Mass = 1.620274+/-0.002433
# Full Width Half-Maximum = 1.288735+/-0.001325
# 10:12:43 PM  9/19/2023   scan completed.
