# scan = 126
# date = 4/10/2024
# time = 3:20:14 AM
# proposal = 33477
# experiment = Commissioning and enabling the 4-circle capability at VERITAS
# experiment_number = 1012
# command = scanrel s1 1 -1 0.1
# builtin_command = scan s1 @(s1)+1 @(s1)+-1 0.100000
# users = Feng Ye, Mike McDowell, Adam Aczel, Bing Li, Wei Tian, Bing Li
# local_contact = Wei Tian, Adam Aczel
# scan_title = La2Ni7-FC, (1 -1 -9), rocking
# monochromator = PG002
# analyzer = Pg002
# sense = +-+
# collimation = 40-40-40-80
# samplename = La2Ni7, Al-doped CuFeO2
# sampletype = crystal
# samplemosaic = 30.000000
# latticeconstants = 
# ubmatrix = 
# mode = 0
# plane_normal = 0.000000,0.000000,0.000000
# ubconf = /C/SPICE/User/exp1012/UBConf/UB09Apr2024_32926PM.ini
# preset_type = normal 
# preset_channel = mcu
# preset_value = 10.000000
# def_x = s1
# def_y = detector
# col_headers = 
#   Pt.         s1       time   detector    monitor        mcu         m2        chi        phi         s2        sgl        sgu   slitb_bt   slitb_lf   slitb_rt   slitb_tp   slita_bt   slita_lf   slita_rt   slita_tp         a1         a2          q          h          k          l         ei         ef          e
      1   -29.9139     11.171   1614.000 106661.000     10.000    41.5367    34.7782   -93.3042   -61.8299     0.0409     0.0130    20.0000    10.0000    10.0000    20.0000    10.0000    10.0000    10.0000    10.0000    20.7603    -0.0011     2.7135     0.0000     0.0000     0.0000    14.4503    14.4503     0.000
      2   -30.0137     11.173   1565.000 106661.000     10.000    41.5367    34.7782   -93.3042   -61.8299     0.0409     0.0130    20.0000    10.0000    10.0000    20.0000    10.0000    10.0000    10.0000    10.0000    20.7603    -0.0011     2.7135     0.0000     0.0000     0.0000    14.4503    14.4503     0.000
      3   -30.1139     11.107   1638.000 106661.000     10.000    41.5367    34.7782   -93.3042   -61.8299     0.0409     0.0130    20.0000    10.0000    10.0000    20.0000    10.0000    10.0000    10.0000    10.0000    20.7603    -0.0011     2.7135     0.0000     0.0000     0.0000    14.4503    14.4503     0.000
      4   -30.2133     11.156   1780.000 106661.000     10.000    41.5367    34.7782   -93.3042   -61.8299     0.0409     0.0130    20.0000    10.0000    10.0000    20.0000    10.0000    10.0000    10.0000    10.0000    20.7603    -0.0011     2.7135     0.0000     0.0000     0.0000    14.4503    14.4503     0.000
      5   -30.3133     11.098   1737.000 106661.000     10.000    41.5367    34.7782   -93.3042   -61.8299     0.0409     0.0130    20.0000    10.0000    10.0000    20.0000    10.0000    10.0000    10.0000    10.0000    20.7603    -0.0011     2.7135     0.0000     0.0000     0.0000    14.4503    14.4503     0.000
      6   -30.4136     11.149   1826.000 106661.000     10.000    41.5367    34.7782   -93.3042   -61.8299     0.0409     0.0130    20.0000    10.0000    10.0000    20.0000    10.0000    10.0000    10.0000    10.0000    20.7603    -0.0011     2.7135     0.0000     0.0000     0.0000    14.4503    14.4503     0.000
      7   -30.5141     11.174   2162.000 106661.000     10.000    41.5367    34.7782   -93.3042   -61.8299     0.0409     0.0130    20.0000    10.0000    10.0000    20.0000    10.0000    10.0000    10.0000    10.0000    20.7603    -0.0011     2.7135     0.0000     0.0000     0.0000    14.4503    14.4503     0.000
      8   -30.6137     11.196   3197.000 106661.000     10.000    41.5367    34.7782   -93.3042   -61.8299     0.0409     0.0130    20.0000    10.0000    10.0000    20.0000    10.0000    10.0000    10.0000    10.0000    20.7603    -0.0011     2.7135     0.0000     0.0000     0.0000    14.4503    14.4503     0.000
      9   -30.7143     11.142   8270.000 106661.000     10.000    41.5367    34.7782   -93.3042   -61.8299     0.0409     0.0130    20.0000    10.0000    10.0000    20.0000    10.0000    10.0000    10.0000    10.0000    20.7603    -0.0011     2.7135     0.0000     0.0000     0.0000    14.4503    14.4503     0.000
     10   -30.8138     11.184  17411.000 106661.000     10.000    41.5367    34.7782   -93.3042   -61.8299     0.0409     0.0130    20.0000    10.0000    10.0000    20.0000    10.0000    10.0000    10.0000    10.0000    20.7603    -0.0011     2.7135     0.0000     0.0000     0.0000    14.4503    14.4503     0.000
     11   -30.9132     11.145  25743.000 106661.000     10.000    41.5367    34.7782   -93.3042   -61.8299     0.0409     0.0130    20.0000    10.0000    10.0000    20.0000    10.0000    10.0000    10.0000    10.0000    20.7603    -0.0011     2.7135     0.0000     0.0000     0.0000    14.4503    14.4503     0.000
     12   -31.0141     11.109  24484.000 106661.000     10.000    41.5367    34.7782   -93.3042   -61.8299     0.0409     0.0130    20.0000    10.0000    10.0000    20.0000    10.0000    10.0000    10.0000    10.0000    20.7603    -0.0011     2.7135     0.0000     0.0000     0.0000    14.4503    14.4503     0.000
     13   -31.1140     11.144  15748.000 106661.000     10.000    41.5367    34.7782   -93.3042   -61.8299     0.0409     0.0130    20.0000    10.0000    10.0000    20.0000    10.0000    10.0000    10.0000    10.0000    20.7603    -0.0011     2.7135     0.0000     0.0000     0.0000    14.4503    14.4503     0.000
     14   -31.2132     11.147   7707.000 106661.000     10.000    41.5367    34.7782   -93.3042   -61.8299     0.0409     0.0130    20.0000    10.0000    10.0000    20.0000    10.0000    10.0000    10.0000    10.0000    20.7603    -0.0011     2.7135     0.0000     0.0000     0.0000    14.4503    14.4503     0.000
     15   -31.3133     11.190   3990.000 106661.000     10.000    41.5367    34.7782   -93.3042   -61.8299     0.0409     0.0130    20.0000    10.0000    10.0000    20.0000    10.0000    10.0000    10.0000    10.0000    20.7603    -0.0011     2.7135     0.0000     0.0000     0.0000    14.4503    14.4503     0.000
     16   -31.4136     11.180   2406.000 106661.000     10.000    41.5367    34.7782   -93.3042   -61.8299     0.0409     0.0130    20.0000    10.0000    10.0000    20.0000    10.0000    10.0000    10.0000    10.0000    20.7603    -0.0011     2.7135     0.0000     0.0000     0.0000    14.4503    14.4503     0.000
     17   -31.5141     11.113   1908.000 106661.000     10.000    41.5367    34.7782   -93.3042   -61.8299     0.0409     0.0130    20.0000    10.0000    10.0000    20.0000    10.0000    10.0000    10.0000    10.0000    20.7603    -0.0011     2.7135     0.0000     0.0000     0.0000    14.4503    14.4503     0.000
     18   -31.6138     11.087   1900.000 106661.000     10.000    41.5367    34.7782   -93.3042   -61.8299     0.0409     0.0130    20.0000    10.0000    10.0000    20.0000    10.0000    10.0000    10.0000    10.0000    20.7603    -0.0011     2.7135     0.0000     0.0000     0.0000    14.4503    14.4503     0.000
     19   -31.7142     11.202   1893.000 106661.000     10.000    41.5367    34.7782   -93.3042   -61.8299     0.0409     0.0130    20.0000    10.0000    10.0000    20.0000    10.0000    10.0000    10.0000    10.0000    20.7603    -0.0011     2.7135     0.0000     0.0000     0.0000    14.4503    14.4503     0.000
     20   -31.8139     11.100   1876.000 106661.000     10.000    41.5367    34.7782   -93.3042   -61.8299     0.0409     0.0130    20.0000    10.0000    10.0000    20.0000    10.0000    10.0000    10.0000    10.0000    20.7603    -0.0011     2.7135     0.0000     0.0000     0.0000    14.4503    14.4503     0.000
     21   -31.9134     11.131   1869.000 106661.000     10.000    41.5367    34.7782   -93.3042   -61.8299     0.0409     0.0130    20.0000    10.0000    10.0000    20.0000    10.0000    10.0000    10.0000    10.0000    20.7603    -0.0011     2.7135     0.0000     0.0000     0.0000    14.4503    14.4503     0.000
# Sum of Counts = 130724
# Center of Mass = -30.955826+/-0.121086
# Full Width Half-Maximum = 0.695686+/-0.037831
# 3:24:25 AM  4/10/2024   scan completed.
