# scan = 222
# date = 4/10/2024
# time = 11:53:22 AM
# proposal = 33477
# experiment = Commissioning and enabling the 4-circle capability at VERITAS
# experiment_number = 1012
# command = scan phi 0 -180 0.3
# builtin_command = scan phi 0 -180 0.3
# users = Feng Ye, Mike McDowell, Adam Aczel, Bing Li, Wei Tian, Bing Li
# local_contact = Wei Tian, Adam Aczel
# scan_title = CuFeO2-Al, look for (003)
# monochromator = PG002
# analyzer = Pg002
# sense = +-+
# collimation = 40-40-40-80
# samplename = La2Ni7, Al-doped CuFeO2
# sampletype = crystal
# samplemosaic = 30.000000
# latticeconstants = 3.035000,3.035000,17.163000,90.000000,90.000000,120.000000
# ubmatrix = 0.269027,0.367498,-0.000000,-0.000000,-0.000000,0.058265,0.269027,-0.098471,0.000000
# mode = 0
# plane_normal = 0.000000,0.000000,1.000000
# ubconf = UB10Apr2024_113949AM.ini
# preset_type = normal 
# preset_channel = time
# preset_value = 1.000000
# def_x = phi
# def_y = detector
# col_headers = 
#   Pt.        phi       time   detector    monitor        mcu         m2        chi         s1         s2        sgl        sgu   slitb_bt   slitb_lf   slitb_rt   slitb_tp   slita_bt   slita_lf   slita_rt   slita_tp         a1         a2          q          h          k          l         ei         ef          e
      1     0.0000      1.000      7.000  10565.000      0.991    41.5367     0.0005   -12.0001   -24.0004     0.0409     0.0130    20.0000    10.0000    10.0000    20.0000    15.0000    10.0000    10.0000    15.0000    20.7607    -0.0011     1.0981     0.1377     0.3748    -0.0000    14.4503    14.4503     0.000
      2    -0.3000      1.000     11.000  10713.000      1.004    41.5367     0.0005   -12.0001   -24.0004     0.0409     0.0130    20.0000    10.0000    10.0000    20.0000    15.0000    10.0000    10.0000    15.0000    20.7607    -0.0011     1.0981     0.1377     0.3748    -0.0000    14.4503    14.4503     0.000
      3    -0.5999      1.000      8.000  10274.000      0.963    41.5367     0.0005   -12.0001   -24.0004     0.0409     0.0130    20.0000    10.0000    10.0000    20.0000    15.0000    10.0000    10.0000    15.0000    20.7607    -0.0011     1.0981     0.1377     0.3748    -0.0000    14.4503    14.4503     0.000
      4    -0.9001      1.000      7.000  10181.000      0.955    41.5367     0.0005   -12.0001   -24.0004     0.0409     0.0130    20.0000    10.0000    10.0000    20.0000    15.0000    10.0000    10.0000    15.0000    20.7607    -0.0010     1.0981     0.1377     0.3748    -0.0000    14.4503    14.4503     0.000
      5    -1.2000      1.000      4.000  10251.000      0.961    41.5367     0.0005   -12.0001   -24.0004     0.0409     0.0130    20.0000    10.0000    10.0000    20.0000    15.0000    10.0000    10.0000    15.0000    20.7607    -0.0011     1.0981     0.1377     0.3748    -0.0000    14.4503    14.4503     0.000
      6    -1.5001      1.000      6.000  10102.000      0.947    41.5367     0.0005   -12.0001   -24.0004     0.0409     0.0130    20.0000    10.0000    10.0000    20.0000    15.0000    10.0000    10.0000    15.0000    20.7607    -0.0011     1.0981     0.1377     0.3748    -0.0000    14.4503    14.4503     0.000
      7    -1.7999      1.000      7.000   9979.000      0.936    41.5367     0.0005   -12.0001   -24.0004     0.0409     0.0130    20.0000    10.0000    10.0000    20.0000    15.0000    10.0000    10.0000    15.0000    20.7607    -0.0011     1.0981     0.1377     0.3748    -0.0000    14.4503    14.4503     0.000
      8    -2.1000      1.000      7.000   9787.000      0.918    41.5367     0.0005   -12.0001   -24.0004     0.0409     0.0130    20.0000    10.0000    10.0000    20.0000    15.0000    10.0000    10.0000    15.0000    20.7607    -0.0011     1.0981     0.1377     0.3748    -0.0000    14.4503    14.4503     0.000
      9    -2.4000      1.000      7.000   9921.000      0.930    41.5367     0.0005   -12.0001   -24.0004     0.0409     0.0130    20.0000    10.0000    10.0000    20.0000    15.0000    10.0000    10.0000    15.0000    20.7607    -0.0011     1.0981     0.1377     0.3748    -0.0000    14.4503    14.4503     0.000
     10    -2.7001      1.000      7.000   9866.000      0.925    41.5367     0.0005   -12.0001   -24.0004     0.0409     0.0130    20.0000    10.0000    10.0000    20.0000    15.0000    10.0000    10.0000    15.0000    20.7607    -0.0011     1.0981     0.1377     0.3748    -0.0000    14.4503    14.4503     0.000
     11    -3.0000      1.000      6.000   9972.000      0.935    41.5367     0.0005   -12.0001   -24.0004     0.0409     0.0130    20.0000    10.0000    10.0000    20.0000    15.0000    10.0000    10.0000    15.0000    20.7607    -0.0011     1.0981     0.1377     0.3748    -0.0000    14.4503    14.4503     0.000
     12    -3.3001      1.000      5.000   9954.000      0.933    41.5367     0.0005   -12.0001   -24.0004     0.0409     0.0130    20.0000    10.0000    10.0000    20.0000    15.0000    10.0000    10.0000    15.0000    20.7607    -0.0011     1.0981     0.1377     0.3748    -0.0000    14.4503    14.4503     0.000
     13    -3.6000      1.000     11.000   9739.000      0.913    41.5367     0.0005   -12.0001   -24.0004     0.0409     0.0130    20.0000    10.0000    10.0000    20.0000    15.0000    10.0000    10.0000    15.0000    20.7607    -0.0011     1.0981     0.1377     0.3748    -0.0000    14.4503    14.4503     0.000
     14    -3.9000      1.000      5.000   9719.000      0.911    41.5367     0.0005   -12.0001   -24.0004     0.0409     0.0130    20.0000    10.0000    10.0000    20.0000    15.0000    10.0000    10.0000    15.0000    20.7607    -0.0011     1.0981     0.1377     0.3748    -0.0000    14.4503    14.4503     0.000
     15    -4.2000      1.000     18.000   9681.000      0.908    41.5367     0.0005   -12.0001   -24.0004     0.0409     0.0130    20.0000    10.0000    10.0000    20.0000    15.0000    10.0000    10.0000    15.0000    20.7607    -0.0010     1.0981     0.1377     0.3748    -0.0000    14.4503    14.4503     0.000
     16    -4.5000      1.000     10.000   9648.000      0.905    41.5367     0.0005   -12.0001   -24.0004     0.0409     0.0130    20.0000    10.0000    10.0000    20.0000    15.0000    10.0000    10.0000    15.0000    20.7607    -0.0011     1.0981     0.1377     0.3748    -0.0000    14.4503    14.4503     0.000
     17    -4.7999      1.000     11.000   9929.000      0.931    41.5367     0.0005   -12.0001   -24.0004     0.0409     0.0130    20.0000    10.0000    10.0000    20.0000    15.0000    10.0000    10.0000    15.0000    20.7607    -0.0011     1.0981     0.1377     0.3748    -0.0000    14.4503    14.4503     0.000
     18    -5.1001      1.000     13.000   9861.000      0.925    41.5367     0.0005   -12.0001   -24.0004     0.0409     0.0130    20.0000    10.0000    10.0000    20.0000    15.0000    10.0000    10.0000    15.0000    20.7607    -0.0011     1.0981     0.1377     0.3748    -0.0000    14.4503    14.4503     0.000
     19    -5.3999      1.000     10.000   9578.000      0.898    41.5367     0.0005   -12.0001   -24.0004     0.0409     0.0130    20.0000    10.0000    10.0000    20.0000    15.0000    10.0000    10.0000    15.0000    20.7607    -0.0011     1.0981     0.1377     0.3748    -0.0000    14.4503    14.4503     0.000
     20    -5.7001      1.000     12.000   9681.000      0.908    41.5367     0.0005   -12.0001   -24.0004     0.0409     0.0130    20.0000    10.0000    10.0000    20.0000    15.0000    10.0000    10.0000    15.0000    20.7607    -0.0010     1.0981     0.1377     0.3748    -0.0000    14.4503    14.4503     0.000
     21    -6.0000      1.000     13.000   9609.000      0.901    41.5367     0.0005   -12.0001   -24.0004     0.0409     0.0130    20.0000    10.0000    10.0000    20.0000    15.0000    10.0000    10.0000    15.0000    20.7607    -0.0011     1.0981     0.1377     0.3748    -0.0000    14.4503    14.4503     0.000
     22    -6.3000      1.000      5.000   9684.000      0.908    41.5367     0.0005   -12.0001   -24.0004     0.0409     0.0130    20.0000    10.0000    10.0000    20.0000    15.0000    10.0000    10.0000    15.0000    20.7607    -0.0011     1.0981     0.1377     0.3748    -0.0000    14.4503    14.4503     0.000
     23    -6.5999      1.000      8.000   9656.000      0.905    41.5367     0.0005   -12.0001   -24.0004     0.0409     0.0130    20.0000    10.0000    10.0000    20.0000    15.0000    10.0000    10.0000    15.0000    20.7607    -0.0011     1.0981     0.1377     0.3748    -0.0000    14.4503    14.4503     0.000
     24    -6.9001      1.000      9.000   9407.000      0.882    41.5367     0.0005   -12.0001   -24.0004     0.0409     0.0130    20.0000    10.0000    10.0000    20.0000    15.0000    10.0000    10.0000    15.0000    20.7607    -0.0011     1.0981     0.1377     0.3748    -0.0000    14.4503    14.4503     0.000
     25    -7.2000      1.000      7.000   9805.000      0.919    41.5367     0.0005   -12.0001   -24.0004     0.0409     0.0130    20.0000    10.0000    10.0000    20.0000    15.0000    10.0000    10.0000    15.0000    20.7607    -0.0011     1.0981     0.1377     0.3748    -0.0000    14.4503    14.4503     0.000
     26    -7.5000      1.000      9.000   9804.000      0.919    41.5367     0.0005   -12.0001   -24.0004     0.0409     0.0130    20.0000    10.0000    10.0000    20.0000    15.0000    10.0000    10.0000    15.0000    20.7607    -0.0011     1.0981     0.1377     0.3748    -0.0000    14.4503    14.4503     0.000
     27    -7.7999      1.000      3.000   9580.000      0.898    41.5367     0.0005   -12.0001   -24.0004     0.0409     0.0130    20.0000    10.0000    10.0000    20.0000    15.0000    10.0000    10.0000    15.0000    20.7607    -0.0011     1.0981     0.1377     0.3748    -0.0000    14.4503    14.4503     0.000
     28    -8.1000      1.000      9.000   9687.000      0.908    41.5367     0.0005   -12.0001   -24.0004     0.0409     0.0130    20.0000    10.0000    10.0000    20.0000    15.0000    10.0000    10.0000    15.0000    20.7607    -0.0010     1.0981     0.1377     0.3748    -0.0000    14.4503    14.4503     0.000
     29    -8.4000      1.000     12.000   9619.000      0.902    41.5367     0.0005   -12.0001   -24.0004     0.0409     0.0130    20.0000    10.0000    10.0000    20.0000    15.0000    10.0000    10.0000    15.0000    20.7607    -0.0011     1.0981     0.1377     0.3748    -0.0000    14.4503    14.4503     0.000
     30    -8.7000      1.000     13.000   9550.000      0.895    41.5367     0.0005   -12.0001   -24.0004     0.0409     0.0130    20.0000    10.0000    10.0000    20.0000    15.0000    10.0000    10.0000    15.0000    20.7607    -0.0011     1.0981     0.1377     0.3748    -0.0000    14.4503    14.4503     0.000
     31    -9.0000      1.000      9.000   9656.000      0.905    41.5367     0.0005   -12.0001   -24.0004     0.0409     0.0130    20.0000    10.0000    10.0000    20.0000    15.0000    10.0000    10.0000    15.0000    20.7607    -0.0010     1.0981     0.1377     0.3748    -0.0000    14.4503    14.4503     0.000
     32    -9.3001      1.000      6.000   9592.000      0.899    41.5367     0.0005   -12.0001   -24.0004     0.0409     0.0130    20.0000    10.0000    10.0000    20.0000    15.0000    10.0000    10.0000    15.0000    20.7607    -0.0011     1.0981     0.1377     0.3748    -0.0000    14.4503    14.4503     0.000
     33    -9.5999      1.000     12.000   9790.000      0.918    41.5367     0.0005   -12.0001   -24.0004     0.0409     0.0130    20.0000    10.0000    10.0000    20.0000    15.0000    10.0000    10.0000    15.0000    20.7607    -0.0010     1.0981     0.1377     0.3748    -0.0000    14.4503    14.4503     0.000
     34    -9.9001      1.000      5.000   9773.000      0.916    41.5367     0.0005   -12.0001   -24.0004     0.0409     0.0130    20.0000    10.0000    10.0000    20.0000    15.0000    10.0000    10.0000    15.0000    20.7607    -0.0010     1.0981     0.1377     0.3748    -0.0000    14.4503    14.4503     0.000
     35   -10.1999      1.000     15.000   9602.000      0.900    41.5367     0.0005   -12.0001   -24.0004     0.0409     0.0130    20.0000    10.0000    10.0000    20.0000    15.0000    10.0000    10.0000    15.0000    20.7607    -0.0011     1.0981     0.1377     0.3748    -0.0000    14.4503    14.4503     0.000
     36   -10.5000      1.000     11.000   9557.000      0.896    41.5367     0.0005   -12.0001   -24.0004     0.0409     0.0130    20.0000    10.0000    10.0000    20.0000    15.0000    10.0000    10.0000    15.0000    20.7607    -0.0010     1.0981     0.1377     0.3748    -0.0000    14.4503    14.4503     0.000
     37   -10.8000      1.000     16.000   9454.000      0.886    41.5367     0.0005   -12.0001   -24.0004     0.0409     0.0130    20.0000    10.0000    10.0000    20.0000    15.0000    10.0000    10.0000    15.0000    20.7607    -0.0010     1.0981     0.1377     0.3748    -0.0000    14.4503    14.4503     0.000
     38   -11.1000      1.000     10.000   9606.000      0.901    41.5367     0.0005   -12.0001   -24.0004     0.0409     0.0130    20.0000    10.0000    10.0000    20.0000    15.0000    10.0000    10.0000    15.0000    20.7607    -0.0011     1.0981     0.1377     0.3748    -0.0000    14.4503    14.4503     0.000
     39   -11.4000      1.000      6.000   9636.000      0.903    41.5367     0.0005   -12.0001   -24.0004     0.0409     0.0130    20.0000    10.0000    10.0000    20.0000    15.0000    10.0000    10.0000    15.0000    20.7607    -0.0011     1.0981     0.1377     0.3748    -0.0000    14.4503    14.4503     0.000
     40   -11.7000      1.000     11.000   9609.000      0.901    41.5367     0.0005   -12.0001   -24.0004     0.0409     0.0130    20.0000    10.0000    10.0000    20.0000    15.0000    10.0000    10.0000    15.0000    20.7607    -0.0011     1.0981     0.1377     0.3748    -0.0000    14.4503    14.4503     0.000
     41   -12.0000      1.000      4.000   9584.000      0.899    41.5367     0.0005   -12.0001   -24.0004     0.0409     0.0130    20.0000    10.0000    10.0000    20.0000    15.0000    10.0000    10.0000    15.0000    20.7607    -0.0011     1.0981     0.1377     0.3748    -0.0000    14.4503    14.4503     0.000
     42   -12.3001      1.000     12.000   9659.000      0.906    41.5367     0.0005   -12.0001   -24.0004     0.0409     0.0130    20.0000    10.0000    10.0000    20.0000    15.0000    10.0000    10.0000    15.0000    20.7607    -0.0010     1.0981     0.1377     0.3748    -0.0000    14.4503    14.4503     0.000
     43   -12.5999      1.000     11.000   9686.000      0.908    41.5367     0.0005   -12.0001   -24.0004     0.0409     0.0130    20.0000    10.0000    10.0000    20.0000    15.0000    10.0000    10.0000    15.0000    20.7607    -0.0011     1.0981     0.1377     0.3748    -0.0000    14.4503    14.4503     0.000
     44   -12.9001      1.000      6.000   9680.000      0.908    41.5367     0.0005   -12.0001   -24.0004     0.0409     0.0130    20.0000    10.0000    10.0000    20.0000    15.0000    10.0000    10.0000    15.0000    20.7607    -0.0011     1.0981     0.1377     0.3748    -0.0000    14.4503    14.4503     0.000
     45   -13.1999      1.000     10.000   9578.000      0.898    41.5367     0.0005   -12.0001   -24.0004     0.0409     0.0130    20.0000    10.0000    10.0000    20.0000    15.0000    10.0000    10.0000    15.0000    20.7607    -0.0011     1.0981     0.1377     0.3748    -0.0000    14.4503    14.4503     0.000
     46   -13.5000      1.000      7.000   9650.000      0.905    41.5367     0.0005   -12.0001   -24.0004     0.0409     0.0130    20.0000    10.0000    10.0000    20.0000    15.0000    10.0000    10.0000    15.0000    20.7607    -0.0010     1.0981     0.1377     0.3748    -0.0000    14.4503    14.4503     0.000
     47   -13.8000      1.000      8.000   9604.000      0.900    41.5367     0.0005   -12.0001   -24.0004     0.0409     0.0130    20.0000    10.0000    10.0000    20.0000    15.0000    10.0000    10.0000    15.0000    20.7607    -0.0011     1.0981     0.1377     0.3748    -0.0000    14.4503    14.4503     0.000
     48   -14.1000      1.000     10.000   9586.000      0.899    41.5367     0.0005   -12.0001   -24.0004     0.0409     0.0130    20.0000    10.0000    10.0000    20.0000    15.0000    10.0000    10.0000    15.0000    20.7607    -0.0011     1.0981     0.1377     0.3748    -0.0000    14.4503    14.4503     0.000
     49   -14.4000      1.000      6.000   9565.000      0.897    41.5367     0.0005   -12.0001   -24.0004     0.0409     0.0130    20.0000    10.0000    10.0000    20.0000    15.0000    10.0000    10.0000    15.0000    20.7607    -0.0011     1.0981     0.1377     0.3748    -0.0000    14.4503    14.4503     0.000
     50   -14.7000      1.000      2.000   9696.000      0.909    41.5367     0.0005   -12.0001   -24.0004     0.0409     0.0130    20.0000    10.0000    10.0000    20.0000    15.0000    10.0000    10.0000    15.0000    20.7607    -0.0011     1.0981     0.1377     0.3748    -0.0000    14.4503    14.4503     0.000
     51   -15.0000      1.000      3.000   9506.000      0.891    41.5367     0.0005   -12.0001   -24.0004     0.0409     0.0130    20.0000    10.0000    10.0000    20.0000    15.0000    10.0000    10.0000    15.0000    20.7607    -0.0010     1.0981     0.1377     0.3748    -0.0000    14.4503    14.4503     0.000
     52   -15.3001      1.000      9.000   9533.000      0.894    41.5367     0.0005   -12.0001   -24.0004     0.0409     0.0130    20.0000    10.0000    10.0000    20.0000    15.0000    10.0000    10.0000    15.0000    20.7607    -0.0010     1.0981     0.1377     0.3748    -0.0000    14.4503    14.4503     0.000
     53   -15.5999      1.000      4.000   9529.000      0.893    41.5367     0.0005   -12.0001   -24.0004     0.0409     0.0130    20.0000    10.0000    10.0000    20.0000    15.0000    10.0000    10.0000    15.0000    20.7607    -0.0011     1.0981     0.1377     0.3748    -0.0000    14.4503    14.4503     0.000
     54   -15.9001      1.000      9.000   9578.000      0.898    41.5367     0.0005   -12.0001   -24.0004     0.0409     0.0130    20.0000    10.0000    10.0000    20.0000    15.0000    10.0000    10.0000    15.0000    20.7607    -0.0010     1.0981     0.1377     0.3748    -0.0000    14.4503    14.4503     0.000
     55   -16.1999      1.000      4.000   9555.000      0.896    41.5367     0.0005   -12.0001   -24.0004     0.0409     0.0130    20.0000    10.0000    10.0000    20.0000    15.0000    10.0000    10.0000    15.0000    20.7607    -0.0011     1.0981     0.1377     0.3748    -0.0000    14.4503    14.4503     0.000
     56   -16.5001      1.000     10.000   9736.000      0.913    41.5367     0.0005   -12.0001   -24.0004     0.0409     0.0130    20.0000    10.0000    10.0000    20.0000    15.0000    10.0000    10.0000    15.0000    20.7607    -0.0010     1.0981     0.1377     0.3748    -0.0000    14.4503    14.4503     0.000
     57   -16.7999      1.000      9.000   9615.000      0.901    41.5367     0.0005   -12.0001   -24.0004     0.0409     0.0130    20.0000    10.0000    10.0000    20.0000    15.0000    10.0000    10.0000    15.0000    20.7607    -0.0011     1.0981     0.1377     0.3748    -0.0000    14.4503    14.4503     0.000
     58   -17.1000      1.000      7.000   9589.000      0.899    41.5367     0.0005   -12.0001   -24.0004     0.0409     0.0130    20.0000    10.0000    10.0000    20.0000    15.0000    10.0000    10.0000    15.0000    20.7607    -0.0011     1.0981     0.1377     0.3748    -0.0000    14.4503    14.4503     0.000
     59   -17.4000      1.000      6.000   9623.000      0.902    41.5367     0.0005   -12.0001   -24.0004     0.0409     0.0130    20.0000    10.0000    10.0000    20.0000    15.0000    10.0000    10.0000    15.0000    20.7607    -0.0011     1.0981     0.1377     0.3748    -0.0000    14.4503    14.4503     0.000
     60   -17.7001      1.000     10.000   9668.000      0.906    41.5367     0.0005   -12.0001   -24.0004     0.0409     0.0130    20.0000    10.0000    10.0000    20.0000    15.0000    10.0000    10.0000    15.0000    20.7607    -0.0011     1.0981     0.1377     0.3748    -0.0000    14.4503    14.4503     0.000
     61   -17.9999      1.000      5.000   9515.000      0.892    41.5367     0.0005   -12.0001   -24.0004     0.0409     0.0130    20.0000    10.0000    10.0000    20.0000    15.0000    10.0000    10.0000    15.0000    20.7607    -0.0010     1.0981     0.1377     0.3748    -0.0000    14.4503    14.4503     0.000
     62   -18.3000      1.000     13.000   9655.000      0.905    41.5367     0.0005   -12.0001   -24.0004     0.0409     0.0130    20.0000    10.0000    10.0000    20.0000    15.0000    10.0000    10.0000    15.0000    20.7607    -0.0011     1.0981     0.1377     0.3748    -0.0000    14.4503    14.4503     0.000
     63   -18.5999      1.000      8.000   9533.000      0.894    41.5367     0.0005   -12.0001   -24.0004     0.0409     0.0130    20.0000    10.0000    10.0000    20.0000    15.0000    10.0000    10.0000    15.0000    20.7607    -0.0010     1.0981     0.1377     0.3748    -0.0000    14.4503    14.4503     0.000
     64   -18.9001      1.000     12.000   9783.000      0.917    41.5367     0.0005   -12.0001   -24.0004     0.0409     0.0130    20.0000    10.0000    10.0000    20.0000    15.0000    10.0000    10.0000    15.0000    20.7607    -0.0011     1.0981     0.1377     0.3748    -0.0000    14.4503    14.4503     0.000
     65   -19.2000      1.000     11.000   9549.000      0.895    41.5367     0.0005   -12.0001   -24.0004     0.0409     0.0130    20.0000    10.0000    10.0000    20.0000    15.0000    10.0000    10.0000    15.0000    20.7607    -0.0011     1.0981     0.1377     0.3748    -0.0000    14.4503    14.4503     0.000
     66   -19.5001      1.000     10.000   9537.000      0.894    41.5367     0.0005   -12.0001   -24.0004     0.0409     0.0130    20.0000    10.0000    10.0000    20.0000    15.0000    10.0000    10.0000    15.0000    20.7607    -0.0011     1.0981     0.1377     0.3748    -0.0000    14.4503    14.4503     0.000
     67   -19.7999      1.000      6.000   9410.000      0.882    41.5367     0.0005   -12.0001   -24.0004     0.0409     0.0130    20.0000    10.0000    10.0000    20.0000    15.0000    10.0000    10.0000    15.0000    20.7607    -0.0010     1.0981     0.1377     0.3748    -0.0000    14.4503    14.4503     0.000
     68   -20.1000      1.000      6.000   9689.000      0.908    41.5367     0.0005   -12.0001   -24.0004     0.0409     0.0130    20.0000    10.0000    10.0000    20.0000    15.0000    10.0000    10.0000    15.0000    20.7607    -0.0011     1.0981     0.1377     0.3748    -0.0000    14.4503    14.4503     0.000
     69   -20.4000      1.000      8.000   9383.000      0.880    41.5367     0.0005   -12.0001   -24.0004     0.0409     0.0130    20.0000    10.0000    10.0000    20.0000    15.0000    10.0000    10.0000    15.0000    20.7607    -0.0010     1.0981     0.1377     0.3748    -0.0000    14.4503    14.4503     0.000
     70   -20.7001      1.000     11.000   9705.000      0.910    41.5367     0.0005   -12.0001   -24.0004     0.0409     0.0130    20.0000    10.0000    10.0000    20.0000    15.0000    10.0000    10.0000    15.0000    20.7607    -0.0010     1.0981     0.1377     0.3748    -0.0000    14.4503    14.4503     0.000
     71   -20.9999      1.000      6.000   9564.000      0.897    41.5367     0.0005   -12.0001   -24.0004     0.0409     0.0130    20.0000    10.0000    10.0000    20.0000    15.0000    10.0000    10.0000    15.0000    20.7607    -0.0011     1.0981     0.1377     0.3748    -0.0000    14.4503    14.4503     0.000
     72   -21.3000      1.000      6.000   9590.000      0.899    41.5367     0.0005   -12.0001   -24.0004     0.0409     0.0130    20.0000    10.0000    10.0000    20.0000    15.0000    10.0000    10.0000    15.0000    20.7607    -0.0010     1.0981     0.1377     0.3748    -0.0000    14.4503    14.4503     0.000
     73   -21.5999      1.000     12.000   9687.000      0.908    41.5367     0.0005   -12.0001   -24.0004     0.0409     0.0130    20.0000    10.0000    10.0000    20.0000    15.0000    10.0000    10.0000    15.0000    20.7607    -0.0010     1.0981     0.1377     0.3748    -0.0000    14.4503    14.4503     0.000
     74   -21.9001      1.000      9.000   9595.000      0.900    41.5367     0.0005   -12.0001   -24.0004     0.0409     0.0130    20.0000    10.0000    10.0000    20.0000    15.0000    10.0000    10.0000    15.0000    20.7607    -0.0011     1.0981     0.1377     0.3748    -0.0000    14.4503    14.4503     0.000
     75   -22.2000      1.000      9.000   9541.000      0.895    41.5367     0.0005   -12.0001   -24.0004     0.0409     0.0130    20.0000    10.0000    10.0000    20.0000    15.0000    10.0000    10.0000    15.0000    20.7607    -0.0011     1.0981     0.1377     0.3748    -0.0000    14.4503    14.4503     0.000
     76   -22.5001      1.000     10.000   9714.000      0.911    41.5367     0.0005   -12.0001   -24.0004     0.0409     0.0130    20.0000    10.0000    10.0000    20.0000    15.0000    10.0000    10.0000    15.0000    20.7607    -0.0010     1.0981     0.1377     0.3748    -0.0000    14.4503    14.4503     0.000
     77   -22.7999      1.000      1.000   9602.000      0.900    41.5367     0.0005   -12.0001   -24.0004     0.0409     0.0130    20.0000    10.0000    10.0000    20.0000    15.0000    10.0000    10.0000    15.0000    20.7607    -0.0011     1.0981     0.1377     0.3748    -0.0000    14.4503    14.4503     0.000
     78   -23.1000      1.000     10.000   9422.000      0.883    41.5367     0.0005   -12.0001   -24.0004     0.0409     0.0130    20.0000    10.0000    10.0000    20.0000    15.0000    10.0000    10.0000    15.0000    20.7607    -0.0011     1.0981     0.1377     0.3748    -0.0000    14.4503    14.4503     0.000
     79   -23.4000      1.000      8.000   9685.000      0.908    41.5367     0.0005   -12.0001   -24.0004     0.0409     0.0130    20.0000    10.0000    10.0000    20.0000    15.0000    10.0000    10.0000    15.0000    20.7607    -0.0010     1.0981     0.1377     0.3748    -0.0000    14.4503    14.4503     0.000
     80   -23.7001      1.000      6.000   9577.000      0.898    41.5367     0.0005   -12.0001   -24.0004     0.0409     0.0130    20.0000    10.0000    10.0000    20.0000    15.0000    10.0000    10.0000    15.0000    20.7607    -0.0011     1.0981     0.1377     0.3748    -0.0000    14.4503    14.4503     0.000
     81   -23.9999      1.000     14.000   9514.000      0.892    41.5367     0.0005   -12.0001   -24.0004     0.0409     0.0130    20.0000    10.0000    10.0000    20.0000    15.0000    10.0000    10.0000    15.0000    20.7607    -0.0011     1.0981     0.1377     0.3748    -0.0000    14.4503    14.4503     0.000
     82   -24.3000      1.000      9.000   9568.000      0.897    41.5367     0.0005   -12.0001   -24.0004     0.0409     0.0130    20.0000    10.0000    10.0000    20.0000    15.0000    10.0000    10.0000    15.0000    20.7607    -0.0010     1.0981     0.1377     0.3748    -0.0000    14.4503    14.4503     0.000
     83   -24.5999      1.000     13.000   9810.000      0.920    41.5367     0.0005   -12.0001   -24.0004     0.0409     0.0130    20.0000    10.0000    10.0000    20.0000    15.0000    10.0000    10.0000    15.0000    20.7607    -0.0011     1.0981     0.1377     0.3748    -0.0000    14.4503    14.4503     0.000
     84   -24.9001      1.000      8.000   9718.000      0.911    41.5367     0.0005   -12.0001   -24.0004     0.0409     0.0130    20.0000    10.0000    10.0000    20.0000    15.0000    10.0000    10.0000    15.0000    20.7607    -0.0011     1.0981     0.1377     0.3748    -0.0000    14.4503    14.4503     0.000
     85   -25.2000      1.000      7.000   9646.000      0.904    41.5367     0.0005   -12.0001   -24.0004     0.0409     0.0130    20.0000    10.0000    10.0000    20.0000    15.0000    10.0000    10.0000    15.0000    20.7607    -0.0010     1.0981     0.1377     0.3748    -0.0000    14.4503    14.4503     0.000
     86   -25.5001      1.000      9.000   9444.000      0.885    41.5367     0.0005   -12.0001   -24.0004     0.0409     0.0130    20.0000    10.0000    10.0000    20.0000    15.0000    10.0000    10.0000    15.0000    20.7607    -0.0011     1.0981     0.1377     0.3748    -0.0000    14.4503    14.4503     0.000
     87   -25.7999      1.000      2.000   9645.000      0.904    41.5367     0.0005   -12.0001   -24.0004     0.0409     0.0130    20.0000    10.0000    10.0000    20.0000    15.0000    10.0000    10.0000    15.0000    20.7607    -0.0010     1.0981     0.1377     0.3748    -0.0000    14.4503    14.4503     0.000
     88   -26.1000      1.000      8.000   9690.000      0.908    41.5367     0.0005   -12.0001   -24.0004     0.0409     0.0130    20.0000    10.0000    10.0000    20.0000    15.0000    10.0000    10.0000    15.0000    20.7607    -0.0011     1.0981     0.1377     0.3748    -0.0000    14.4503    14.4503     0.000
     89   -26.4000      1.000      7.000   9692.000      0.909    41.5367     0.0005   -12.0001   -24.0004     0.0409     0.0130    20.0000    10.0000    10.0000    20.0000    15.0000    10.0000    10.0000    15.0000    20.7607    -0.0011     1.0981     0.1377     0.3748    -0.0000    14.4503    14.4503     0.000
     90   -26.7001      1.000     14.000   9612.000      0.901    41.5367     0.0005   -12.0001   -24.0004     0.0409     0.0130    20.0000    10.0000    10.0000    20.0000    15.0000    10.0000    10.0000    15.0000    20.7607    -0.0010     1.0981     0.1377     0.3748    -0.0000    14.4503    14.4503     0.000
     91   -26.9999      1.000     11.000   9650.000      0.905    41.5367     0.0005   -12.0001   -24.0004     0.0409     0.0130    20.0000    10.0000    10.0000    20.0000    15.0000    10.0000    10.0000    15.0000    20.7607    -0.0011     1.0981     0.1377     0.3748    -0.0000    14.4503    14.4503     0.000
     92   -27.3000      1.000     12.000   9555.000      0.896    41.5367     0.0005   -12.0001   -24.0004     0.0409     0.0130    20.0000    10.0000    10.0000    20.0000    15.0000    10.0000    10.0000    15.0000    20.7607    -0.0011     1.0981     0.1377     0.3748    -0.0000    14.4503    14.4503     0.000
     93   -27.5999      1.000     13.000   9640.000      0.904    41.5367     0.0005   -12.0001   -24.0004     0.0409     0.0130    20.0000    10.0000    10.0000    20.0000    15.0000    10.0000    10.0000    15.0000    20.7607    -0.0011     1.0981     0.1377     0.3748    -0.0000    14.4503    14.4503     0.000
     94   -27.9001      1.000      9.000   9607.000      0.901    41.5367     0.0005   -12.0001   -24.0004     0.0409     0.0130    20.0000    10.0000    10.0000    20.0000    15.0000    10.0000    10.0000    15.0000    20.7607    -0.0011     1.0981     0.1377     0.3748    -0.0000    14.4503    14.4503     0.000
     95   -28.2000      1.000      8.000   9546.000      0.895    41.5367     0.0005   -12.0001   -24.0004     0.0409     0.0130    20.0000    10.0000    10.0000    20.0000    15.0000    10.0000    10.0000    15.0000    20.7607    -0.0010     1.0981     0.1377     0.3748    -0.0000    14.4503    14.4503     0.000
     96   -28.5001      1.000     12.000   9451.000      0.886    41.5367     0.0005   -12.0001   -24.0004     0.0409     0.0130    20.0000    10.0000    10.0000    20.0000    15.0000    10.0000    10.0000    15.0000    20.7607    -0.0011     1.0981     0.1377     0.3748    -0.0000    14.4503    14.4503     0.000
     97   -28.7999      1.000      8.000   9515.000      0.892    41.5367     0.0005   -12.0001   -24.0004     0.0409     0.0130    20.0000    10.0000    10.0000    20.0000    15.0000    10.0000    10.0000    15.0000    20.7607    -0.0011     1.0981     0.1377     0.3748    -0.0000    14.4503    14.4503     0.000
     98   -29.1000      1.000      8.000   9444.000      0.885    41.5367     0.0005   -12.0001   -24.0004     0.0409     0.0130    20.0000    10.0000    10.0000    20.0000    15.0000    10.0000    10.0000    15.0000    20.7607    -0.0011     1.0981     0.1377     0.3748    -0.0000    14.4503    14.4503     0.000
     99   -29.4000      1.000      7.000   9449.000      0.886    41.5367     0.0005   -12.0001   -24.0004     0.0409     0.0130    20.0000    10.0000    10.0000    20.0000    15.0000    10.0000    10.0000    15.0000    20.7607    -0.0010     1.0981     0.1377     0.3748    -0.0000    14.4503    14.4503     0.000
    100   -29.7001      1.000      9.000   9578.000      0.898    41.5367     0.0005   -12.0001   -24.0004     0.0409     0.0130    20.0000    10.0000    10.0000    20.0000    15.0000    10.0000    10.0000    15.0000    20.7607    -0.0011     1.0981     0.1377     0.3748    -0.0000    14.4503    14.4503     0.000
    101   -29.9999      1.000     10.000   9575.000      0.898    41.5367     0.0005   -12.0001   -24.0004     0.0409     0.0130    20.0000    10.0000    10.0000    20.0000    15.0000    10.0000    10.0000    15.0000    20.7607    -0.0011     1.0981     0.1377     0.3748    -0.0000    14.4503    14.4503     0.000
    102   -30.3000      1.000     10.000   9515.000      0.892    41.5367     0.0005   -12.0001   -24.0004     0.0409     0.0130    20.0000    10.0000    10.0000    20.0000    15.0000    10.0000    10.0000    15.0000    20.7607    -0.0011     1.0981     0.1377     0.3748    -0.0000    14.4503    14.4503     0.000
    103   -30.5999      1.000      7.000   9592.000      0.899    41.5367     0.0005   -12.0001   -24.0004     0.0409     0.0130    20.0000    10.0000    10.0000    20.0000    15.0000    10.0000    10.0000    15.0000    20.7607    -0.0011     1.0981     0.1377     0.3748    -0.0000    14.4503    14.4503     0.000
    104   -30.9001      1.000     10.000   9698.000      0.909    41.5367     0.0005   -12.0001   -24.0004     0.0409     0.0130    20.0000    10.0000    10.0000    20.0000    15.0000    10.0000    10.0000    15.0000    20.7607    -0.0011     1.0981     0.1377     0.3748    -0.0000    14.4503    14.4503     0.000
    105   -31.2000      1.000     10.000   9580.000      0.898    41.5367     0.0005   -12.0001   -24.0004     0.0409     0.0130    20.0000    10.0000    10.0000    20.0000    15.0000    10.0000    10.0000    15.0000    20.7607    -0.0010     1.0981     0.1377     0.3748    -0.0000    14.4503    14.4503     0.000
    106   -31.5001      1.000      6.000   9670.000      0.907    41.5367     0.0005   -12.0001   -24.0004     0.0409     0.0130    20.0000    10.0000    10.0000    20.0000    15.0000    10.0000    10.0000    15.0000    20.7607    -0.0010     1.0981     0.1377     0.3748    -0.0000    14.4503    14.4503     0.000
    107   -31.7999      1.000     11.000   9624.000      0.902    41.5367     0.0005   -12.0001   -24.0004     0.0409     0.0130    20.0000    10.0000    10.0000    20.0000    15.0000    10.0000    10.0000    15.0000    20.7607    -0.0010     1.0981     0.1377     0.3748    -0.0000    14.4503    14.4503     0.000
    108   -32.1001      1.000      7.000   9579.000      0.898    41.5367     0.0005   -12.0001   -24.0004     0.0409     0.0130    20.0000    10.0000    10.0000    20.0000    15.0000    10.0000    10.0000    15.0000    20.7607    -0.0010     1.0981     0.1377     0.3748    -0.0000    14.4503    14.4503     0.000
    109   -32.3999      1.000      7.000   9578.000      0.898    41.5367     0.0005   -12.0001   -24.0004     0.0409     0.0130    20.0000    10.0000    10.0000    20.0000    15.0000    10.0000    10.0000    15.0000    20.7607    -0.0011     1.0981     0.1377     0.3748    -0.0000    14.4503    14.4503     0.000
    110   -32.7000      1.000     13.000   9568.000      0.897    41.5367     0.0005   -12.0001   -24.0004     0.0409     0.0130    20.0000    10.0000    10.0000    20.0000    15.0000    10.0000    10.0000    15.0000    20.7607    -0.0011     1.0981     0.1377     0.3748    -0.0000    14.4503    14.4503     0.000
    111   -32.9999      1.000      6.000   9519.000      0.892    41.5367     0.0005   -12.0001   -24.0004     0.0409     0.0130    20.0000    10.0000    10.0000    20.0000    15.0000    10.0000    10.0000    15.0000    20.7607    -0.0010     1.0981     0.1377     0.3748    -0.0000    14.4503    14.4503     0.000
    112   -33.3000      1.000     11.000   9758.000      0.915    41.5367     0.0005   -12.0001   -24.0004     0.0409     0.0130    20.0000    10.0000    10.0000    20.0000    15.0000    10.0000    10.0000    15.0000    20.7607    -0.0010     1.0981     0.1377     0.3748    -0.0000    14.4503    14.4503     0.000
    113   -33.5999      1.000     13.000   9552.000      0.896    41.5367     0.0005   -12.0001   -24.0004     0.0409     0.0130    20.0000    10.0000    10.0000    20.0000    15.0000    10.0000    10.0000    15.0000    20.7607    -0.0010     1.0981     0.1377     0.3748    -0.0000    14.4503    14.4503     0.000
    114   -33.9001      1.000      7.000   9740.000      0.913    41.5367     0.0005   -12.0001   -24.0004     0.0409     0.0130    20.0000    10.0000    10.0000    20.0000    15.0000    10.0000    10.0000    15.0000    20.7607    -0.0010     1.0981     0.1377     0.3748    -0.0000    14.4503    14.4503     0.000
    115   -34.2000      1.000      6.000   9584.000      0.899    41.5367     0.0005   -12.0001   -24.0004     0.0409     0.0130    20.0000    10.0000    10.0000    20.0000    15.0000    10.0000    10.0000    15.0000    20.7607    -0.0011     1.0981     0.1377     0.3748    -0.0000    14.4503    14.4503     0.000
    116   -34.5001      1.000      7.000   9659.000      0.906    41.5367     0.0005   -12.0001   -24.0004     0.0409     0.0130    20.0000    10.0000    10.0000    20.0000    15.0000    10.0000    10.0000    15.0000    20.7607    -0.0010     1.0981     0.1377     0.3748    -0.0000    14.4503    14.4503     0.000
    117   -34.8000      1.000     10.000   9631.000      0.903    41.5367     0.0005   -12.0001   -24.0004     0.0409     0.0130    20.0000    10.0000    10.0000    20.0000    15.0000    10.0000    10.0000    15.0000    20.7607    -0.0011     1.0981     0.1377     0.3748    -0.0000    14.4503    14.4503     0.000
    118   -35.1001      1.000     10.000   9544.000      0.895    41.5367     0.0005   -12.0001   -24.0004     0.0409     0.0130    20.0000    10.0000    10.0000    20.0000    15.0000    10.0000    10.0000    15.0000    20.7607    -0.0010     1.0981     0.1377     0.3748    -0.0000    14.4503    14.4503     0.000
    119   -35.3999      1.000      6.000   9699.000      0.909    41.5367     0.0005   -12.0001   -24.0004     0.0409     0.0130    20.0000    10.0000    10.0000    20.0000    15.0000    10.0000    10.0000    15.0000    20.7607    -0.0011     1.0981     0.1377     0.3748    -0.0000    14.4503    14.4503     0.000
    120   -35.7000      1.000      9.000   9565.000      0.897    41.5367     0.0005   -12.0001   -24.0004     0.0409     0.0130    20.0000    10.0000    10.0000    20.0000    15.0000    10.0000    10.0000    15.0000    20.7607    -0.0010     1.0981     0.1377     0.3748    -0.0000    14.4503    14.4503     0.000
    121   -35.9999      1.000      8.000   9736.000      0.913    41.5367     0.0005   -12.0001   -24.0004     0.0409     0.0130    20.0000    10.0000    10.0000    20.0000    15.0000    10.0000    10.0000    15.0000    20.7607    -0.0010     1.0981     0.1377     0.3748    -0.0000    14.4503    14.4503     0.000
    122   -36.3000      1.000     11.000   9520.000      0.893    41.5367     0.0005   -12.0001   -24.0004     0.0409     0.0130    20.0000    10.0000    10.0000    20.0000    15.0000    10.0000    10.0000    15.0000    20.7607    -0.0010     1.0981     0.1377     0.3748    -0.0000    14.4503    14.4503     0.000
    123   -36.5999      1.000     12.000   9523.000      0.893    41.5367     0.0005   -12.0001   -24.0004     0.0409     0.0130    20.0000    10.0000    10.0000    20.0000    15.0000    10.0000    10.0000    15.0000    20.7607    -0.0010     1.0981     0.1377     0.3748    -0.0000    14.4503    14.4503     0.000
    124   -36.9001      1.000      9.000   9638.000      0.904    41.5367     0.0005   -12.0002   -24.0004     0.0409     0.0130    20.0000    10.0000    10.0000    20.0000    15.0000    10.0000    10.0000    15.0000    20.7607    -0.0011     1.0981     0.1377     0.3748    -0.0000    14.4503    14.4503     0.000
    125   -37.2000      1.000      7.000   9520.000      0.893    41.5367     0.0005   -12.0001   -24.0004     0.0409     0.0130    20.0000    10.0000    10.0000    20.0000    15.0000    10.0000    10.0000    15.0000    20.7607    -0.0011     1.0981     0.1377     0.3748    -0.0000    14.4503    14.4503     0.000
    126   -37.5001      1.000     12.000   9635.000      0.903    41.5367     0.0005   -12.0001   -24.0004     0.0409     0.0130    20.0000    10.0000    10.0000    20.0000    15.0000    10.0000    10.0000    15.0000    20.7607    -0.0010     1.0981     0.1377     0.3748    -0.0000    14.4503    14.4503     0.000
    127   -37.8000      1.000     13.000   9649.000      0.905    41.5367     0.0005   -12.0001   -24.0004     0.0409     0.0130    20.0000    10.0000    10.0000    20.0000    15.0000    10.0000    10.0000    15.0000    20.7607    -0.0011     1.0981     0.1377     0.3748    -0.0000    14.4503    14.4503     0.000
    128   -38.1001      1.000     10.000   9539.000      0.894    41.5367     0.0005   -12.0001   -24.0004     0.0409     0.0130    20.0000    10.0000    10.0000    20.0000    15.0000    10.0000    10.0000    15.0000    20.7607    -0.0010     1.0981     0.1377     0.3748    -0.0000    14.4503    14.4503     0.000
    129   -38.3999      1.000      6.000   9344.000      0.876    41.5367     0.0005   -12.0001   -24.0004     0.0409     0.0130    20.0000    10.0000    10.0000    20.0000    15.0000    10.0000    10.0000    15.0000    20.7607    -0.0011     1.0981     0.1377     0.3748    -0.0000    14.4503    14.4503     0.000
    130   -38.7001      1.000      8.000   9730.000      0.912    41.5367     0.0005   -12.0001   -24.0004     0.0409     0.0130    20.0000    10.0000    10.0000    20.0000    15.0000    10.0000    10.0000    15.0000    20.7607    -0.0010     1.0981     0.1377     0.3748    -0.0000    14.4503    14.4503     0.000
    131   -38.9999      1.000     13.000   9586.000      0.899    41.5367     0.0005   -12.0001   -24.0004     0.0409     0.0130    20.0000    10.0000    10.0000    20.0000    15.0000    10.0000    10.0000    15.0000    20.7607    -0.0011     1.0981     0.1377     0.3748    -0.0000    14.4503    14.4503     0.000
    132   -39.3000      1.000      4.000   9660.000      0.906    41.5367     0.0005   -12.0001   -24.0004     0.0409     0.0130    20.0000    10.0000    10.0000    20.0000    15.0000    10.0000    10.0000    15.0000    20.7607    -0.0011     1.0981     0.1377     0.3748    -0.0000    14.4503    14.4503     0.000
    133   -39.5999      1.000      7.000   9677.000      0.907    41.5367     0.0005   -12.0001   -24.0004     0.0409     0.0130    20.0000    10.0000    10.0000    20.0000    15.0000    10.0000    10.0000    15.0000    20.7607    -0.0010     1.0981     0.1377     0.3748    -0.0000    14.4503    14.4503     0.000
    134   -39.9001      1.000     11.000   9564.000      0.897    41.5367     0.0005   -12.0001   -24.0004     0.0409     0.0130    20.0000    10.0000    10.0000    20.0000    15.0000    10.0000    10.0000    15.0000    20.7607    -0.0010     1.0981     0.1377     0.3748    -0.0000    14.4503    14.4503     0.000
    135   -40.2000      1.000      8.000   9574.000      0.898    41.5367     0.0005   -12.0001   -24.0004     0.0409     0.0130    20.0000    10.0000    10.0000    20.0000    15.0000    10.0000    10.0000    15.0000    20.7607    -0.0010     1.0981     0.1377     0.3748    -0.0000    14.4503    14.4503     0.000
    136   -40.5001      1.000     14.000   9651.000      0.905    41.5367     0.0005   -12.0001   -24.0004     0.0409     0.0130    20.0000    10.0000    10.0000    20.0000    15.0000    10.0000    10.0000    15.0000    20.7607    -0.0010     1.0981     0.1377     0.3748    -0.0000    14.4503    14.4503     0.000
    137   -40.8000      1.000     13.000   9690.000      0.908    41.5367     0.0005   -12.0001   -24.0004     0.0409     0.0130    20.0000    10.0000    10.0000    20.0000    15.0000    10.0000    10.0000    15.0000    20.7607    -0.0010     1.0981     0.1377     0.3748    -0.0000    14.4503    14.4503     0.000
    138   -41.1001      1.000     11.000   9647.000      0.904    41.5367     0.0005   -12.0001   -24.0004     0.0409     0.0130    20.0000    10.0000    10.0000    20.0000    15.0000    10.0000    10.0000    15.0000    20.7607    -0.0010     1.0981     0.1377     0.3748    -0.0000    14.4503    14.4503     0.000
    139   -41.3999      1.000      6.000   9670.000      0.907    41.5367     0.0005   -12.0001   -24.0004     0.0409     0.0130    20.0000    10.0000    10.0000    20.0000    15.0000    10.0000    10.0000    15.0000    20.7607    -0.0011     1.0981     0.1377     0.3748    -0.0000    14.4503    14.4503     0.000
    140   -41.7000      1.000     15.000   9553.000      0.896    41.5367     0.0005   -12.0001   -24.0004     0.0409     0.0130    20.0000    10.0000    10.0000    20.0000    15.0000    10.0000    10.0000    15.0000    20.7607    -0.0011     1.0981     0.1377     0.3748    -0.0000    14.4503    14.4503     0.000
    141   -41.9999      1.000      9.000   9534.000      0.894    41.5367     0.0005   -12.0001   -24.0004     0.0409     0.0130    20.0000    10.0000    10.0000    20.0000    15.0000    10.0000    10.0000    15.0000    20.7607    -0.0011     1.0981     0.1377     0.3748    -0.0000    14.4503    14.4503     0.000
    142   -42.3000      1.000     12.000   9691.000      0.909    41.5367     0.0005   -12.0001   -24.0004     0.0409     0.0130    20.0000    10.0000    10.0000    20.0000    15.0000    10.0000    10.0000    15.0000    20.7607    -0.0010     1.0981     0.1377     0.3748    -0.0000    14.4503    14.4503     0.000
    143   -42.5999      1.000      7.000   9502.000      0.891    41.5367     0.0005   -12.0001   -24.0004     0.0409     0.0130    20.0000    10.0000    10.0000    20.0000    15.0000    10.0000    10.0000    15.0000    20.7607    -0.0011     1.0981     0.1377     0.3748    -0.0000    14.4503    14.4503     0.000
    144   -42.9001      1.000     12.000   9545.000      0.895    41.5367     0.0005   -12.0001   -24.0004     0.0409     0.0130    20.0000    10.0000    10.0000    20.0000    15.0000    10.0000    10.0000    15.0000    20.7607    -0.0011     1.0981     0.1377     0.3748    -0.0000    14.4503    14.4503     0.000
    145   -43.2000      1.000      6.000   9664.000      0.906    41.5367     0.0005   -12.0001   -24.0004     0.0409     0.0130    20.0000    10.0000    10.0000    20.0000    15.0000    10.0000    10.0000    15.0000    20.7607    -0.0011     1.0981     0.1377     0.3748    -0.0000    14.4503    14.4503     0.000
    146   -43.5001      1.000      7.000   9530.000      0.893    41.5367     0.0005   -12.0001   -24.0004     0.0409     0.0130    20.0000    10.0000    10.0000    20.0000    15.0000    10.0000    10.0000    15.0000    20.7607    -0.0010     1.0981     0.1377     0.3748    -0.0000    14.4503    14.4503     0.000
    147   -43.8000      1.000      6.000   9659.000      0.906    41.5367     0.0005   -12.0001   -24.0004     0.0409     0.0130    20.0000    10.0000    10.0000    20.0000    15.0000    10.0000    10.0000    15.0000    20.7607    -0.0010     1.0981     0.1377     0.3748    -0.0000    14.4503    14.4503     0.000
    148   -44.1001      1.000      5.000   9556.000      0.896    41.5367     0.0005   -12.0001   -24.0004     0.0409     0.0130    20.0000    10.0000    10.0000    20.0000    15.0000    10.0000    10.0000    15.0000    20.7607    -0.0011     1.0981     0.1377     0.3748    -0.0000    14.4503    14.4503     0.000
    149   -44.3999      1.000     12.000   9554.000      0.896    41.5367     0.0005   -12.0001   -24.0004     0.0409     0.0130    20.0000    10.0000    10.0000    20.0000    15.0000    10.0000    10.0000    15.0000    20.7607    -0.0011     1.0981     0.1377     0.3748    -0.0000    14.4503    14.4503     0.000
    150   -44.7000      1.000      6.000   9590.000      0.899    41.5367     0.0005   -12.0001   -24.0004     0.0409     0.0130    20.0000    10.0000    10.0000    20.0000    15.0000    10.0000    10.0000    15.0000    20.7607    -0.0011     1.0981     0.1377     0.3748    -0.0000    14.4503    14.4503     0.000
    151   -44.9999      1.000      9.000   9362.000      0.878    41.5367     0.0005   -12.0001   -24.0004     0.0409     0.0130    20.0000    10.0000    10.0000    20.0000    15.0000    10.0000    10.0000    15.0000    20.7607    -0.0011     1.0981     0.1377     0.3748    -0.0000    14.4503    14.4503     0.000
    152   -45.3000      1.000     15.000   9548.000      0.895    41.5367     0.0005   -12.0001   -24.0004     0.0409     0.0130    20.0000    10.0000    10.0000    20.0000    15.0000    10.0000    10.0000    15.0000    20.7607    -0.0011     1.0981     0.1377     0.3748    -0.0000    14.4503    14.4503     0.000
    153   -45.5999      1.000      7.000   9543.000      0.895    41.5367     0.0005   -12.0001   -24.0004     0.0409     0.0130    20.0000    10.0000    10.0000    20.0000    15.0000    10.0000    10.0000    15.0000    20.7607    -0.0010     1.0981     0.1377     0.3748    -0.0000    14.4503    14.4503     0.000
    154   -45.9001      1.000     16.000   9650.000      0.905    41.5367     0.0005   -12.0001   -24.0004     0.0409     0.0130    20.0000    10.0000    10.0000    20.0000    15.0000    10.0000    10.0000    15.0000    20.7607    -0.0010     1.0981     0.1377     0.3748    -0.0000    14.4503    14.4503     0.000
    155   -46.2000      1.000     13.000   9632.000      0.903    41.5367     0.0005   -12.0001   -24.0004     0.0409     0.0130    20.0000    10.0000    10.0000    20.0000    15.0000    10.0000    10.0000    15.0000    20.7607    -0.0010     1.0981     0.1377     0.3748    -0.0000    14.4503    14.4503     0.000
    156   -46.5001      1.000      7.000   9538.000      0.894    41.5367     0.0005   -12.0001   -24.0004     0.0409     0.0130    20.0000    10.0000    10.0000    20.0000    15.0000    10.0000    10.0000    15.0000    20.7607    -0.0010     1.0981     0.1377     0.3748    -0.0000    14.4503    14.4503     0.000
    157   -46.8000      1.000     14.000   9473.000      0.888    41.5367     0.0005   -12.0001   -24.0004     0.0409     0.0130    20.0000    10.0000    10.0000    20.0000    15.0000    10.0000    10.0000    15.0000    20.7607    -0.0010     1.0981     0.1377     0.3748    -0.0000    14.4503    14.4503     0.000
    158   -47.1001      1.000      7.000   9698.000      0.909    41.5367     0.0005   -12.0001   -24.0004     0.0409     0.0130    20.0000    10.0000    10.0000    20.0000    15.0000    10.0000    10.0000    15.0000    20.7607    -0.0010     1.0981     0.1377     0.3748    -0.0000    14.4503    14.4503     0.000
    159   -47.3999      1.000      8.000   9634.000      0.903    41.5367     0.0005   -12.0001   -24.0004     0.0409     0.0130    20.0000    10.0000    10.0000    20.0000    15.0000    10.0000    10.0000    15.0000    20.7607    -0.0011     1.0981     0.1377     0.3748    -0.0000    14.4503    14.4503     0.000
    160   -47.7000      1.000      3.000   9396.000      0.881    41.5367     0.0005   -12.0001   -24.0004     0.0409     0.0130    20.0000    10.0000    10.0000    20.0000    15.0000    10.0000    10.0000    15.0000    20.7607    -0.0010     1.0981     0.1377     0.3748    -0.0000    14.4503    14.4503     0.000
    161   -47.9999      1.000      8.000   9631.000      0.903    41.5367     0.0005   -12.0001   -24.0004     0.0409     0.0130    20.0000    10.0000    10.0000    20.0000    15.0000    10.0000    10.0000    15.0000    20.7607    -0.0010     1.0981     0.1377     0.3748    -0.0000    14.4503    14.4503     0.000
    162   -48.3001      1.000      5.000   9615.000      0.901    41.5367     0.0005   -12.0001   -24.0004     0.0409     0.0130    20.0000    10.0000    10.0000    20.0000    15.0000    10.0000    10.0000    15.0000    20.7607    -0.0011     1.0981     0.1377     0.3748    -0.0000    14.4503    14.4503     0.000
    163   -48.5999      1.000      9.000   9730.000      0.912    41.5367     0.0005   -12.0001   -24.0004     0.0409     0.0130    20.0000    10.0000    10.0000    20.0000    15.0000    10.0000    10.0000    15.0000    20.7607    -0.0010     1.0981     0.1377     0.3748    -0.0000    14.4503    14.4503     0.000
    164   -48.9001      1.000     14.000   9631.000      0.903    41.5367     0.0005   -12.0002   -24.0004     0.0409     0.0130    20.0000    10.0000    10.0000    20.0000    15.0000    10.0000    10.0000    15.0000    20.7607    -0.0011     1.0981     0.1377     0.3748    -0.0000    14.4503    14.4503     0.000
    165   -49.2000      1.000     10.000   9465.000      0.887    41.5367     0.0005   -12.0001   -24.0004     0.0409     0.0130    20.0000    10.0000    10.0000    20.0000    15.0000    10.0000    10.0000    15.0000    20.7607    -0.0011     1.0981     0.1377     0.3748    -0.0000    14.4503    14.4503     0.000
    166   -49.5001      1.000      9.000   9375.000      0.879    41.5367     0.0005   -12.0001   -24.0004     0.0409     0.0130    20.0000    10.0000    10.0000    20.0000    15.0000    10.0000    10.0000    15.0000    20.7607    -0.0011     1.0981     0.1377     0.3748    -0.0000    14.4503    14.4503     0.000
    167   -49.8000      1.000     12.000   9498.000      0.890    41.5367     0.0005   -12.0001   -24.0004     0.0409     0.0130    20.0000    10.0000    10.0000    20.0000    15.0000    10.0000    10.0000    15.0000    20.7607    -0.0010     1.0981     0.1377     0.3748    -0.0000    14.4503    14.4503     0.000
    168   -50.1001      1.000      9.000   9435.000      0.885    41.5367     0.0005   -12.0001   -24.0004     0.0409     0.0130    20.0000    10.0000    10.0000    20.0000    15.0000    10.0000    10.0000    15.0000    20.7607    -0.0010     1.0981     0.1377     0.3748    -0.0000    14.4503    14.4503     0.000
    169   -50.3999      1.000     14.000   9546.000      0.895    41.5367     0.0005   -12.0001   -24.0004     0.0409     0.0130    20.0000    10.0000    10.0000    20.0000    15.0000    10.0000    10.0000    15.0000    20.7607    -0.0011     1.0981     0.1377     0.3748    -0.0000    14.4503    14.4503     0.000
    170   -50.7000      1.000     10.000   9719.000      0.911    41.5367     0.0005   -12.0001   -24.0004     0.0409     0.0130    20.0000    10.0000    10.0000    20.0000    15.0000    10.0000    10.0000    15.0000    20.7607    -0.0011     1.0981     0.1377     0.3748    -0.0000    14.4503    14.4503     0.000
    171   -50.9999      1.000     11.000   9559.000      0.896    41.5367     0.0005   -12.0001   -24.0004     0.0409     0.0130    20.0000    10.0000    10.0000    20.0000    15.0000    10.0000    10.0000    15.0000    20.7607    -0.0010     1.0981     0.1377     0.3748    -0.0000    14.4503    14.4503     0.000
    172   -51.3000      1.000      6.000   9382.000      0.880    41.5367     0.0005   -12.0001   -24.0004     0.0409     0.0130    20.0000    10.0000    10.0000    20.0000    15.0000    10.0000    10.0000    15.0000    20.7607    -0.0010     1.0981     0.1377     0.3748    -0.0000    14.4503    14.4503     0.000
    173   -51.5999      1.000      6.000   9792.000      0.918    41.5367     0.0005   -12.0001   -24.0004     0.0409     0.0130    20.0000    10.0000    10.0000    20.0000    15.0000    10.0000    10.0000    15.0000    20.7607    -0.0010     1.0981     0.1377     0.3748    -0.0000    14.4503    14.4503     0.000
    174   -51.9001      1.000     11.000   9515.000      0.892    41.5367     0.0005   -12.0001   -24.0004     0.0409     0.0130    20.0000    10.0000    10.0000    20.0000    15.0000    10.0000    10.0000    15.0000    20.7607    -0.0010     1.0981     0.1377     0.3748    -0.0000    14.4503    14.4503     0.000
    175   -52.2000      1.000      8.000   9581.000      0.898    41.5367     0.0005   -12.0001   -24.0004     0.0409     0.0130    20.0000    10.0000    10.0000    20.0000    15.0000    10.0000    10.0000    15.0000    20.7607    -0.0011     1.0981     0.1377     0.3748    -0.0000    14.4503    14.4503     0.000
    176   -52.5001      1.000      8.000   9506.000      0.891    41.5367     0.0005   -12.0001   -24.0004     0.0409     0.0130    20.0000    10.0000    10.0000    20.0000    15.0000    10.0000    10.0000    15.0000    20.7607    -0.0010     1.0981     0.1377     0.3748    -0.0000    14.4503    14.4503     0.000
    177   -52.8000      1.000      8.000   9370.000      0.878    41.5367     0.0005   -12.0001   -24.0004     0.0409     0.0130    20.0000    10.0000    10.0000    20.0000    15.0000    10.0000    10.0000    15.0000    20.7607    -0.0010     1.0981     0.1377     0.3748    -0.0000    14.4503    14.4503     0.000
    178   -53.1001      1.000     10.000   9438.000      0.885    41.5367     0.0005   -12.0001   -24.0004     0.0409     0.0130    20.0000    10.0000    10.0000    20.0000    15.0000    10.0000    10.0000    15.0000    20.7607    -0.0010     1.0981     0.1377     0.3748    -0.0000    14.4503    14.4503     0.000
    179   -53.3999      1.000     13.000   9618.000      0.902    41.5367     0.0005   -12.0001   -24.0004     0.0409     0.0130    20.0000    10.0000    10.0000    20.0000    15.0000    10.0000    10.0000    15.0000    20.7607    -0.0011     1.0981     0.1377     0.3748    -0.0000    14.4503    14.4503     0.000
    180   -53.7000      1.000      9.000   9655.000      0.905    41.5367     0.0005   -12.0001   -24.0004     0.0409     0.0130    20.0000    10.0000    10.0000    20.0000    15.0000    10.0000    10.0000    15.0000    20.7607    -0.0011     1.0981     0.1377     0.3748    -0.0000    14.4503    14.4503     0.000
    181   -53.9999      1.000     10.000   9668.000      0.906    41.5367     0.0005   -12.0001   -24.0004     0.0409     0.0130    20.0000    10.0000    10.0000    20.0000    15.0000    10.0000    10.0000    15.0000    20.7607    -0.0011     1.0981     0.1377     0.3748    -0.0000    14.4503    14.4503     0.000
    182   -54.3000      1.000     10.000   9479.000      0.889    41.5367     0.0005   -12.0001   -24.0004     0.0409     0.0130    20.0000    10.0000    10.0000    20.0000    15.0000    10.0000    10.0000    15.0000    20.7607    -0.0011     1.0981     0.1377     0.3748    -0.0000    14.4503    14.4503     0.000
    183   -54.5999      1.000      9.000   9626.000      0.902    41.5367     0.0005   -12.0001   -24.0004     0.0409     0.0130    20.0000    10.0000    10.0000    20.0000    15.0000    10.0000    10.0000    15.0000    20.7607    -0.0010     1.0981     0.1377     0.3748    -0.0000    14.4503    14.4503     0.000
    184   -54.9001      1.000      5.000   9386.000      0.880    41.5367     0.0005   -12.0001   -24.0004     0.0409     0.0130    20.0000    10.0000    10.0000    20.0000    15.0000    10.0000    10.0000    15.0000    20.7607    -0.0010     1.0981     0.1377     0.3748    -0.0000    14.4503    14.4503     0.000
    185   -55.2000      1.000     16.000   9606.000      0.901    41.5367     0.0005   -12.0001   -24.0004     0.0409     0.0130    20.0000    10.0000    10.0000    20.0000    15.0000    10.0000    10.0000    15.0000    20.7607    -0.0010     1.0981     0.1377     0.3748    -0.0000    14.4503    14.4503     0.000
    186   -55.5001      1.000      5.000   9567.000      0.897    41.5367     0.0005   -12.0001   -24.0004     0.0409     0.0130    20.0000    10.0000    10.0000    20.0000    15.0000    10.0000    10.0000    15.0000    20.7607    -0.0010     1.0981     0.1377     0.3748    -0.0000    14.4503    14.4503     0.000
    187   -55.8000      1.000     12.000   9645.000      0.904    41.5367     0.0005   -12.0001   -24.0004     0.0409     0.0130    20.0000    10.0000    10.0000    20.0000    15.0000    10.0000    10.0000    15.0000    20.7607    -0.0011     1.0981     0.1377     0.3748    -0.0000    14.4503    14.4503     0.000
    188   -56.1001      1.000     11.000   9513.000      0.892    41.5367     0.0005   -12.0001   -24.0004     0.0409     0.0130    20.0000    10.0000    10.0000    20.0000    15.0000    10.0000    10.0000    15.0000    20.7607    -0.0010     1.0981     0.1377     0.3748    -0.0000    14.4503    14.4503     0.000
    189   -56.3999      1.000      7.000   9529.000      0.893    41.5367     0.0005   -12.0001   -24.0004     0.0409     0.0130    20.0000    10.0000    10.0000    20.0000    15.0000    10.0000    10.0000    15.0000    20.7607    -0.0010     1.0981     0.1377     0.3748    -0.0000    14.4503    14.4503     0.000
    190   -56.7001      1.000      7.000   9569.000      0.897    41.5367     0.0005   -12.0001   -24.0004     0.0409     0.0130    20.0000    10.0000    10.0000    20.0000    15.0000    10.0000    10.0000    15.0000    20.7607    -0.0010     1.0981     0.1377     0.3748    -0.0000    14.4503    14.4503     0.000
    191   -56.9999      1.000      8.000   9596.000      0.900    41.5367     0.0005   -12.0001   -24.0004     0.0409     0.0130    20.0000    10.0000    10.0000    20.0000    15.0000    10.0000    10.0000    15.0000    20.7607    -0.0010     1.0981     0.1377     0.3748    -0.0000    14.4503    14.4503     0.000
    192   -57.3000      1.000     10.000   9663.000      0.906    41.5367     0.0005   -12.0001   -24.0004     0.0409     0.0130    20.0000    10.0000    10.0000    20.0000    15.0000    10.0000    10.0000    15.0000    20.7607    -0.0011     1.0981     0.1377     0.3748    -0.0000    14.4503    14.4503     0.000
    193   -57.5999      1.000      5.000   9463.000      0.887    41.5367     0.0005   -12.0001   -24.0004     0.0409     0.0130    20.0000    10.0000    10.0000    20.0000    15.0000    10.0000    10.0000    15.0000    20.7607    -0.0011     1.0981     0.1377     0.3748    -0.0000    14.4503    14.4503     0.000
    194   -57.9001      1.000      6.000   9676.000      0.907    41.5367     0.0005   -12.0001   -24.0004     0.0409     0.0130    20.0000    10.0000    10.0000    20.0000    15.0000    10.0000    10.0000    15.0000    20.7607    -0.0011     1.0981     0.1377     0.3748    -0.0000    14.4503    14.4503     0.000
    195   -58.2000      1.000     11.000   9471.000      0.888    41.5367     0.0005   -12.0001   -24.0004     0.0409     0.0130    20.0000    10.0000    10.0000    20.0000    15.0000    10.0000    10.0000    15.0000    20.7607    -0.0010     1.0981     0.1377     0.3748    -0.0000    14.4503    14.4503     0.000
    196   -58.5001      1.000      6.000   9786.000      0.917    41.5367     0.0005   -12.0001   -24.0004     0.0409     0.0130    20.0000    10.0000    10.0000    20.0000    15.0000    10.0000    10.0000    15.0000    20.7607    -0.0011     1.0981     0.1377     0.3748    -0.0000    14.4503    14.4503     0.000
    197   -58.8000      1.000     12.000   9598.000      0.900    41.5367     0.0005   -12.0001   -24.0004     0.0409     0.0130    20.0000    10.0000    10.0000    20.0000    15.0000    10.0000    10.0000    15.0000    20.7607    -0.0010     1.0981     0.1377     0.3748    -0.0000    14.4503    14.4503     0.000
    198   -59.1001      1.000      9.000   9632.000      0.903    41.5367     0.0005   -12.0001   -24.0004     0.0409     0.0130    20.0000    10.0000    10.0000    20.0000    15.0000    10.0000    10.0000    15.0000    20.7607    -0.0010     1.0981     0.1377     0.3748    -0.0000    14.4503    14.4503     0.000
    199   -59.3999      1.000      6.000   9681.000      0.908    41.5367     0.0005   -12.0001   -24.0004     0.0409     0.0130    20.0000    10.0000    10.0000    20.0000    15.0000    10.0000    10.0000    15.0000    20.7607    -0.0011     1.0981     0.1377     0.3748    -0.0000    14.4503    14.4503     0.000
    200   -59.7000      1.000     17.000   9675.000      0.907    41.5367     0.0005   -12.0001   -24.0004     0.0409     0.0130    20.0000    10.0000    10.0000    20.0000    15.0000    10.0000    10.0000    15.0000    20.7607    -0.0011     1.0981     0.1377     0.3748    -0.0000    14.4503    14.4503     0.000
    201   -59.9999      1.000      5.000   9520.000      0.893    41.5367     0.0005   -12.0001   -24.0004     0.0409     0.0130    20.0000    10.0000    10.0000    20.0000    15.0000    10.0000    10.0000    15.0000    20.7607    -0.0011     1.0981     0.1377     0.3748    -0.0000    14.4503    14.4503     0.000
    202   -60.3000      1.000     12.000   9673.000      0.907    41.5367     0.0005   -12.0001   -24.0004     0.0409     0.0130    20.0000    10.0000    10.0000    20.0000    15.0000    10.0000    10.0000    15.0000    20.7607    -0.0010     1.0981     0.1377     0.3748    -0.0000    14.4503    14.4503     0.000
    203   -60.5999      1.000      9.000   9569.000      0.897    41.5367     0.0005   -12.0001   -24.0004     0.0409     0.0130    20.0000    10.0000    10.0000    20.0000    15.0000    10.0000    10.0000    15.0000    20.7607    -0.0011     1.0981     0.1377     0.3748    -0.0000    14.4503    14.4503     0.000
    204   -60.9001      1.000     11.000   9587.000      0.899    41.5367     0.0005   -12.0002   -24.0004     0.0409     0.0130    20.0000    10.0000    10.0000    20.0000    15.0000    10.0000    10.0000    15.0000    20.7607    -0.0010     1.0981     0.1377     0.3748    -0.0000    14.4503    14.4503     0.000
    205   -61.2000      1.000     11.000   9501.000      0.891    41.5367     0.0005   -12.0001   -24.0004     0.0409     0.0130    20.0000    10.0000    10.0000    20.0000    15.0000    10.0000    10.0000    15.0000    20.7607    -0.0010     1.0981     0.1377     0.3748    -0.0000    14.4503    14.4503     0.000
    206   -61.5001      1.000      8.000   9457.000      0.887    41.5367     0.0005   -12.0001   -24.0004     0.0409     0.0130    20.0000    10.0000    10.0000    20.0000    15.0000    10.0000    10.0000    15.0000    20.7607    -0.0010     1.0981     0.1377     0.3748    -0.0000    14.4503    14.4503     0.000
    207   -61.8000      1.000     12.000   9637.000      0.904    41.5367     0.0005   -12.0001   -24.0004     0.0409     0.0130    20.0000    10.0000    10.0000    20.0000    15.0000    10.0000    10.0000    15.0000    20.7607    -0.0011     1.0981     0.1377     0.3748    -0.0000    14.4503    14.4503     0.000
    208   -62.1001      1.000      7.000   9596.000      0.900    41.5367     0.0005   -12.0001   -24.0004     0.0409     0.0130    20.0000    10.0000    10.0000    20.0000    15.0000    10.0000    10.0000    15.0000    20.7607    -0.0010     1.0981     0.1377     0.3748    -0.0000    14.4503    14.4503     0.000
    209   -62.3999      1.000     10.000   9658.000      0.905    41.5367     0.0005   -12.0001   -24.0004     0.0409     0.0130    20.0000    10.0000    10.0000    20.0000    15.0000    10.0000    10.0000    15.0000    20.7607    -0.0010     1.0981     0.1377     0.3748    -0.0000    14.4503    14.4503     0.000
    210   -62.7001      1.000      4.000   9704.000      0.910    41.5367     0.0005   -12.0001   -24.0004     0.0409     0.0130    20.0000    10.0000    10.0000    20.0000    15.0000    10.0000    10.0000    15.0000    20.7607    -0.0011     1.0981     0.1377     0.3748    -0.0000    14.4503    14.4503     0.000
    211   -62.9999      1.000     11.000   9515.000      0.892    41.5367     0.0005   -12.0001   -24.0004     0.0409     0.0130    20.0000    10.0000    10.0000    20.0000    15.0000    10.0000    10.0000    15.0000    20.7607    -0.0010     1.0981     0.1377     0.3748    -0.0000    14.4503    14.4503     0.000
    212   -63.3000      1.000      7.000   9713.000      0.911    41.5367     0.0005   -12.0001   -24.0004     0.0409     0.0130    20.0000    10.0000    10.0000    20.0000    15.0000    10.0000    10.0000    15.0000    20.7607    -0.0010     1.0981     0.1377     0.3748    -0.0000    14.4503    14.4503     0.000
    213   -63.5999      1.000     10.000   9541.000      0.895    41.5367     0.0005   -12.0001   -24.0004     0.0409     0.0130    20.0000    10.0000    10.0000    20.0000    15.0000    10.0000    10.0000    15.0000    20.7607    -0.0011     1.0981     0.1377     0.3748    -0.0000    14.4503    14.4503     0.000
    214   -63.9001      1.000     10.000   9692.000      0.909    41.5367     0.0005   -12.0001   -24.0004     0.0409     0.0130    20.0000    10.0000    10.0000    20.0000    15.0000    10.0000    10.0000    15.0000    20.7607    -0.0011     1.0981     0.1377     0.3748    -0.0000    14.4503    14.4503     0.000
    215   -64.1999      1.000      6.000   9622.000      0.902    41.5367     0.0005   -12.0001   -24.0004     0.0409     0.0130    20.0000    10.0000    10.0000    20.0000    15.0000    10.0000    10.0000    15.0000    20.7607    -0.0011     1.0981     0.1377     0.3748    -0.0000    14.4503    14.4503     0.000
    216   -64.5001      1.000      8.000   9607.000      0.901    41.5367     0.0005   -12.0001   -24.0004     0.0409     0.0130    20.0000    10.0000    10.0000    20.0000    15.0000    10.0000    10.0000    15.0000    20.7607    -0.0010     1.0981     0.1377     0.3748    -0.0000    14.4503    14.4503     0.000
    217   -64.7999      1.000      9.000   9560.000      0.896    41.5367     0.0005   -12.0001   -24.0004     0.0409     0.0130    20.0000    10.0000    10.0000    20.0000    15.0000    10.0000    10.0000    15.0000    20.7607    -0.0011     1.0981     0.1377     0.3748    -0.0000    14.4503    14.4503     0.000
    218   -65.1001      1.000      8.000   9525.000      0.893    41.5367     0.0005   -12.0001   -24.0004     0.0409     0.0130    20.0000    10.0000    10.0000    20.0000    15.0000    10.0000    10.0000    15.0000    20.7607    -0.0010     1.0981     0.1377     0.3748    -0.0000    14.4503    14.4503     0.000
    219   -65.4000      1.000     13.000   9612.000      0.901    41.5367     0.0005   -12.0001   -24.0004     0.0409     0.0130    20.0000    10.0000    10.0000    20.0000    15.0000    10.0000    10.0000    15.0000    20.7607    -0.0010     1.0981     0.1377     0.3748    -0.0000    14.4503    14.4503     0.000
    220   -65.7001      1.000      8.000   9673.000      0.907    41.5367     0.0005   -12.0002   -24.0004     0.0409     0.0130    20.0000    10.0000    10.0000    20.0000    15.0000    10.0000    10.0000    15.0000    20.7607    -0.0010     1.0981     0.1377     0.3748    -0.0000    14.4503    14.4503     0.000
    221   -65.9999      1.000      5.000   9581.000      0.898    41.5367     0.0005   -12.0001   -24.0004     0.0409     0.0130    20.0000    10.0000    10.0000    20.0000    15.0000    10.0000    10.0000    15.0000    20.7607    -0.0010     1.0981     0.1377     0.3748    -0.0000    14.4503    14.4503     0.000
    222   -66.3000      1.000      7.000   9644.000      0.904    41.5367     0.0005   -12.0001   -24.0004     0.0409     0.0130    20.0000    10.0000    10.0000    20.0000    15.0000    10.0000    10.0000    15.0000    20.7607    -0.0010     1.0981     0.1377     0.3748    -0.0000    14.4503    14.4503     0.000
    223   -66.6000      1.000     11.000   9657.000      0.905    41.5367     0.0005   -12.0001   -24.0004     0.0409     0.0130    20.0000    10.0000    10.0000    20.0000    15.0000    10.0000    10.0000    15.0000    20.7607    -0.0011     1.0981     0.1377     0.3748    -0.0000    14.4503    14.4503     0.000
    224   -66.9001      1.000      7.000   9481.000      0.889    41.5367     0.0005   -12.0001   -24.0004     0.0409     0.0130    20.0000    10.0000    10.0000    20.0000    15.0000    10.0000    10.0000    15.0000    20.7607    -0.0011     1.0981     0.1377     0.3748    -0.0000    14.4503    14.4503     0.000
    225   -67.2000      1.000     16.000   9652.000      0.905    41.5367     0.0005   -12.0001   -24.0004     0.0409     0.0130    20.0000    10.0000    10.0000    20.0000    15.0000    10.0000    10.0000    15.0000    20.7607    -0.0010     1.0981     0.1377     0.3748    -0.0000    14.4503    14.4503     0.000
    226   -67.5001      1.000      8.000   9492.000      0.890    41.5367     0.0005   -12.0001   -24.0004     0.0409     0.0130    20.0000    10.0000    10.0000    20.0000    15.0000    10.0000    10.0000    15.0000    20.7607    -0.0011     1.0981     0.1377     0.3748    -0.0000    14.4503    14.4503     0.000
    227   -67.7999      1.000     16.000   9451.000      0.886    41.5367     0.0005   -12.0001   -24.0004     0.0409     0.0130    20.0000    10.0000    10.0000    20.0000    15.0000    10.0000    10.0000    15.0000    20.7607    -0.0010     1.0981     0.1377     0.3748    -0.0000    14.4503    14.4503     0.000
    228   -68.1000      1.000      6.000   9594.000      0.899    41.5367     0.0005   -12.0001   -24.0004     0.0409     0.0130    20.0000    10.0000    10.0000    20.0000    15.0000    10.0000    10.0000    15.0000    20.7607    -0.0010     1.0981     0.1377     0.3748    -0.0000    14.4503    14.4503     0.000
    229   -68.4000      1.000      7.000   9564.000      0.897    41.5367     0.0005   -12.0001   -24.0004     0.0409     0.0130    20.0000    10.0000    10.0000    20.0000    15.0000    10.0000    10.0000    15.0000    20.7607    -0.0010     1.0981     0.1377     0.3748    -0.0000    14.4503    14.4503     0.000
    230   -68.7001      1.000     12.000   9569.000      0.897    41.5367     0.0005   -12.0001   -24.0004     0.0409     0.0130    20.0000    10.0000    10.0000    20.0000    15.0000    10.0000    10.0000    15.0000    20.7607    -0.0010     1.0981     0.1377     0.3748    -0.0000    14.4503    14.4503     0.000
    231   -68.9999      1.000      9.000   9575.000      0.898    41.5367     0.0005   -12.0001   -24.0004     0.0409     0.0130    20.0000    10.0000    10.0000    20.0000    15.0000    10.0000    10.0000    15.0000    20.7607    -0.0011     1.0981     0.1377     0.3748    -0.0000    14.4503    14.4503     0.000
    232   -69.3000      1.000     16.000   9496.000      0.890    41.5367     0.0005   -12.0001   -24.0004     0.0409     0.0130    20.0000    10.0000    10.0000    20.0000    15.0000    10.0000    10.0000    15.0000    20.7607    -0.0011     1.0981     0.1377     0.3748    -0.0000    14.4503    14.4503     0.000
    233   -69.6000      1.000      8.000   9642.000      0.904    41.5367     0.0005   -12.0001   -24.0004     0.0409     0.0130    20.0000    10.0000    10.0000    20.0000    15.0000    10.0000    10.0000    15.0000    20.7607    -0.0010     1.0981     0.1377     0.3748    -0.0000    14.4503    14.4503     0.000
    234   -69.9001      1.000      8.000   9532.000      0.894    41.5367     0.0005   -12.0001   -24.0004     0.0409     0.0130    20.0000    10.0000    10.0000    20.0000    15.0000    10.0000    10.0000    15.0000    20.7607    -0.0010     1.0981     0.1377     0.3748    -0.0000    14.4503    14.4503     0.000
    235   -70.1999      1.000      9.000   9633.000      0.903    41.5367     0.0005   -12.0001   -24.0004     0.0409     0.0130    20.0000    10.0000    10.0000    20.0000    15.0000    10.0000    10.0000    15.0000    20.7607    -0.0011     1.0981     0.1377     0.3748    -0.0000    14.4503    14.4503     0.000
    236   -70.5001      1.000     11.000   9744.000      0.914    41.5367     0.0005   -12.0001   -24.0004     0.0409     0.0130    20.0000    10.0000    10.0000    20.0000    15.0000    10.0000    10.0000    15.0000    20.7607    -0.0010     1.0981     0.1377     0.3748    -0.0000    14.4503    14.4503     0.000
    237   -70.7999      1.000      8.000   9589.000      0.899    41.5367     0.0005   -12.0001   -24.0004     0.0409     0.0130    20.0000    10.0000    10.0000    20.0000    15.0000    10.0000    10.0000    15.0000    20.7607    -0.0010     1.0981     0.1377     0.3748    -0.0000    14.4503    14.4503     0.000
    238   -71.1001      1.000      8.000   9724.000      0.912    41.5367     0.0005   -12.0001   -24.0004     0.0409     0.0130    20.0000    10.0000    10.0000    20.0000    15.0000    10.0000    10.0000    15.0000    20.7607    -0.0011     1.0981     0.1377     0.3748    -0.0000    14.4503    14.4503     0.000
    239   -71.4000      1.000      5.000   9726.000      0.912    41.5367     0.0005   -12.0001   -24.0004     0.0409     0.0130    20.0000    10.0000    10.0000    20.0000    15.0000    10.0000    10.0000    15.0000    20.7607    -0.0010     1.0981     0.1377     0.3748    -0.0000    14.4503    14.4503     0.000
    240   -71.7001      1.000     12.000   9703.000      0.910    41.5367     0.0005   -12.0001   -24.0004     0.0409     0.0130    20.0000    10.0000    10.0000    20.0000    15.0000    10.0000    10.0000    15.0000    20.7607    -0.0011     1.0981     0.1377     0.3748    -0.0000    14.4503    14.4503     0.000
    241   -71.9999      1.000     16.000   9626.000      0.902    41.5367     0.0005   -12.0002   -24.0004     0.0409     0.0130    20.0000    10.0000    10.0000    20.0000    15.0000    10.0000    10.0000    15.0000    20.7607    -0.0011     1.0981     0.1377     0.3748    -0.0000    14.4503    14.4503     0.000
    242   -72.3001      1.000      9.000   9513.000      0.892    41.5367     0.0005   -12.0001   -24.0004     0.0409     0.0130    20.0000    10.0000    10.0000    20.0000    15.0000    10.0000    10.0000    15.0000    20.7607    -0.0011     1.0981     0.1377     0.3748    -0.0000    14.4503    14.4503     0.000
    243   -72.5999      1.000      9.000   9632.000      0.903    41.5367     0.0005   -12.0001   -24.0004     0.0409     0.0130    20.0000    10.0000    10.0000    20.0000    15.0000    10.0000    10.0000    15.0000    20.7607    -0.0011     1.0981     0.1377     0.3748    -0.0000    14.4503    14.4503     0.000
    244   -72.9001      1.000     13.000   9394.000      0.881    41.5367     0.0005   -12.0001   -24.0004     0.0409     0.0130    20.0000    10.0000    10.0000    20.0000    15.0000    10.0000    10.0000    15.0000    20.7607    -0.0010     1.0981     0.1377     0.3748    -0.0000    14.4503    14.4503     0.000
    245   -73.2000      1.000     11.000   9606.000      0.901    41.5367     0.0005   -12.0001   -24.0004     0.0409     0.0130    20.0000    10.0000    10.0000    20.0000    15.0000    10.0000    10.0000    15.0000    20.7607    -0.0010     1.0981     0.1377     0.3748    -0.0000    14.4503    14.4503     0.000
    246   -73.5001      1.000      7.000   9529.000      0.893    41.5367     0.0005   -12.0001   -24.0004     0.0409     0.0130    20.0000    10.0000    10.0000    20.0000    15.0000    10.0000    10.0000    15.0000    20.7607    -0.0010     1.0981     0.1377     0.3748    -0.0000    14.4503    14.4503     0.000
    247   -73.7999      1.000     13.000   9446.000      0.886    41.5367     0.0005   -12.0001   -24.0004     0.0409     0.0130    20.0000    10.0000    10.0000    20.0000    15.0000    10.0000    10.0000    15.0000    20.7607    -0.0010     1.0981     0.1377     0.3748    -0.0000    14.4503    14.4503     0.000
    248   -74.1000      1.000     10.000   9563.000      0.897    41.5367     0.0005   -12.0001   -24.0004     0.0409     0.0130    20.0000    10.0000    10.0000    20.0000    15.0000    10.0000    10.0000    15.0000    20.7607    -0.0011     1.0981     0.1377     0.3748    -0.0000    14.4503    14.4503     0.000
    249   -74.4000      1.000     15.000   9579.000      0.898    41.5367     0.0005   -12.0002   -24.0004     0.0409     0.0130    20.0000    10.0000    10.0000    20.0000    15.0000    10.0000    10.0000    15.0000    20.7607    -0.0010     1.0981     0.1377     0.3748    -0.0000    14.4503    14.4503     0.000
    250   -74.7001      1.000      9.000   9595.000      0.900    41.5367     0.0005   -12.0001   -24.0004     0.0409     0.0130    20.0000    10.0000    10.0000    20.0000    15.0000    10.0000    10.0000    15.0000    20.7607    -0.0011     1.0981     0.1377     0.3748    -0.0000    14.4503    14.4503     0.000
    251   -75.0000      1.000      6.000   9484.000      0.889    41.5367     0.0005   -12.0001   -24.0004     0.0409     0.0130    20.0000    10.0000    10.0000    20.0000    15.0000    10.0000    10.0000    15.0000    20.7607    -0.0010     1.0981     0.1377     0.3748    -0.0000    14.4503    14.4503     0.000
    252   -75.3000      1.000      6.000   9670.000      0.907    41.5367     0.0005   -12.0001   -24.0004     0.0409     0.0130    20.0000    10.0000    10.0000    20.0000    15.0000    10.0000    10.0000    15.0000    20.7607    -0.0010     1.0981     0.1377     0.3748    -0.0000    14.4503    14.4503     0.000
    253   -75.6000      1.000     13.000   9586.000      0.899    41.5367     0.0005   -12.0001   -24.0004     0.0409     0.0130    20.0000    10.0000    10.0000    20.0000    15.0000    10.0000    10.0000    15.0000    20.7607    -0.0010     1.0981     0.1377     0.3748    -0.0000    14.4503    14.4503     0.000
    254   -75.9000      1.000     11.000   9567.000      0.897    41.5367     0.0005   -12.0001   -24.0004     0.0409     0.0130    20.0000    10.0000    10.0000    20.0000    15.0000    10.0000    10.0000    15.0000    20.7607    -0.0010     1.0981     0.1377     0.3748    -0.0000    14.4503    14.4503     0.000
    255   -76.2000      1.000     10.000   9693.000      0.909    41.5367     0.0005   -12.0001   -24.0004     0.0409     0.0130    20.0000    10.0000    10.0000    20.0000    15.0000    10.0000    10.0000    15.0000    20.7607    -0.0010     1.0981     0.1377     0.3748    -0.0000    14.4503    14.4503     0.000
    256   -76.5001      1.000      6.000   9550.000      0.895    41.5367     0.0005   -12.0001   -24.0004     0.0409     0.0130    20.0000    10.0000    10.0000    20.0000    15.0000    10.0000    10.0000    15.0000    20.7607    -0.0010     1.0981     0.1377     0.3748    -0.0000    14.4503    14.4503     0.000
    257   -76.7999      1.000      6.000   9718.000      0.911    41.5367     0.0005   -12.0001   -24.0004     0.0409     0.0130    20.0000    10.0000    10.0000    20.0000    15.0000    10.0000    10.0000    15.0000    20.7607    -0.0010     1.0981     0.1377     0.3748    -0.0000    14.4503    14.4503     0.000
    258   -77.1000      1.000      7.000   9560.000      0.896    41.5367     0.0005   -12.0002   -24.0004     0.0409     0.0130    20.0000    10.0000    10.0000    20.0000    15.0000    10.0000    10.0000    15.0000    20.7607    -0.0011     1.0981     0.1377     0.3748    -0.0000    14.4503    14.4503     0.000
    259   -77.4000      1.000      9.000   9633.000      0.903    41.5367     0.0005   -12.0001   -24.0004     0.0409     0.0130    20.0000    10.0000    10.0000    20.0000    15.0000    10.0000    10.0000    15.0000    20.7607    -0.0010     1.0981     0.1377     0.3748    -0.0000    14.4503    14.4503     0.000
    260   -77.7001      1.000      5.000   9456.000      0.887    41.5367     0.0005   -12.0002   -24.0004     0.0409     0.0130    20.0000    10.0000    10.0000    20.0000    15.0000    10.0000    10.0000    15.0000    20.7607    -0.0010     1.0981     0.1377     0.3748    -0.0000    14.4503    14.4503     0.000
    261   -77.9999      1.000      8.000   9593.000      0.899    41.5367     0.0005   -12.0001   -24.0004     0.0409     0.0130    20.0000    10.0000    10.0000    20.0000    15.0000    10.0000    10.0000    15.0000    20.7607    -0.0010     1.0981     0.1377     0.3748    -0.0000    14.4503    14.4503     0.000
    262   -78.3001      1.000      9.000   9610.000      0.901    41.5367     0.0005   -12.0001   -24.0004     0.0409     0.0130    20.0000    10.0000    10.0000    20.0000    15.0000    10.0000    10.0000    15.0000    20.7607    -0.0011     1.0981     0.1377     0.3748    -0.0000    14.4503    14.4503     0.000
    263   -78.5999      1.000     14.000   9454.000      0.886    41.5367     0.0005   -12.0001   -24.0004     0.0409     0.0130    20.0000    10.0000    10.0000    20.0000    15.0000    10.0000    10.0000    15.0000    20.7607    -0.0011     1.0981     0.1377     0.3748    -0.0000    14.4503    14.4503     0.000
    264   -78.9001      1.000      7.000   9614.000      0.901    41.5367     0.0005   -12.0001   -24.0004     0.0409     0.0130    20.0000    10.0000    10.0000    20.0000    15.0000    10.0000    10.0000    15.0000    20.7607    -0.0011     1.0981     0.1377     0.3748    -0.0000    14.4503    14.4503     0.000
    265   -79.2000      1.000      5.000   9453.000      0.886    41.5367     0.0005   -12.0002   -24.0004     0.0409     0.0130    20.0000    10.0000    10.0000    20.0000    15.0000    10.0000    10.0000    15.0000    20.7607    -0.0010     1.0981     0.1377     0.3748    -0.0000    14.4503    14.4503     0.000
    266   -79.5001      1.000      9.000   9631.000      0.903    41.5367     0.0005   -12.0001   -24.0004     0.0409     0.0130    20.0000    10.0000    10.0000    20.0000    15.0000    10.0000    10.0000    15.0000    20.7607    -0.0010     1.0981     0.1377     0.3748    -0.0000    14.4503    14.4503     0.000
    267   -79.7999      1.000      7.000   9387.000      0.880    41.5367     0.0005   -12.0001   -24.0004     0.0409     0.0130    20.0000    10.0000    10.0000    20.0000    15.0000    10.0000    10.0000    15.0000    20.7607    -0.0011     1.0981     0.1377     0.3748    -0.0000    14.4503    14.4503     0.000
    268   -80.1001      1.000     10.000   9592.000      0.899    41.5367     0.0005   -12.0001   -24.0004     0.0409     0.0130    20.0000    10.0000    10.0000    20.0000    15.0000    10.0000    10.0000    15.0000    20.7607    -0.0010     1.0981     0.1377     0.3748    -0.0000    14.4503    14.4503     0.000
    269   -80.3999      1.000      5.000   9798.000      0.919    41.5367     0.0005   -12.0001   -24.0004     0.0409     0.0130    20.0000    10.0000    10.0000    20.0000    15.0000    10.0000    10.0000    15.0000    20.7607    -0.0010     1.0981     0.1377     0.3748    -0.0000    14.4503    14.4503     0.000
    270   -80.7001      1.000      9.000   9691.000      0.909    41.5367     0.0005   -12.0001   -24.0004     0.0409     0.0130    20.0000    10.0000    10.0000    20.0000    15.0000    10.0000    10.0000    15.0000    20.7607    -0.0011     1.0981     0.1377     0.3748    -0.0000    14.4503    14.4503     0.000
    271   -80.9999      1.000     13.000   9616.000      0.902    41.5367     0.0005   -12.0001   -24.0004     0.0409     0.0130    20.0000    10.0000    10.0000    20.0000    15.0000    10.0000    10.0000    15.0000    20.7607    -0.0010     1.0981     0.1377     0.3748    -0.0000    14.4503    14.4503     0.000
    272   -81.3000      1.000      8.000   9564.000      0.897    41.5367     0.0005   -12.0001   -24.0004     0.0409     0.0130    20.0000    10.0000    10.0000    20.0000    15.0000    10.0000    10.0000    15.0000    20.7607    -0.0010     1.0981     0.1377     0.3748    -0.0000    14.4503    14.4503     0.000
    273   -81.6000      1.000      7.000   9488.000      0.890    41.5367     0.0005   -12.0001   -24.0004     0.0409     0.0130    20.0000    10.0000    10.0000    20.0000    15.0000    10.0000    10.0000    15.0000    20.7607    -0.0010     1.0981     0.1377     0.3748    -0.0000    14.4503    14.4503     0.000
    274   -81.9000      1.000     13.000   9712.000      0.911    41.5367     0.0005   -12.0002   -24.0004     0.0409     0.0130    20.0000    10.0000    10.0000    20.0000    15.0000    10.0000    10.0000    15.0000    20.7607    -0.0010     1.0981     0.1377     0.3748    -0.0000    14.4503    14.4503     0.000
    275   -82.1999      1.000     11.000   9425.000      0.884    41.5367     0.0005   -12.0001   -24.0004     0.0409     0.0130    20.0000    10.0000    10.0000    20.0000    15.0000    10.0000    10.0000    15.0000    20.7607    -0.0010     1.0981     0.1377     0.3748    -0.0000    14.4503    14.4503     0.000
    276   -82.5001      1.000     12.000   9581.000      0.898    41.5367     0.0005   -12.0002   -24.0004     0.0409     0.0130    20.0000    10.0000    10.0000    20.0000    15.0000    10.0000    10.0000    15.0000    20.7607    -0.0010     1.0981     0.1377     0.3748    -0.0000    14.4503    14.4503     0.000
    277   -82.7999      1.000      5.000   9637.000      0.904    41.5367     0.0005   -12.0002   -24.0004     0.0409     0.0130    20.0000    10.0000    10.0000    20.0000    15.0000    10.0000    10.0000    15.0000    20.7607    -0.0011     1.0981     0.1377     0.3748    -0.0000    14.4503    14.4503     0.000
    278   -83.1000      1.000      7.000   9561.000      0.896    41.5367     0.0005   -12.0001   -24.0004     0.0409     0.0130    20.0000    10.0000    10.0000    20.0000    15.0000    10.0000    10.0000    15.0000    20.7607    -0.0010     1.0981     0.1377     0.3748    -0.0000    14.4503    14.4503     0.000
    279   -83.4000      1.000      7.000   9496.000      0.890    41.5367     0.0005   -12.0001   -24.0004     0.0409     0.0130    20.0000    10.0000    10.0000    20.0000    15.0000    10.0000    10.0000    15.0000    20.7607    -0.0010     1.0981     0.1377     0.3748    -0.0000    14.4503    14.4503     0.000
    280   -83.7001      1.000     11.000   9707.000      0.910    41.5367     0.0005   -12.0002   -24.0004     0.0409     0.0130    20.0000    10.0000    10.0000    20.0000    15.0000    10.0000    10.0000    15.0000    20.7607    -0.0010     1.0981     0.1377     0.3748    -0.0000    14.4503    14.4503     0.000
    281   -83.9999      1.000     15.000   9582.000      0.898    41.5367     0.0005   -12.0001   -24.0004     0.0409     0.0130    20.0000    10.0000    10.0000    20.0000    15.0000    10.0000    10.0000    15.0000    20.7607    -0.0011     1.0981     0.1377     0.3748    -0.0000    14.4503    14.4503     0.000
    282   -84.3001      1.000     10.000   9649.000      0.905    41.5367     0.0005   -12.0001   -24.0004     0.0409     0.0130    20.0000    10.0000    10.0000    20.0000    15.0000    10.0000    10.0000    15.0000    20.7607    -0.0010     1.0981     0.1377     0.3748    -0.0000    14.4503    14.4503     0.000
    283   -84.6000      1.000      9.000   9722.000      0.911    41.5367     0.0005   -12.0001   -24.0004     0.0409     0.0130    20.0000    10.0000    10.0000    20.0000    15.0000    10.0000    10.0000    15.0000    20.7607    -0.0011     1.0981     0.1377     0.3748    -0.0000    14.4503    14.4503     0.000
    284   -84.9001      1.000     14.000   9697.000      0.909    41.5367     0.0005   -12.0002   -24.0004     0.0409     0.0130    20.0000    10.0000    10.0000    20.0000    15.0000    10.0000    10.0000    15.0000    20.7607    -0.0010     1.0981     0.1377     0.3748    -0.0000    14.4503    14.4503     0.000
    285   -85.2000      1.000      3.000   9591.000      0.899    41.5367     0.0005   -12.0001   -24.0004     0.0409     0.0130    20.0000    10.0000    10.0000    20.0000    15.0000    10.0000    10.0000    15.0000    20.7607    -0.0010     1.0981     0.1377     0.3748    -0.0000    14.4503    14.4503     0.000
    286   -85.5001      1.000      7.000   9598.000      0.900    41.5367     0.0005   -12.0001   -24.0004     0.0409     0.0130    20.0000    10.0000    10.0000    20.0000    15.0000    10.0000    10.0000    15.0000    20.7607    -0.0010     1.0981     0.1377     0.3748    -0.0000    14.4503    14.4503     0.000
    287   -85.7999      1.000      7.000   9612.000      0.901    41.5367     0.0005   -12.0001   -24.0004     0.0409     0.0130    20.0000    10.0000    10.0000    20.0000    15.0000    10.0000    10.0000    15.0000    20.7607    -0.0010     1.0981     0.1377     0.3748    -0.0000    14.4503    14.4503     0.000
    288   -86.1000      1.000      4.000   9537.000      0.894    41.5367     0.0005   -12.0001   -24.0004     0.0409     0.0130    20.0000    10.0000    10.0000    20.0000    15.0000    10.0000    10.0000    15.0000    20.7607    -0.0010     1.0981     0.1377     0.3748    -0.0000    14.4503    14.4503     0.000
    289   -86.3999      1.000      7.000   9595.000      0.900    41.5367     0.0005   -12.0002   -24.0004     0.0409     0.0130    20.0000    10.0000    10.0000    20.0000    15.0000    10.0000    10.0000    15.0000    20.7607    -0.0011     1.0981     0.1377     0.3748    -0.0000    14.4503    14.4503     0.000
    290   -86.7001      1.000      7.000   9659.000      0.906    41.5367     0.0005   -12.0002   -24.0004     0.0409     0.0130    20.0000    10.0000    10.0000    20.0000    15.0000    10.0000    10.0000    15.0000    20.7607    -0.0010     1.0981     0.1377     0.3748    -0.0000    14.4503    14.4503     0.000
    291   -86.9999      1.000     14.000   9610.000      0.901    41.5367     0.0005   -12.0001   -24.0004     0.0409     0.0130    20.0000    10.0000    10.0000    20.0000    15.0000    10.0000    10.0000    15.0000    20.7607    -0.0010     1.0981     0.1377     0.3748    -0.0000    14.4503    14.4503     0.000
    292   -87.3001      1.000      9.000   9553.000      0.896    41.5367     0.0005   -12.0001   -24.0004     0.0409     0.0130    20.0000    10.0000    10.0000    20.0000    15.0000    10.0000    10.0000    15.0000    20.7607    -0.0010     1.0981     0.1377     0.3748    -0.0000    14.4503    14.4503     0.000
    293   -87.5999      1.000     10.000   9634.000      0.903    41.5367     0.0005   -12.0001   -24.0004     0.0409     0.0130    20.0000    10.0000    10.0000    20.0000    15.0000    10.0000    10.0000    15.0000    20.7607    -0.0010     1.0981     0.1377     0.3748    -0.0000    14.4503    14.4503     0.000
    294   -87.9001      1.000     14.000   9514.000      0.892    41.5367     0.0005   -12.0001   -24.0004     0.0409     0.0130    20.0000    10.0000    10.0000    20.0000    15.0000    10.0000    10.0000    15.0000    20.7607    -0.0010     1.0981     0.1377     0.3748    -0.0000    14.4503    14.4503     0.000
    295   -88.1999      1.000      5.000   9787.000      0.918    41.5367     0.0005   -12.0001   -24.0004     0.0409     0.0130    20.0000    10.0000    10.0000    20.0000    15.0000    10.0000    10.0000    15.0000    20.7607    -0.0010     1.0981     0.1377     0.3748    -0.0000    14.4503    14.4503     0.000
    296   -88.5001      1.000      8.000   9534.000      0.894    41.5367     0.0005   -12.0001   -24.0004     0.0409     0.0130    20.0000    10.0000    10.0000    20.0000    15.0000    10.0000    10.0000    15.0000    20.7607    -0.0010     1.0981     0.1377     0.3748    -0.0000    14.4503    14.4503     0.000
    297   -88.7999      1.000     10.000   9470.000      0.888    41.5367     0.0005   -12.0001   -24.0004     0.0409     0.0130    20.0000    10.0000    10.0000    20.0000    15.0000    10.0000    10.0000    15.0000    20.7607    -0.0010     1.0981     0.1377     0.3748    -0.0000    14.4503    14.4503     0.000
    298   -89.1000      1.000     11.000   9556.000      0.896    41.5367     0.0005   -12.0001   -24.0004     0.0409     0.0130    20.0000    10.0000    10.0000    20.0000    15.0000    10.0000    10.0000    15.0000    20.7607    -0.0011     1.0981     0.1377     0.3748    -0.0000    14.4503    14.4503     0.000
    299   -89.4000      1.000     11.000   9493.000      0.890    41.5367     0.0005   -12.0001   -24.0004     0.0409     0.0130    20.0000    10.0000    10.0000    20.0000    15.0000    10.0000    10.0000    15.0000    20.7607    -0.0010     1.0981     0.1377     0.3748    -0.0000    14.4503    14.4503     0.000
    300   -89.7001      1.000     11.000   9609.000      0.901    41.5367     0.0005   -12.0001   -24.0004     0.0409     0.0130    20.0000    10.0000    10.0000    20.0000    15.0000    10.0000    10.0000    15.0000    20.7607    -0.0011     1.0981     0.1377     0.3748    -0.0000    14.4503    14.4503     0.000
    301   -89.9999      1.000     14.000   9543.000      0.895    41.5367     0.0005   -12.0002   -24.0004     0.0409     0.0130    20.0000    10.0000    10.0000    20.0000    15.0000    10.0000    10.0000    15.0000    20.7607    -0.0010     1.0981     0.1377     0.3748    -0.0000    14.4503    14.4503     0.000
    302   -90.3000      1.000     11.000   9730.000      0.912    41.5367     0.0005   -12.0001   -24.0004     0.0409     0.0130    20.0000    10.0000    10.0000    20.0000    15.0000    10.0000    10.0000    15.0000    20.7607    -0.0010     1.0981     0.1377     0.3748    -0.0000    14.4503    14.4503     0.000
    303   -90.6000      1.000      7.000   9527.000      0.893    41.5367     0.0005   -12.0001   -24.0004     0.0409     0.0130    20.0000    10.0000    10.0000    20.0000    15.0000    10.0000    10.0000    15.0000    20.7607    -0.0010     1.0981     0.1377     0.3748    -0.0000    14.4503    14.4503     0.000
    304   -90.9000      1.000     11.000   9503.000      0.891    41.5367     0.0005   -12.0002   -24.0004     0.0409     0.0130    20.0000    10.0000    10.0000    20.0000    15.0000    10.0000    10.0000    15.0000    20.7607    -0.0010     1.0981     0.1377     0.3748    -0.0000    14.4503    14.4503     0.000
    305   -91.2000      1.000     12.000   9758.000      0.915    41.5367     0.0005   -12.0001   -24.0004     0.0409     0.0130    20.0000    10.0000    10.0000    20.0000    15.0000    10.0000    10.0000    15.0000    20.7607    -0.0010     1.0981     0.1377     0.3748    -0.0000    14.4503    14.4503     0.000
    306   -91.5001      1.000      9.000   9568.000      0.897    41.5367     0.0005   -12.0002   -24.0004     0.0409     0.0130    20.0000    10.0000    10.0000    20.0000    15.0000    10.0000    10.0000    15.0000    20.7607    -0.0011     1.0981     0.1377     0.3748    -0.0000    14.4503    14.4503     0.000
    307   -91.7999      1.000      9.000   9599.000      0.900    41.5367     0.0005   -12.0001   -24.0004     0.0409     0.0130    20.0000    10.0000    10.0000    20.0000    15.0000    10.0000    10.0000    15.0000    20.7607    -0.0011     1.0981     0.1377     0.3748    -0.0000    14.4503    14.4503     0.000
    308   -92.1000      1.000      8.000   9476.000      0.888    41.5367     0.0005   -12.0002   -24.0004     0.0409     0.0130    20.0000    10.0000    10.0000    20.0000    15.0000    10.0000    10.0000    15.0000    20.7607    -0.0010     1.0981     0.1377     0.3748    -0.0000    14.4503    14.4503     0.000
    309   -92.4000      1.000     12.000   9665.000      0.906    41.5367     0.0005   -12.0001   -24.0004     0.0409     0.0130    20.0000    10.0000    10.0000    20.0000    15.0000    10.0000    10.0000    15.0000    20.7607    -0.0010     1.0981     0.1377     0.3748    -0.0000    14.4503    14.4503     0.000
    310   -92.7001      1.000      9.000   9589.000      0.899    41.5367     0.0005   -12.0002   -24.0004     0.0409     0.0130    20.0000    10.0000    10.0000    20.0000    15.0000    10.0000    10.0000    15.0000    20.7607    -0.0010     1.0981     0.1377     0.3748    -0.0000    14.4503    14.4503     0.000
    311   -92.9999      1.000     10.000   9567.000      0.897    41.5367     0.0005   -12.0001   -24.0004     0.0409     0.0130    20.0000    10.0000    10.0000    20.0000    15.0000    10.0000    10.0000    15.0000    20.7607    -0.0010     1.0981     0.1377     0.3748    -0.0000    14.4503    14.4503     0.000
    312   -93.3000      1.000     11.000   9714.000      0.911    41.5367     0.0005   -12.0001   -24.0004     0.0409     0.0130    20.0000    10.0000    10.0000    20.0000    15.0000    10.0000    10.0000    15.0000    20.7607    -0.0010     1.0981     0.1377     0.3748    -0.0000    14.4503    14.4503     0.000
    313   -93.6000      1.000      6.000   9515.000      0.892    41.5367     0.0005   -12.0001   -24.0004     0.0409     0.0130    20.0000    10.0000    10.0000    20.0000    15.0000    10.0000    10.0000    15.0000    20.7607    -0.0010     1.0981     0.1377     0.3748    -0.0000    14.4503    14.4503     0.000
    314   -93.9000      1.000      6.000   9684.000      0.908    41.5367     0.0005   -12.0001   -24.0004     0.0409     0.0130    20.0000    10.0000    10.0000    20.0000    15.0000    10.0000    10.0000    15.0000    20.7607    -0.0010     1.0981     0.1377     0.3748    -0.0000    14.4503    14.4503     0.000
    315   -94.1999      1.000      5.000   9540.000      0.894    41.5367     0.0005   -12.0001   -24.0004     0.0409     0.0130    20.0000    10.0000    10.0000    20.0000    15.0000    10.0000    10.0000    15.0000    20.7607    -0.0011     1.0981     0.1377     0.3748    -0.0000    14.4503    14.4503     0.000
    316   -94.5001      1.000     13.000   9674.000      0.907    41.5367     0.0005   -12.0001   -24.0004     0.0409     0.0130    20.0000    10.0000    10.0000    20.0000    15.0000    10.0000    10.0000    15.0000    20.7607    -0.0011     1.0981     0.1377     0.3748    -0.0000    14.4503    14.4503     0.000
    317   -94.7999      1.000      8.000   9429.000      0.884    41.5367     0.0005   -12.0002   -24.0004     0.0409     0.0130    20.0000    10.0000    10.0000    20.0000    15.0000    10.0000    10.0000    15.0000    20.7607    -0.0010     1.0981     0.1377     0.3748    -0.0000    14.4503    14.4503     0.000
    318   -95.1001      0.000      0.000      0.000      0.000    41.5367     0.0005   -12.0001   -24.0004     0.0409     0.0130    20.0000    10.0000    10.0000    20.0000    15.0000    10.0000    10.0000    15.0000    20.7607    -0.0010     1.0981     0.1377     0.3748    -0.0000    14.4503    14.4503     0.000
# Sum of Counts = 2873
# Center of Mass = -48.157991+/-1.368440
# Full Width Half-Maximum = 54.467431+/-0.868563
# 12:11:01 PM  4/10/2024   scan stopped!!
