# scan = 711
# date = 4/12/2024
# time = 10:32:32 PM
# proposal = 33477
# experiment = Commissioning and enabling the 4-circle capability at VERITAS
# experiment_number = 1012
# command = scanrel s1 1.5 -1.5 0.15
# builtin_command = scan s1 @(s1)+1.5 @(s1)+-1.5 0.150000
# users = Feng Ye, Mike McDowell, Adam Aczel, Bing Li, Wei Tian, Bing Li
# local_contact = Wei Tian, Adam Aczel
# scan_title = Nuclear_300 (0.00 2.00 -1.00 )
# monochromator = PG002
# analyzer = Pg002
# sense = +-+
# collimation = 40-40-40-80
# samplename = La2Ni7, Al-doped CuFeO2
# sampletype = crystal
# samplemosaic = 30.000000
# latticeconstants = 4.830000,5.750000,5.000000,90.000000,91.300000,90.000000
# ubmatrix = -0.000000,0.173884,-0.000000,-0.000000,0.003195,-0.000000,-0.000000,0.000123,-0.000000
# mode = 0
# plane_normal = -0.000714,0.000226,1.000000
# ubconf = UB11Apr2024_40156PM.ini
# preset_type = normal 
# preset_channel = mcu
# preset_value = 10.000000
# def_x = s1
# def_y = detector
# col_headers = 
#   Pt.         s1       time   detector    monitor        mcu         m2        chi        phi         s2        sgl        sgu   slitb_bt   slitb_lf   slitb_rt   slitb_tp   slita_bt   slita_lf   slita_rt   slita_tp         a1         a2          q          h          k          l         ei         ef          e    coldtip     sample       temp
      1   -27.0198     10.171     24.000  98001.000     10.000    41.5367   -25.7495   107.2900   -57.0401     0.0409     0.0130    10.0000     7.0000     7.0000    10.0000    14.0000     7.0000     7.0000    14.0000    20.7675    41.5157     2.5224 185201705529781792000000000000000.0000 35266260061986304.0000 -2659963029472560030000000000000.0000    14.4503    14.4642    -0.0140     0.0000     0.0000   300.000
      2   -27.1694     10.121     20.000  98001.000     10.000    41.5367   -25.7495   107.2900   -57.0401     0.0409     0.0130    10.0000     7.0000     7.0000    10.0000    14.0000     7.0000     7.0000    14.0000    20.7675    41.5157     2.5224 174242659645204748000000000000000.0000 33179429591979720.0000 -2502563523847714810000000000000.0000    14.4503    14.4642    -0.0140     0.0000     0.0000   300.000
      3   -27.3198     10.110     35.000  98001.000     10.000    41.5367   -25.7495   107.2900   -57.0401     0.0409     0.0130    10.0000     7.0000     7.0000    10.0000    14.0000     7.0000     7.0000    14.0000    20.7675    41.5157     2.5224 163231606859946235000000000000000.0000 31082695925459896.0000 -2344417068119470330000000000000.0000    14.4503    14.4642    -0.0140     0.0000     0.0000   300.000
      4   -27.4694     10.171     58.000  98001.000     10.000    41.5367   -25.7495   107.2900   -57.0401     0.0409     0.0130    10.0000     7.0000     7.0000    10.0000    14.0000     7.0000     7.0000    14.0000    20.7675    41.5157     2.5224 152272554850759352000000000000000.0000 28995864289200108.0000 -2187017474529776750000000000000.0000    14.4503    14.4642    -0.0140     0.0000     0.0000   300.000
      5   -27.6208     10.107    268.000  98001.000     10.000    41.5367   -25.7495   107.2900   -57.0401     0.0409     0.0130    10.0000     7.0000     7.0000    10.0000    14.0000     7.0000     7.0000    14.0000    20.7675    41.5157     2.5224 141181744112656170000000000000000.0000 26883943048143716.0000 -2027725493681992090000000000000.0000    14.4503    14.4642    -0.0140     0.0000     0.0000   300.000
      6   -27.7700     10.136   1292.000  98001.000     10.000    41.5367   -25.7495   107.2900   -57.0401     0.0409     0.0130    10.0000     7.0000     7.0000    10.0000    14.0000     7.0000     7.0000    14.0000    20.7675    41.5157     2.5224 130253038107984456000000000000000.0000 24802889922853972.0000 -1870761745161142560000000000000.0000    14.4503    14.4642    -0.0140     0.0000     0.0000   300.000
      7   -27.9200     10.155   3426.000  98001.000     10.000    41.5367   -25.7495   107.2900   -57.0401     0.0409     0.0130    10.0000     7.0000     7.0000    10.0000    14.0000     7.0000     7.0000    14.0000    20.7675    41.5157     2.5224 119258972902830948000000000000000.0000 22709391045215228.0000 -1712859273876340390000000000000.0000    14.4503    14.4642    -0.0139     0.0000     0.0000   300.000
      8   -28.0694     10.092   6874.000  98001.000     10.000    41.5367   -25.7495   107.2900   -57.0401     0.0409     0.0130    10.0000     7.0000     7.0000    10.0000    14.0000     7.0000     7.0000    14.0000    20.7675    41.5157     2.5224 108309960326077222000000000000000.0000 20624471125880776.0000 -1555603871826516960000000000000.0000    14.4503    14.4642    -0.0140     0.0000     0.0000   300.000
      9   -28.2198     10.161  13361.000  98001.000     10.000    41.5367   -25.7495   107.2900   -57.0401     0.0409     0.0130    10.0000     7.0000     7.0000    10.0000    14.0000     7.0000     7.0000    14.0000    20.7675    41.5157     2.5224 97296194894917534600000000000000.0000 18527220915112428.0000 -1397418455669817490000000000000.0000    14.4503    14.4642    -0.0140     0.0000     0.0000   300.000
     10   -28.3691     10.155  18311.000  98001.000     10.000    41.5367   -25.7495   107.2900   -57.0401     0.0409     0.0130    10.0000     7.0000     7.0000    10.0000    14.0000     7.0000     7.0000    14.0000    20.7675    41.5157     2.5224 86348621856818287700000000000000.0000 16442575113904546.0000 -1240183729021396180000000000000.0000    14.4503    14.4642    -0.0140     0.0000     0.0000   300.000
     11   -28.5203     10.105  17470.000  98001.000     10.000    41.5367   -25.7495   107.2900   -57.0401     0.0409     0.0130    10.0000     7.0000     7.0000    10.0000    14.0000     7.0000     7.0000    14.0000    20.7675    41.5157     2.5224 75272922887645599800000000000000.0000 14333531468233012.0000 -1081108791243170770000000000000.0000    14.4503    14.4642    -0.0139     0.0000     0.0000   300.000
     12   -28.6702     10.082  10023.000  98001.000     10.000    41.5367   -25.7495   107.2900   -57.0401     0.0409     0.0130    10.0000     7.0000     7.0000    10.0000    14.0000     7.0000     7.0000    14.0000    20.7675    41.5157     2.5224 64284018006860219600000000000000.0000 12241015223776024.0000 -923280435215551068000000000000.0000    14.4503    14.4642    -0.0140     0.0000     0.0000   300.000
     13   -28.8204     10.108   2331.000  98001.000     10.000    41.5367   -25.7495   107.2900   -57.0401     0.0409     0.0130    10.0000     7.0000     7.0000    10.0000    14.0000     7.0000     7.0000    14.0000    20.7675    41.5157     2.5224 53279337614748119000000000000000.0000 10145494993564868.0000 -765225503105486194000000000000.0000    14.4503    14.4642    -0.0140     0.0000     0.0000   300.000
     14   -28.9697     10.118    550.000  98001.000     10.000    41.5367   -25.7495   107.2900   -57.0401     0.0409     0.0130    10.0000     7.0000     7.0000    10.0000    14.0000     7.0000     7.0000    14.0000    20.7675    41.5157     2.5224 42336028681442698000000000000000.0000 8061661166675264.0000 -608052019743514438000000000000.0000    14.4503    14.4642    -0.0140     0.0000     0.0000   300.000
     15   -29.1198     10.167    182.000  98001.000     10.000    41.5367   -25.7495   107.2900   -57.0401     0.0409     0.0130    10.0000     7.0000     7.0000    10.0000    14.0000     7.0000     7.0000    14.0000    20.7675    41.5157     2.5224 31335648845398403700000000000000.0000 5966959851863754.0000 -450058854452042750000000000000.0000    14.4503    14.4642    -0.0139     0.0000     0.0000   300.000
     16   -29.2693     10.115     92.000  98001.000     10.000    41.5367   -25.7495   107.2900   -57.0401     0.0409     0.0130    10.0000     7.0000     7.0000    10.0000    14.0000     7.0000     7.0000    14.0000    20.7675    41.5157     2.5224 20370929022821130500000000000000.0000 3879048945948013.0000 -292577856784397798000000000000.0000    14.4503    14.4642    -0.0140     0.0000     0.0000   300.000
     17   -29.4196     10.109     51.000  98001.000     10.000    41.5367   -25.7495   107.2900   -57.0401     0.0409     0.0130    10.0000     7.0000     7.0000    10.0000    14.0000     7.0000     7.0000    14.0000    20.7675    41.5157     2.5224 9355122110695917470000000000000.0000 1781409994706483.5000 -134363119818313205000000000000.0000    14.4503    14.4642    -0.0140     0.0000     0.0000   300.000
     18   -29.5703     10.180     30.000  98001.000     10.000    41.5367   -25.7495   107.2900   -57.0401     0.0409     0.0130    10.0000     7.0000     7.0000    10.0000    14.0000     7.0000     7.0000    14.0000    20.7675    41.5157     2.5224 -1692085645155113980000000000000.0000 -322208330849292.5000 24302612364925214300000000000.0000    14.4503    14.4642    -0.0140     0.0000     0.0000   300.000
     19   -29.7201     10.109     25.000  98001.000     10.000    41.5367   -25.7495   107.2900   -57.0401     0.0409     0.0130    10.0000     7.0000     7.0000    10.0000    14.0000     7.0000     7.0000    14.0000    20.7675    41.5157     2.5224 -12666983270169825400000000000000.0000 -2412057302219629.0000 181929788914218557000000000000.0000    14.4503    14.4642    -0.0139     0.0000     0.0000   300.000
     20   -29.8700     10.076     23.000  98001.000     10.000    41.5367   -25.7495   107.2900   -57.0401     0.0409     0.0130    10.0000     7.0000     7.0000    10.0000    14.0000     7.0000     7.0000    14.0000    20.7675    41.5157     2.5224 -23655334643751463800000000000000.0000 -4504468147382700.0000 339750195184137114000000000000.0000    14.4503    14.4642    -0.0139     0.0000     0.0000   300.000
     21   -30.0200     10.169     34.000  98001.000     10.000    41.5367   -25.7495   107.2900   -57.0401     0.0409     0.0130    10.0000     7.0000     7.0000    10.0000    14.0000     7.0000     7.0000    14.0000    20.7675    41.5157     2.5224 -34651989112114560500000000000000.0000 -6598460074637033.0000 497689854811213078000000000000.0000    14.4503    14.4642    -0.0140     0.0000     0.0000   300.000
# Sum of Counts = 74480
# Center of Mass = -28.379328+/-0.147064
# Full Width Half-Maximum = 0.508692+/-0.082223
# 10:36:27 PM  4/12/2024   scan completed.
