# scan = 26
# date = 5/23/2023
# time = 6:39:11 PM
# proposal = 9879
# experiment = HB-1A  -Instrument time
# experiment_number = 978
# command = scan s2 -5 -120 0.2 preset mcu 30
# builtin_command = scan s2 -5 -120 0.2 preset mcu 30
# users = Feng Ye, John Carruth, Adam Aczel, Songxue Chi, Jaime Fernandez-Baca, Masaaki Matsuda, Tao Hong, Travis Williams, Wei Tian, Michael Cox
# local_contact = Wei Tian, Adam Aczel
# scan_title = Si powder elastic config, 40' S-A coll, 80' A-D colli, 1st
# monochromator = PG002
# analyzer = Pg002
# sense = +-+
# collimation = 40-40-40-80
# samplename = Si powdre, Si crystal, FeGa alloy, La2Ni7 crystal, Ba2.8Sr0.2CoSn2O9 crystal
# sampletype = crystal
# samplemosaic = 30.000000
# latticeconstants = 5.431000,5.431000,5.431000,90.000000,90.000000,90.000000
# ubmatrix = 0.130198,0.130198,-0.000000,-0.000000,-0.000000,0.184128,0.130198,-0.130198,-0.000000
# mode = 0
# plane_normal = 0.000000,0.000000,1.000000
# ubconf = UB23May2023_31856PM.ini
# preset_type = normal 
# preset_channel = mcu
# preset_value = 30.000000
# def_x = s2
# def_y = detector
# col_headers = 
#   Pt.         s2       time   detector    monitor        mcu         m2   rad_coll         s1        sgl        sgu   slitb_bt   slitb_lf   slitb_rt   slitb_tp   slita_bt   slita_lf   slita_rt   slita_tp        stl        stu         sz         a1         a2          q          h          k          l         ei         ef          e
      1    -5.0002     34.997   1803.000 213301.000     30.000    41.5367     0.0149   -24.9958     0.0002     0.0007    25.0000    10.0000    10.0000    25.0000    25.0000    10.0000    10.0000    25.0000     0.0018    -0.0023    -0.0010    20.7903    41.4532     0.2307     0.1290     0.1290     0.0803    14.4503    14.5060    -0.055
      2    -5.2016     35.149   1770.000 213301.000     30.000    41.5367     0.0149   -24.9958     0.0002     0.0007    25.0000    10.0000    10.0000    25.0000    25.0000    10.0000    10.0000    25.0000     0.0018    -0.0023    -0.0010    20.7898    41.4532     0.2399     0.1344     0.1344     0.0831    14.4503    14.5060    -0.055
      3    -5.4002     35.068   1767.000 213301.000     30.000    41.5367     0.0149   -24.9958     0.0002     0.0007    25.0000    10.0000    10.0000    25.0000    25.0000    10.0000    10.0000    25.0000     0.0018    -0.0023    -0.0010    20.7895    41.4532     0.2491     0.1397     0.1397     0.0857    14.4503    14.5060    -0.055
      4    -5.5964     35.213   1551.000 213301.000     30.000    41.5367     0.0149   -24.9958     0.0002     0.0007    25.0000    10.0000    10.0000    25.0000    25.0000    10.0000    10.0000    25.0000     0.0018    -0.0024    -0.0009    20.7893    41.4532     0.2581     0.1449     0.1449     0.0883    14.4503    14.5060    -0.055
      5    -5.8011     35.226   1529.000 213301.000     30.000    41.5367     0.0149   -24.9958     0.0002     0.0007    25.0000    10.0000    10.0000    25.0000    25.0000    10.0000    10.0000    25.0000     0.0018    -0.0023    -0.0010    20.7892    41.4532     0.2676     0.1503     0.1503     0.0910    14.4503    14.5060    -0.055
      6    -5.9967     35.158   1428.000 213301.000     30.000    41.5367     0.0149   -24.9958     0.0002     0.0007    25.0000    10.0000    10.0000    25.0000    25.0000    10.0000    10.0000    25.0000     0.0018    -0.0023    -0.0010    20.7891    41.4532     0.2766     0.1555     0.1555     0.0936    14.4503    14.5060    -0.055
      7    -6.1977     35.292   1460.000 213301.000     30.000    41.5367     0.0149   -24.9958     0.0002     0.0007    25.0000    10.0000    10.0000    25.0000    25.0000    10.0000    10.0000    25.0000     0.0018    -0.0024    -0.0010    20.7890    41.4532     0.2858     0.1609     0.1609     0.0962    14.4503    14.5060    -0.055
      8    -6.4007     35.328   1386.000 213301.000     30.000    41.5367     0.0149   -24.9958     0.0002     0.0007    25.0000    10.0000    10.0000    25.0000    25.0000    10.0000    10.0000    25.0000     0.0018    -0.0023    -0.0010    20.7889    41.4532     0.2952     0.1663     0.1663     0.0988    14.4503    14.5060    -0.055
      9    -6.6030     35.210   1217.000 213301.000     30.000    41.5367     0.0149   -24.9958     0.0002     0.0007    25.0000    10.0000    10.0000    25.0000    25.0000    10.0000    10.0000    25.0000     0.0018    -0.0024    -0.0010    20.7887    41.4532     0.3045     0.1718     0.1718     0.1014    14.4503    14.5060    -0.055
     10    -6.7988     35.394   1263.000 213301.000     30.000    41.5367     0.0149   -24.9958     0.0002     0.0007    25.0000    10.0000    10.0000    25.0000    25.0000    10.0000    10.0000    25.0000     0.0018    -0.0023    -0.0010    20.7888    41.4532     0.3135     0.1770     0.1770     0.1038    14.4503    14.5060    -0.055
     11    -6.9983     35.120   1179.000 213301.000     30.000    41.5367     0.0149   -24.9958     0.0002     0.0007    25.0000    10.0000    10.0000    25.0000    25.0000    10.0000    10.0000    25.0000     0.0018    -0.0023    -0.0010    20.7887    41.4532     0.3227     0.1824     0.1824     0.1063    14.4503    14.5060    -0.055
     12    -7.2033     35.290   1251.000 213301.000     30.000    41.5367     0.0149   -24.9958     0.0002     0.0007    25.0000    10.0000    10.0000    25.0000    25.0000    10.0000    10.0000    25.0000     0.0018    -0.0023    -0.0010    20.7886    41.4532     0.3321     0.1879     0.1879     0.1088    14.4503    14.5060    -0.055
     13    -7.3971     35.127   1155.000 213301.000     30.000    41.5367     0.0149   -24.9958     0.0002     0.0007    25.0000    10.0000    10.0000    25.0000    25.0000    10.0000    10.0000    25.0000     0.0018    -0.0023    -0.0010    20.7886    41.4532     0.3411     0.1931     0.1931     0.1112    14.4503    14.5060    -0.055
     14    -7.5987     35.081   1125.000 213301.000     30.000    41.5367     0.0149   -24.9958     0.0002     0.0007    25.0000    10.0000    10.0000    25.0000    25.0000    10.0000    10.0000    25.0000     0.0018    -0.0023    -0.0010    20.7885    41.4531     0.3503     0.1985     0.1985     0.1136    14.4503    14.5060    -0.055
     15    -7.7981     35.242   1028.000 213301.000     30.000    41.5367     0.0149   -24.9958     0.0002     0.0007    25.0000    10.0000    10.0000    25.0000    25.0000    10.0000    10.0000    25.0000     0.0018    -0.0023    -0.0010    20.7884    41.4532     0.3595     0.2039     0.2039     0.1159    14.4503    14.5060    -0.055
     16    -7.9950     35.148   1032.000 213301.000     30.000    41.5367     0.0149   -24.9958     0.0002     0.0007    25.0000    10.0000    10.0000    25.0000    25.0000    10.0000    10.0000    25.0000     0.0018    -0.0024    -0.0010    20.7885    41.4530     0.3686     0.2092     0.2092     0.1183    14.4503    14.5061    -0.055
     17    -8.2015     35.285   1067.000 213301.000     30.000    41.5367     0.0149   -24.9958     0.0002     0.0007    25.0000    10.0000    10.0000    25.0000    25.0000    10.0000    10.0000    25.0000     0.0018    -0.0023    -0.0010    20.7884    41.4531     0.3781     0.2148     0.2148     0.1206    14.4503    14.5060    -0.055
     18    -8.3971     35.260    984.000 213301.000     30.000    41.5367     0.0149   -24.9958     0.0002     0.0007    25.0000    10.0000    10.0000    25.0000    25.0000    10.0000    10.0000    25.0000     0.0018    -0.0023    -0.0010    20.7884    41.4531     0.3871     0.2200     0.2200     0.1229    14.4503    14.5060    -0.055
     19    -8.5976     35.230    972.000 213301.000     30.000    41.5367     0.0149   -24.9958     0.0002     0.0007    25.0000    10.0000    10.0000    25.0000    25.0000    10.0000    10.0000    25.0000     0.0018    -0.0024    -0.0010    20.7884    41.4531     0.3963     0.2255     0.2255     0.1252    14.4503    14.5060    -0.055
     20    -8.7993     35.038    927.000 213301.000     30.000    41.5367     0.0149   -24.9958     0.0002     0.0007    25.0000    10.0000    10.0000    25.0000    25.0000    10.0000    10.0000    25.0000     0.0018    -0.0023    -0.0010    20.7883    41.4531     0.4056     0.2309     0.2309     0.1274    14.4503    14.5060    -0.055
     21    -9.0019     35.252    910.000 213301.000     30.000    41.5367     0.0149   -24.9958     0.0002     0.0007    25.0000    10.0000    10.0000    25.0000    25.0000    10.0000    10.0000    25.0000     0.0018    -0.0023    -0.0010    20.7883    41.4531     0.4149     0.2364     0.2364     0.1297    14.4503    14.5060    -0.055
     22    -9.1964     35.253    910.000 213301.000     30.000    41.5367     0.0149   -24.9958     0.0002     0.0007    25.0000    10.0000    10.0000    25.0000    25.0000    10.0000    10.0000    25.0000     0.0018    -0.0023    -0.0010    20.7883    41.4531     0.4238     0.2417     0.2417     0.1318    14.4503    14.5060    -0.055
     23    -9.3991     35.136    842.000 213301.000     30.000    41.5367     0.0149   -24.9958     0.0002     0.0007    25.0000    10.0000    10.0000    25.0000    25.0000    10.0000    10.0000    25.0000     0.0018    -0.0023    -0.0010    20.7883    41.4531     0.4332     0.2472     0.2472     0.1340    14.4503    14.5060    -0.055
     24    -9.6035     35.149    852.000 213301.000     30.000    41.5367     0.0149   -24.9958     0.0002     0.0007    25.0000    10.0000    10.0000    25.0000    25.0000    10.0000    10.0000    25.0000     0.0018    -0.0023    -0.0010    20.7883    41.4531     0.4426     0.2528     0.2528     0.1362    14.4503    14.5060    -0.055
     25    -9.8028     35.216    850.000 213301.000     30.000    41.5367     0.0149   -24.9958     0.0002     0.0007    25.0000    10.0000    10.0000    25.0000    25.0000    10.0000    10.0000    25.0000     0.0018    -0.0023    -0.0010    20.7883    41.4531     0.4517     0.2582     0.2582     0.1383    14.4503    14.5060    -0.055
     26    -9.9973     35.139    765.000 213301.000     30.000    41.5367     0.0149   -24.9958     0.0002     0.0007    25.0000    10.0000    10.0000    25.0000    25.0000    10.0000    10.0000    25.0000     0.0018    -0.0023    -0.0010    20.7883    41.4531     0.4607     0.2635     0.2635     0.1403    14.4503    14.5061    -0.055
     27   -10.2003     35.164    754.000 213301.000     30.000    41.5367     0.0149   -24.9958     0.0002     0.0007    25.0000    10.0000    10.0000    25.0000    25.0000    10.0000    10.0000    25.0000     0.0018    -0.0024    -0.0010    20.7882    41.4531     0.4700     0.2690     0.2690     0.1424    14.4503    14.5060    -0.055
     28   -10.4003     35.222    760.000 213301.000     30.000    41.5367     0.0149   -24.9958     0.0002     0.0007    25.0000    10.0000    10.0000    25.0000    25.0000    10.0000    10.0000    25.0000     0.0018    -0.0023    -0.0010    20.7882    41.4531     0.4792     0.2745     0.2745     0.1444    14.4503    14.5061    -0.055
     29   -10.5968     35.058    742.000 213301.000     30.000    41.5367     0.0149   -24.9958     0.0002     0.0007    25.0000    10.0000    10.0000    25.0000    25.0000    10.0000    10.0000    25.0000     0.0018    -0.0023    -0.0010    20.7882    41.4530     0.4882     0.2799     0.2799     0.1464    14.4503    14.5061    -0.055
     30   -10.8024     35.135    717.000 213301.000     30.000    41.5367     0.0149   -24.9958     0.0002     0.0007    25.0000    10.0000    10.0000    25.0000    25.0000    10.0000    10.0000    25.0000     0.0018    -0.0023    -0.0010    20.7882    41.4531     0.4977     0.2855     0.2855     0.1484    14.4503    14.5061    -0.055
     31   -10.9966     35.060    683.000 213301.000     30.000    41.5367     0.0149   -24.9958     0.0002     0.0007    25.0000    10.0000    10.0000    25.0000    25.0000    10.0000    10.0000    25.0000     0.0018    -0.0023    -0.0010    20.7882    41.4531     0.5066     0.2908     0.2908     0.1503    14.4503    14.5061    -0.055
     32   -11.1989     35.170    742.000 213301.000     30.000    41.5367     0.0149   -24.9958     0.0002     0.0007    25.0000    10.0000    10.0000    25.0000    25.0000    10.0000    10.0000    25.0000     0.0018    -0.0023    -0.0010    20.7882    41.4531     0.5159     0.2964     0.2964     0.1522    14.4503    14.5061    -0.055
     33   -11.4014     35.249    731.000 213301.000     30.000    41.5367     0.0149   -24.9958     0.0002     0.0007    25.0000    10.0000    10.0000    25.0000    25.0000    10.0000    10.0000    25.0000     0.0018    -0.0023    -0.0010    20.7882    41.4531     0.5252     0.3019     0.3019     0.1541    14.4503    14.5061    -0.055
     34   -11.6026     35.120    643.000 213301.000     30.000    41.5367     0.0149   -24.9958     0.0002     0.0007    25.0000    10.0000    10.0000    25.0000    25.0000    10.0000    10.0000    25.0000     0.0018    -0.0023    -0.0010    20.7881    41.4531     0.5344     0.3074     0.3074     0.1560    14.4503    14.5061    -0.055
     35   -11.7979     35.176    614.000 213301.000     30.000    41.5367     0.0149   -24.9958     0.0002     0.0007    25.0000    10.0000    10.0000    25.0000    25.0000    10.0000    10.0000    25.0000     0.0018    -0.0023    -0.0010    20.7882    41.4531     0.5434     0.3128     0.3128     0.1578    14.4503    14.5061    -0.055
     36   -11.9978     35.249    645.000 213301.000     30.000    41.5367     0.0149   -24.9958     0.0002     0.0007    25.0000    10.0000    10.0000    25.0000    25.0000    10.0000    10.0000    25.0000     0.0018    -0.0023    -0.0010    20.7881    41.4531     0.5525     0.3183     0.3183     0.1596    14.4503    14.5061    -0.055
     37   -12.2025     35.230    589.000 213301.000     30.000    41.5367     0.0149   -24.9958     0.0002     0.0007    25.0000    10.0000    10.0000    25.0000    25.0000    10.0000    10.0000    25.0000     0.0018    -0.0023    -0.0010    20.7882    41.4531     0.5619     0.3239     0.3239     0.1614    14.4503    14.5061    -0.055
     38   -12.3992     35.013    609.000 213301.000     30.000    41.5367     0.0149   -24.9958     0.0002     0.0007    25.0000    10.0000    10.0000    25.0000    25.0000    10.0000    10.0000    25.0000     0.0018    -0.0023    -0.0010    20.7882    41.4530     0.5709     0.3293     0.3293     0.1631    14.4503    14.5061    -0.055
     39   -12.5962     35.071    628.000 213301.000     30.000    41.5367     0.0149   -24.9958     0.0002     0.0007    25.0000    10.0000    10.0000    25.0000    25.0000    10.0000    10.0000    25.0000     0.0018    -0.0023    -0.0010    20.7881    41.4530     0.5800     0.3348     0.3348     0.1648    14.4503    14.5061    -0.055
     40   -12.7972     35.195    606.000 213301.000     30.000    41.5367     0.0149   -24.9958     0.0002     0.0007    25.0000    10.0000    10.0000    25.0000    25.0000    10.0000    10.0000    25.0000     0.0018    -0.0024    -0.0010    20.7881    41.4530     0.5892     0.3403     0.3403     0.1666    14.4503    14.5061    -0.055
     41   -13.0026     35.276    595.000 213301.000     30.000    41.5367     0.0149   -24.9958     0.0002     0.0007    25.0000    10.0000    10.0000    25.0000    25.0000    10.0000    10.0000    25.0000     0.0018    -0.0023    -0.0010    20.7880    41.4530     0.5986     0.3460     0.3460     0.1683    14.4503    14.5061    -0.055
     42   -13.2019     35.146    574.000 213301.000     30.000    41.5367     0.0149   -24.9958     0.0002     0.0007    25.0000    10.0000    10.0000    25.0000    25.0000    10.0000    10.0000    25.0000     0.0018    -0.0023    -0.0009    20.7881    41.4531     0.6077     0.3515     0.3515     0.1699    14.4503    14.5061    -0.055
     43   -13.4009     35.134    537.000 213301.000     30.000    41.5367     0.0149   -24.9958     0.0002     0.0007    25.0000    10.0000    10.0000    25.0000    25.0000    10.0000    10.0000    25.0000     0.0018    -0.0023    -0.0009    20.7881    41.4530     0.6169     0.3570     0.3570     0.1715    14.4503    14.5061    -0.055
     44   -13.5998     35.104    554.000 213301.000     30.000    41.5367     0.0149   -24.9958     0.0002     0.0007    25.0000    10.0000    10.0000    25.0000    25.0000    10.0000    10.0000    25.0000     0.0018    -0.0023    -0.0010    20.7881    41.4530     0.6260     0.3625     0.3625     0.1731    14.4503    14.5061    -0.055
     45   -13.7965     35.197    539.000 213301.000     30.000    41.5367     0.0149   -24.9958     0.0002     0.0007    25.0000    10.0000    10.0000    25.0000    25.0000    10.0000    10.0000    25.0000     0.0018    -0.0024    -0.0010    20.7881    41.4530     0.6350     0.3679     0.3679     0.1746    14.4503    14.5061    -0.055
     46   -14.0011     35.172    525.000 213301.000     30.000    41.5367     0.0149   -24.9958     0.0002     0.0007    25.0000    10.0000    10.0000    25.0000    25.0000    10.0000    10.0000    25.0000     0.0018    -0.0024    -0.0009    20.7881    41.4530     0.6443     0.3736     0.3736     0.1762    14.4503    14.5061    -0.055
     47   -14.1976     35.274    505.000 213301.000     30.000    41.5367     0.0149   -24.9958     0.0002     0.0007    25.0000    10.0000    10.0000    25.0000    25.0000    10.0000    10.0000    25.0000     0.0018    -0.0023    -0.0009    20.7880    41.4530     0.6533     0.3790     0.3790     0.1777    14.4503    14.5061    -0.055
     48   -14.4005     35.181    486.000 213301.000     30.000    41.5367     0.0149   -24.9958     0.0002     0.0007    25.0000    10.0000    10.0000    25.0000    25.0000    10.0000    10.0000    25.0000     0.0018    -0.0023    -0.0010    20.7880    41.4531     0.6626     0.3847     0.3847     0.1792    14.4503    14.5061    -0.055
     49   -14.5993     35.231    514.000 213301.000     30.000    41.5367     0.0149   -24.9958     0.0002     0.0007    25.0000    10.0000    10.0000    25.0000    25.0000    10.0000    10.0000    25.0000     0.0018    -0.0023    -0.0010    20.7880    41.4530     0.6717     0.3902     0.3902     0.1806    14.4503    14.5061    -0.055
     50   -14.8022     35.195    528.000 213301.000     30.000    41.5367     0.0149   -24.9958     0.0002     0.0007    25.0000    10.0000    10.0000    25.0000    25.0000    10.0000    10.0000    25.0000     0.0018    -0.0023    -0.0010    20.7880    41.4530     0.6810     0.3958     0.3958     0.1821    14.4503    14.5061    -0.055
     51   -15.0016     35.349    485.000 213301.000     30.000    41.5367     0.0149   -24.9958     0.0002     0.0007    25.0000    10.0000    10.0000    25.0000    25.0000    10.0000    10.0000    25.0000     0.0018    -0.0024    -0.0010    20.7880    41.4530     0.6901     0.4014     0.4014     0.1835    14.4503    14.5061    -0.055
     52   -15.1960     35.280    462.000 213301.000     30.000    41.5367     0.0149   -24.9958     0.0002     0.0007    25.0000    10.0000    10.0000    25.0000    25.0000    10.0000    10.0000    25.0000     0.0018    -0.0023    -0.0010    20.7880    41.4530     0.6990     0.4068     0.4068     0.1848    14.4503    14.5061    -0.055
     53   -15.4003     35.254    471.000 213301.000     30.000    41.5367     0.0149   -24.9958     0.0002     0.0007    25.0000    10.0000    10.0000    25.0000    25.0000    10.0000    10.0000    25.0000     0.0018    -0.0024    -0.0010    20.7880    41.4530     0.7084     0.4124     0.4125     0.1862    14.4503    14.5061    -0.055
     54   -15.5994     35.129    471.000 213301.000     30.000    41.5367     0.0149   -24.9958     0.0002     0.0007    25.0000    10.0000    10.0000    25.0000    25.0000    10.0000    10.0000    25.0000     0.0018    -0.0023    -0.0010    20.7880    41.4531     0.7175     0.4180     0.4180     0.1875    14.4503    14.5061    -0.055
     55   -15.7988     35.134    503.000 213301.000     30.000    41.5367     0.0149   -24.9958     0.0002     0.0007    25.0000    10.0000    10.0000    25.0000    25.0000    10.0000    10.0000    25.0000     0.0018    -0.0023    -0.0009    20.7880    41.4531     0.7266     0.4235     0.4235     0.1888    14.4503    14.5061    -0.055
     56   -15.9998     35.129    529.000 213301.000     30.000    41.5367     0.0149   -24.9958     0.0002     0.0007    25.0000    10.0000    10.0000    25.0000    25.0000    10.0000    10.0000    25.0000     0.0018    -0.0024    -0.0009    20.7880    41.4531     0.7358     0.4291     0.4291     0.1901    14.4503    14.5061    -0.055
     57   -16.2012     35.291    527.000 213301.000     30.000    41.5367     0.0149   -24.9958     0.0002     0.0007    25.0000    10.0000    10.0000    25.0000    25.0000    10.0000    10.0000    25.0000     0.0018    -0.0024    -0.0010    20.7880    41.4530     0.7450     0.4348     0.4348     0.1913    14.4503    14.5061    -0.055
     58   -16.3968     35.208    488.000 213301.000     30.000    41.5367     0.0149   -24.9958     0.0002     0.0007    25.0000    10.0000    10.0000    25.0000    25.0000    10.0000    10.0000    25.0000     0.0018    -0.0023    -0.0010    20.7880    41.4531     0.7539     0.4402     0.4402     0.1925    14.4503    14.5061    -0.055
     59   -16.5991     35.175    474.000 213301.000     30.000    41.5367     0.0149   -24.9958     0.0002     0.0007    25.0000    10.0000    10.0000    25.0000    25.0000    10.0000    10.0000    25.0000     0.0018    -0.0023    -0.0010    20.7880    41.4531     0.7631     0.4459     0.4459     0.1937    14.4503    14.5061    -0.055
     60   -16.8012     35.204    500.000 213301.000     30.000    41.5367     0.0149   -24.9958     0.0002     0.0007    25.0000    10.0000    10.0000    25.0000    25.0000    10.0000    10.0000    25.0000     0.0018    -0.0024    -0.0009    20.7879    41.4530     0.7724     0.4515     0.4515     0.1948    14.4503    14.5061    -0.055
     61   -16.9970     35.192    477.000 213301.000     30.000    41.5367     0.0149   -24.9958     0.0002     0.0007    25.0000    10.0000    10.0000    25.0000    25.0000    10.0000    10.0000    25.0000     0.0018    -0.0024    -0.0010    20.7880    41.4530     0.7813     0.4570     0.4570     0.1959    14.4503    14.5061    -0.055
     62   -17.1994     35.099    487.000 213301.000     30.000    41.5367     0.0149   -24.9958     0.0002     0.0007    25.0000    10.0000    10.0000    25.0000    25.0000    10.0000    10.0000    25.0000     0.0018    -0.0024    -0.0010    20.7880    41.4531     0.7905     0.4626     0.4626     0.1971    14.4503    14.5061    -0.055
     63   -17.4002     35.224    470.000 213301.000     30.000    41.5367     0.0149   -24.9958     0.0002     0.0007    25.0000    10.0000    10.0000    25.0000    25.0000    10.0000    10.0000    25.0000     0.0018    -0.0024    -0.0010    20.7880    41.4530     0.7997     0.4683     0.4683     0.1981    14.4503    14.5061    -0.055
     64   -17.5977     35.072    486.000 213301.000     30.000    41.5367     0.0149   -24.9958     0.0002     0.0007    25.0000    10.0000    10.0000    25.0000    25.0000    10.0000    10.0000    25.0000     0.0018    -0.0023    -0.0010    20.7880    41.4531     0.8087     0.4738     0.4738     0.1992    14.4503    14.5061    -0.055
     65   -17.8014     35.258    492.000 213301.000     30.000    41.5367     0.0149   -24.9958     0.0002     0.0007    25.0000    10.0000    10.0000    25.0000    25.0000    10.0000    10.0000    25.0000     0.0018    -0.0024    -0.0009    20.7879    41.4530     0.8180     0.4795     0.4795     0.2002    14.4503    14.5061    -0.055
     66   -17.9998     35.212    460.000 213301.000     30.000    41.5367     0.0149   -24.9958     0.0002     0.0007    25.0000    10.0000    10.0000    25.0000    25.0000    10.0000    10.0000    25.0000     0.0018    -0.0023    -0.0010    20.7880    41.4530     0.8270     0.4850     0.4850     0.2012    14.4503    14.5061    -0.055
     67   -18.2020     35.109    450.000 213301.000     30.000    41.5367     0.0149   -24.9958     0.0002     0.0007    25.0000    10.0000    10.0000    25.0000    25.0000    10.0000    10.0000    25.0000     0.0018    -0.0023    -0.0010    20.7879    41.4531     0.8362     0.4907     0.4907     0.2021    14.4503    14.5061    -0.055
     68   -18.4001     35.184    454.000 213301.000     30.000    41.5367     0.0149   -24.9958     0.0002     0.0007    25.0000    10.0000    10.0000    25.0000    25.0000    10.0000    10.0000    25.0000     0.0018    -0.0023    -0.0010    20.7879    41.4531     0.8453     0.4963     0.4963     0.2031    14.4503    14.5061    -0.055
     69   -18.5979     34.994    466.000 213301.000     30.000    41.5367     0.0149   -24.9958     0.0002     0.0007    25.0000    10.0000    10.0000    25.0000    25.0000    10.0000    10.0000    25.0000     0.0018    -0.0023    -0.0009    20.7879    41.4531     0.8543     0.5018     0.5018     0.2039    14.4503    14.5061    -0.055
     70   -18.7992     35.145    462.000 213301.000     30.000    41.5367     0.0149   -24.9958     0.0002     0.0007    25.0000    10.0000    10.0000    25.0000    25.0000    10.0000    10.0000    25.0000     0.0018    -0.0023    -0.0010    20.7879    41.4531     0.8634     0.5075     0.5075     0.2048    14.4503    14.5061    -0.055
     71   -18.9997     35.234    468.000 213301.000     30.000    41.5367     0.0149   -24.9958     0.0002     0.0007    25.0000    10.0000    10.0000    25.0000    25.0000    10.0000    10.0000    25.0000     0.0018    -0.0023    -0.0010    20.7879    41.4531     0.8725     0.5131     0.5131     0.2057    14.4503    14.5061    -0.055
     72   -19.1994     35.186    418.000 213301.000     30.000    41.5367     0.0149   -24.9958     0.0002     0.0007    25.0000    10.0000    10.0000    25.0000    25.0000    10.0000    10.0000    25.0000     0.0018    -0.0024    -0.0010    20.7879    41.4531     0.8816     0.5187     0.5187     0.2065    14.4503    14.5061    -0.055
     73   -19.3995     35.300    433.000 213301.000     30.000    41.5367     0.0149   -24.9958     0.0002     0.0007    25.0000    10.0000    10.0000    25.0000    25.0000    10.0000    10.0000    25.0000     0.0018    -0.0023    -0.0009    20.7879    41.4531     0.8907     0.5243     0.5243     0.2073    14.4503    14.5061    -0.055
     74   -19.6014     35.163    406.000 213301.000     30.000    41.5367     0.0149   -24.9958     0.0002     0.0007    25.0000    10.0000    10.0000    25.0000    25.0000    10.0000    10.0000    25.0000     0.0018    -0.0023    -0.0010    20.7879    41.4531     0.8999     0.5300     0.5300     0.2081    14.4503    14.5060    -0.055
     75   -19.8020     35.267    413.000 213301.000     30.000    41.5367     0.0149   -24.9958     0.0002     0.0007    25.0000    10.0000    10.0000    25.0000    25.0000    10.0000    10.0000    25.0000     0.0018    -0.0024    -0.0009    20.7879    41.4531     0.9090     0.5356     0.5356     0.2088    14.4503    14.5061    -0.055
     76   -20.0008     35.194    443.000 213301.000     30.000    41.5367     0.0149   -24.9958     0.0002     0.0007    25.0000    10.0000    10.0000    25.0000    25.0000    10.0000    10.0000    25.0000     0.0018    -0.0023    -0.0010    20.7879    41.4531     0.9181     0.5412     0.5412     0.2095    14.4503    14.5060    -0.055
     77   -20.1971     35.039    389.000 213301.000     30.000    41.5367     0.0149   -24.9958     0.0002     0.0007    25.0000    10.0000    10.0000    25.0000    25.0000    10.0000    10.0000    25.0000     0.0018    -0.0023    -0.0010    20.7879    41.4531     0.9270     0.5467     0.5467     0.2102    14.4503    14.5060    -0.055
     78   -20.3973     35.109    378.000 213301.000     30.000    41.5367     0.0149   -24.9958     0.0002     0.0007    25.0000    10.0000    10.0000    25.0000    25.0000    10.0000    10.0000    25.0000     0.0018    -0.0024    -0.0010    20.7879    41.4531     0.9361     0.5524     0.5524     0.2108    14.4503    14.5060    -0.055
     79   -20.5984     35.164    358.000 213301.000     30.000    41.5367     0.0149   -24.9958     0.0002     0.0007    25.0000    10.0000    10.0000    25.0000    25.0000    10.0000    10.0000    25.0000     0.0018    -0.0023    -0.0010    20.7879    41.4531     0.9452     0.5580     0.5580     0.2115    14.4503    14.5060    -0.055
     80   -20.7987     35.115    452.000 213301.000     30.000    41.5367     0.0149   -24.9958     0.0002     0.0007    25.0000    10.0000    10.0000    25.0000    25.0000    10.0000    10.0000    25.0000     0.0018    -0.0023    -0.0010    20.7879    41.4531     0.9543     0.5637     0.5637     0.2121    14.4503    14.5060    -0.055
     81   -20.9990     34.952    406.000 213301.000     30.000    41.5367     0.0149   -24.9958     0.0002     0.0007    25.0000    10.0000    10.0000    25.0000    25.0000    10.0000    10.0000    25.0000     0.0018    -0.0024    -0.0010    20.7879    41.4531     0.9634     0.5693     0.5693     0.2126    14.4503    14.5060    -0.055
     82   -21.2010     35.043    365.000 213301.000     30.000    41.5367     0.0149   -24.9958     0.0002     0.0007    25.0000    10.0000    10.0000    25.0000    25.0000    10.0000    10.0000    25.0000     0.0018    -0.0023    -0.0010    20.7879    41.4531     0.9725     0.5750     0.5750     0.2132    14.4503    14.5060    -0.055
     83   -21.4028     35.197    394.000 213301.000     30.000    41.5367     0.0149   -24.9958     0.0002     0.0007    25.0000    10.0000    10.0000    25.0000    25.0000    10.0000    10.0000    25.0000     0.0018    -0.0023    -0.0010    20.7879    41.4532     0.9817     0.5807     0.5807     0.2137    14.4503    14.5060    -0.055
     84   -21.5995     35.118    356.000 213301.000     30.000    41.5367     0.0149   -24.9958     0.0002     0.0007    25.0000    10.0000    10.0000    25.0000    25.0000    10.0000    10.0000    25.0000     0.0018    -0.0023    -0.0010    20.7879    41.4531     0.9906     0.5862     0.5862     0.2142    14.4503    14.5060    -0.055
     85   -21.7975     35.158    428.000 213301.000     30.000    41.5367     0.0149   -24.9958     0.0002     0.0007    25.0000    10.0000    10.0000    25.0000    25.0000    10.0000    10.0000    25.0000     0.0018    -0.0023    -0.0010    20.7879    41.4531     0.9996     0.5918     0.5918     0.2146    14.4503    14.5060    -0.055
     86   -21.9962     35.094    370.000 213301.000     30.000    41.5367     0.0149   -24.9958     0.0002     0.0007    25.0000    10.0000    10.0000    25.0000    25.0000    10.0000    10.0000    25.0000     0.0018    -0.0023    -0.0010    20.7879    41.4531     1.0086     0.5974     0.5974     0.2151    14.4503    14.5060    -0.055
     87   -22.1979     35.045    364.000 213301.000     30.000    41.5367     0.0149   -24.9958     0.0002     0.0007    25.0000    10.0000    10.0000    25.0000    25.0000    10.0000    10.0000    25.0000     0.0018    -0.0023    -0.0010    20.7879    41.4532     1.0177     0.6031     0.6031     0.2155    14.4503    14.5060    -0.055
     88   -22.3995     35.149    351.000 213301.000     30.000    41.5367     0.0149   -24.9958     0.0002     0.0007    25.0000    10.0000    10.0000    25.0000    25.0000    10.0000    10.0000    25.0000     0.0018    -0.0023    -0.0010    20.7879    41.4532     1.0268     0.6088     0.6088     0.2158    14.4503    14.5060    -0.055
     89   -22.6011     35.109    366.000 213301.000     30.000    41.5367     0.0149   -24.9958     0.0002     0.0007    25.0000    10.0000    10.0000    25.0000    25.0000    10.0000    10.0000    25.0000     0.0018    -0.0023    -0.0010    20.7879    41.4532     1.0360     0.6144     0.6144     0.2162    14.4503    14.5060    -0.055
     90   -22.8032     35.089    365.000 213301.000     30.000    41.5367     0.0149   -24.9958     0.0002     0.0007    25.0000    10.0000    10.0000    25.0000    25.0000    10.0000    10.0000    25.0000     0.0018    -0.0023    -0.0010    20.7878    41.4531     1.0451     0.6201     0.6201     0.2165    14.4503    14.5060    -0.055
     91   -23.0005     35.026    331.000 213301.000     30.000    41.5367     0.0149   -24.9958     0.0002     0.0007    25.0000    10.0000    10.0000    25.0000    25.0000    10.0000    10.0000    25.0000     0.0018    -0.0023    -0.0010    20.7879    41.4532     1.0540     0.6257     0.6257     0.2168    14.4503    14.5060    -0.055
     92   -23.2016     35.234    372.000 213301.000     30.000    41.5367     0.0149   -24.9958     0.0002     0.0007    25.0000    10.0000    10.0000    25.0000    25.0000    10.0000    10.0000    25.0000     0.0018    -0.0023    -0.0010    20.7879    41.4532     1.0631     0.6314     0.6314     0.2171    14.4503    14.5060    -0.055
     93   -23.3981     35.065    308.000 213301.000     30.000    41.5367     0.0149   -24.9958     0.0002     0.0007    25.0000    10.0000    10.0000    25.0000    25.0000    10.0000    10.0000    25.0000     0.0018    -0.0023    -0.0010    20.7879    41.4532     1.0720     0.6369     0.6369     0.2173    14.4503    14.5060    -0.055
     94   -23.5976     34.959    348.000 213301.000     30.000    41.5367     0.0149   -24.9958     0.0002     0.0007    25.0000    10.0000    10.0000    25.0000    25.0000    10.0000    10.0000    25.0000     0.0018    -0.0023    -0.0010    20.7878    41.4532     1.0810     0.6426     0.6426     0.2175    14.4503    14.5060    -0.055
     95   -23.7986     34.988    351.000 213301.000     30.000    41.5367     0.0149   -24.9958     0.0002     0.0007    25.0000    10.0000    10.0000    25.0000    25.0000    10.0000    10.0000    25.0000     0.0018    -0.0023    -0.0010    20.7878    41.4532     1.0901     0.6482     0.6482     0.2177    14.4503    14.5060    -0.055
     96   -23.9979     35.069    335.000 213301.000     30.000    41.5367     0.0149   -24.9958     0.0002     0.0007    25.0000    10.0000    10.0000    25.0000    25.0000    10.0000    10.0000    25.0000     0.0018    -0.0023    -0.0010    20.7879    41.4532     1.0991     0.6539     0.6539     0.2178    14.4503    14.5060    -0.055
     97   -24.1990     35.213    351.000 213301.000     30.000    41.5367     0.0149   -24.9958     0.0002     0.0007    25.0000    10.0000    10.0000    25.0000    25.0000    10.0000    10.0000    25.0000     0.0018    -0.0023    -0.0010    20.7878    41.4532     1.1081     0.6595     0.6595     0.2180    14.4503    14.5060    -0.055
     98   -24.4024     35.075    331.000 213301.000     30.000    41.5367     0.0149   -24.9958     0.0002     0.0007    25.0000    10.0000    10.0000    25.0000    25.0000    10.0000    10.0000    25.0000     0.0018    -0.0023    -0.0010    20.7878    41.4532     1.1173     0.6653     0.6653     0.2181    14.4503    14.5060    -0.055
     99   -24.6032     35.009    359.000 213301.000     30.000    41.5367     0.0149   -24.9958     0.0002     0.0007    25.0000    10.0000    10.0000    25.0000    25.0000    10.0000    10.0000    25.0000     0.0018    -0.0023    -0.0010    20.7878    41.4532     1.1264     0.6709     0.6709     0.2181    14.4503    14.5060    -0.055
    100   -24.8025     35.076    351.000 213301.000     30.000    41.5367     0.0149   -24.9958     0.0002     0.0007    25.0000    10.0000    10.0000    25.0000    25.0000    10.0000    10.0000    25.0000     0.0018    -0.0023    -0.0010    20.7878    41.4532     1.1353     0.6766     0.6766     0.2182    14.4503    14.5060    -0.055
    101   -24.9999     35.187    338.000 213301.000     30.000    41.5367     0.0149   -24.9958     0.0002     0.0007    25.0000    10.0000    10.0000    25.0000    25.0000    10.0000    10.0000    25.0000     0.0018    -0.0023    -0.0010    20.7878    41.4532     1.1442     0.6821     0.6821     0.2182    14.4503    14.5060    -0.055
    102   -25.1991     34.935    328.000 213301.000     30.000    41.5367     0.0149   -24.9958     0.0002     0.0007    25.0000    10.0000    10.0000    25.0000    25.0000    10.0000    10.0000    25.0000     0.0018    -0.0023    -0.0010    20.7878    41.4532     1.1532     0.6878     0.6878     0.2182    14.4503    14.5060    -0.055
    103   -25.3982     35.042    361.000 213301.000     30.000    41.5367     0.0149   -24.9958     0.0002     0.0007    25.0000    10.0000    10.0000    25.0000    25.0000    10.0000    10.0000    25.0000     0.0018    -0.0023    -0.0009    20.7877    41.4532     1.1622     0.6934     0.6934     0.2181    14.4503    14.5060    -0.055
    104   -25.6000     35.200    335.000 213301.000     30.000    41.5367     0.0149   -24.9958     0.0002     0.0007    25.0000    10.0000    10.0000    25.0000    25.0000    10.0000    10.0000    25.0000     0.0018    -0.0023    -0.0010    20.7878    41.4532     1.1713     0.6991     0.6991     0.2181    14.4503    14.5060    -0.055
    105   -25.7991     35.073    317.000 213301.000     30.000    41.5367     0.0149   -24.9958     0.0002     0.0007    25.0000    10.0000    10.0000    25.0000    25.0000    10.0000    10.0000    25.0000     0.0018    -0.0023    -0.0010    20.7878    41.4532     1.1802     0.7047     0.7047     0.2180    14.4503    14.5060    -0.055
    106   -25.9996     35.085    360.000 213301.000     30.000    41.5367     0.0149   -24.9958     0.0002     0.0007    25.0000    10.0000    10.0000    25.0000    25.0000    10.0000    10.0000    25.0000     0.0018    -0.0023    -0.0010    20.7878    41.4532     1.1892     0.7103     0.7103     0.2178    14.4503    14.5060    -0.055
    107   -26.2018     35.189    317.000 213301.000     30.000    41.5367     0.0149   -24.9958     0.0002     0.0007    25.0000    10.0000    10.0000    25.0000    25.0000    10.0000    10.0000    25.0000     0.0018    -0.0023    -0.0010    20.7878    41.4532     1.1983     0.7161     0.7161     0.2177    14.4503    14.5060    -0.055
    108   -26.4025     34.998    294.000 213301.000     30.000    41.5367     0.0149   -24.9958     0.0002     0.0007    25.0000    10.0000    10.0000    25.0000    25.0000    10.0000    10.0000    25.0000     0.0018    -0.0023    -0.0009    20.7878    41.4532     1.2073     0.7217     0.7217     0.2175    14.4503    14.5060    -0.055
    109   -26.5993     34.983    312.000 213301.000     30.000    41.5367     0.0149   -24.9958     0.0002     0.0007    25.0000    10.0000    10.0000    25.0000    25.0000    10.0000    10.0000    25.0000     0.0018    -0.0023    -0.0010    20.7878    41.4532     1.2162     0.7273     0.7273     0.2173    14.4503    14.5060    -0.055
    110   -26.7974     35.105    343.000 213301.000     30.000    41.5367     0.0149   -24.9958     0.0002     0.0007    25.0000    10.0000    10.0000    25.0000    25.0000    10.0000    10.0000    25.0000     0.0018    -0.0023    -0.0009    20.7878    41.4532     1.2251     0.7329     0.7329     0.2171    14.4503    14.5060    -0.055
    111   -26.9985     35.112    314.000 213301.000     30.000    41.5367     0.0149   -24.9958     0.0002     0.0007    25.0000    10.0000    10.0000    25.0000    25.0000    10.0000    10.0000    25.0000     0.0018    -0.0023    -0.0010    20.7878    41.4532     1.2341     0.7385     0.7385     0.2168    14.4503    14.5060    -0.055
    112   -27.1986     35.308    318.000 213301.000     30.000    41.5367     0.0149   -24.9958     0.0002     0.0007    25.0000    10.0000    10.0000    25.0000    25.0000    10.0000    10.0000    25.0000     0.0018    -0.0024    -0.0010    20.7878    41.4532     1.2431     0.7442     0.7442     0.2165    14.4503    14.5060    -0.055
    113   -27.3989     35.075    322.000 213301.000     30.000    41.5367     0.0149   -24.9958     0.0002     0.0007    25.0000    10.0000    10.0000    25.0000    25.0000    10.0000    10.0000    25.0000     0.0018    -0.0023    -0.0010    20.7878    41.4532     1.2520     0.7498     0.7498     0.2162    14.4503    14.5060    -0.055
    114   -27.6007     35.039    314.000 213301.000     30.000    41.5367     0.0149   -24.9958     0.0002     0.0007    25.0000    10.0000    10.0000    25.0000    25.0000    10.0000    10.0000    25.0000     0.0018    -0.0023    -0.0010    20.7878    41.4532     1.2611     0.7555     0.7555     0.2158    14.4503    14.5060    -0.055
    115   -27.8009     35.035    332.000 213301.000     30.000    41.5367     0.0149   -24.9958     0.0002     0.0007    25.0000    10.0000    10.0000    25.0000    25.0000    10.0000    10.0000    25.0000     0.0018    -0.0023    -0.0010    20.7878    41.4532     1.2700     0.7612     0.7612     0.2154    14.4503    14.5060    -0.055
    116   -28.0022     34.972    340.000 213301.000     30.000    41.5367     0.0149   -24.9958     0.0002     0.0007    25.0000    10.0000    10.0000    25.0000    25.0000    10.0000    10.0000    25.0000     0.0018    -0.0023    -0.0010    20.7878    41.4532     1.2791     0.7668     0.7668     0.2150    14.4503    14.5060    -0.055
    117   -28.1982     35.048    338.000 213301.000     30.000    41.5367     0.0149   -24.9958     0.0002     0.0007    25.0000    10.0000    10.0000    25.0000    25.0000    10.0000    10.0000    25.0000     0.0018    -0.0023    -0.0010    20.7878    41.4531     1.2878     0.7724     0.7724     0.2146    14.4503    14.5060    -0.055
    118   -28.3973     35.024    275.000 213301.000     30.000    41.5367     0.0149   -24.9958     0.0002     0.0007    25.0000    10.0000    10.0000    25.0000    25.0000    10.0000    10.0000    25.0000     0.0018    -0.0023    -0.0010    20.7878    41.4532     1.2967     0.7780     0.7780     0.2142    14.4503    14.5060    -0.055
    119   -28.5966     35.272    330.000 213301.000     30.000    41.5367     0.0149   -24.9958     0.0002     0.0007    25.0000    10.0000    10.0000    25.0000    25.0000    10.0000    10.0000    25.0000     0.0018    -0.0023    -0.0010    20.7878    41.4531     1.3056     0.7836     0.7836     0.2137    14.4503    14.5060    -0.055
    120   -28.7996     35.175    320.000 213301.000     30.000    41.5367     0.0149   -24.9958     0.0002     0.0007    25.0000    10.0000    10.0000    25.0000    25.0000    10.0000    10.0000    25.0000     0.0018    -0.0023    -0.0010    20.7877    41.4532     1.3147     0.7893     0.7893     0.2131    14.4503    14.5060    -0.055
    121   -29.0004     35.064    306.000 213301.000     30.000    41.5367     0.0149   -24.9958     0.0002     0.0007    25.0000    10.0000    10.0000    25.0000    25.0000    10.0000    10.0000    25.0000     0.0018    -0.0023    -0.0009    20.7877    41.4532     1.3237     0.7950     0.7950     0.2126    14.4503    14.5060    -0.055
    122   -29.2014     35.081    300.000 213301.000     30.000    41.5367     0.0149   -24.9958     0.0002     0.0007    25.0000    10.0000    10.0000    25.0000    25.0000    10.0000    10.0000    25.0000     0.0018    -0.0023    -0.0010    20.7878    41.4532     1.3327     0.8006     0.8006     0.2120    14.4503    14.5060    -0.055
    123   -29.4027     35.088    324.000 213301.000     30.000    41.5367     0.0149   -24.9958     0.0002     0.0007    25.0000    10.0000    10.0000    25.0000    25.0000    10.0000    10.0000    25.0000     0.0018    -0.0023    -0.0010    20.7877    41.4531     1.3417     0.8063     0.8063     0.2114    14.4503    14.5060    -0.055
    124   -29.5996     35.045    312.000 213301.000     30.000    41.5367     0.0149   -24.9958     0.0002     0.0007    25.0000    10.0000    10.0000    25.0000    25.0000    10.0000    10.0000    25.0000     0.0018    -0.0023    -0.0009    20.7878    41.4531     1.3504     0.8118     0.8118     0.2108    14.4503    14.5060    -0.055
    125   -29.7990     35.061    315.000 213301.000     30.000    41.5367     0.0149   -24.9958     0.0002     0.0007    25.0000    10.0000    10.0000    25.0000    25.0000    10.0000    10.0000    25.0000     0.0018    -0.0023    -0.0010    20.7877    41.4532     1.3593     0.8174     0.8174     0.2102    14.4503    14.5060    -0.055
    126   -29.9970     35.034    346.000 213301.000     30.000    41.5367     0.0149   -24.9958     0.0002     0.0007    25.0000    10.0000    10.0000    25.0000    25.0000    10.0000    10.0000    25.0000     0.0018    -0.0023    -0.0010    20.7877    41.4532     1.3682     0.8230     0.8230     0.2095    14.4503    14.5060    -0.055
    127   -30.1984     35.196    317.000 213301.000     30.000    41.5367     0.0149   -24.9958     0.0002     0.0007    25.0000    10.0000    10.0000    25.0000    25.0000    10.0000    10.0000    25.0000     0.0018    -0.0023    -0.0010    20.7877    41.4532     1.3771     0.8287     0.8287     0.2088    14.4503    14.5060    -0.055
    128   -30.3974     35.125    284.000 213301.000     30.000    41.5367     0.0149   -24.9958     0.0002     0.0007    25.0000    10.0000    10.0000    25.0000    25.0000    10.0000    10.0000    25.0000     0.0018    -0.0023    -0.0010    20.7878    41.4532     1.3860     0.8343     0.8342     0.2080    14.4503    14.5060    -0.055
    129   -30.5983     35.109    303.000 213301.000     30.000    41.5367     0.0149   -24.9958     0.0002     0.0007    25.0000    10.0000    10.0000    25.0000    25.0000    10.0000    10.0000    25.0000     0.0018    -0.0023    -0.0010    20.7877    41.4532     1.3949     0.8399     0.8399     0.2073    14.4503    14.5060    -0.055
    130   -30.7999     35.175    316.000 213301.000     30.000    41.5367     0.0149   -24.9958     0.0002     0.0007    25.0000    10.0000    10.0000    25.0000    25.0000    10.0000    10.0000    25.0000     0.0018    -0.0023    -0.0010    20.7877    41.4532     1.4039     0.8456     0.8456     0.2065    14.4503    14.5060    -0.055
    131   -31.0029     35.050    283.000 213301.000     30.000    41.5367     0.0149   -24.9958     0.0002     0.0007    25.0000    10.0000    10.0000    25.0000    25.0000    10.0000    10.0000    25.0000     0.0018    -0.0023    -0.0009    20.7878    41.4531     1.4129     0.8513     0.8513     0.2056    14.4503    14.5060    -0.055
    132   -31.2019     35.102    318.000 213301.000     30.000    41.5367     0.0149   -24.9958     0.0002     0.0007    25.0000    10.0000    10.0000    25.0000    25.0000    10.0000    10.0000    25.0000     0.0018    -0.0023    -0.0010    20.7877    41.4531     1.4218     0.8568     0.8568     0.2048    14.4503    14.5060    -0.055
    133   -31.4009     34.928    303.000 213301.000     30.000    41.5367     0.0149   -24.9958     0.0002     0.0007    25.0000    10.0000    10.0000    25.0000    25.0000    10.0000    10.0000    25.0000     0.0018    -0.0024    -0.0010    20.7877    41.4531     1.4306     0.8624     0.8624     0.2039    14.4503    14.5060    -0.055
    134   -31.5997     35.150    321.000 213301.000     30.000    41.5367     0.0149   -24.9958     0.0002     0.0007    25.0000    10.0000    10.0000    25.0000    25.0000    10.0000    10.0000    25.0000     0.0018    -0.0023    -0.0010    20.7877    41.4531     1.4394     0.8680     0.8680     0.2030    14.4503    14.5060    -0.055
    135   -31.7983     35.146    327.000 213301.000     30.000    41.5367     0.0149   -24.9958     0.0002     0.0007    25.0000    10.0000    10.0000    25.0000    25.0000    10.0000    10.0000    25.0000     0.0018    -0.0023    -0.0009    20.7878    41.4532     1.4483     0.8736     0.8736     0.2021    14.4503    14.5060    -0.055
    136   -31.9971     35.057    327.000 213301.000     30.000    41.5367     0.0149   -24.9958     0.0002     0.0007    25.0000    10.0000    10.0000    25.0000    25.0000    10.0000    10.0000    25.0000     0.0018    -0.0023    -0.0010    20.7877    41.4532     1.4571     0.8791     0.8791     0.2011    14.4503    14.5060    -0.055
    137   -32.2004     35.193    333.000 213301.000     30.000    41.5367     0.0149   -24.9958     0.0002     0.0007    25.0000    10.0000    10.0000    25.0000    25.0000    10.0000    10.0000    25.0000     0.0018    -0.0023    -0.0010    20.7878    41.4531     1.4661     0.8848     0.8848     0.2001    14.4503    14.5060    -0.055
    138   -32.3984     35.126    347.000 213301.000     30.000    41.5367     0.0149   -24.9958     0.0002     0.0007    25.0000    10.0000    10.0000    25.0000    25.0000    10.0000    10.0000    25.0000     0.0018    -0.0023    -0.0010    20.7877    41.4531     1.4749     0.8904     0.8904     0.1991    14.4503    14.5060    -0.055
    139   -32.6002     34.919    425.000 213301.000     30.000    41.5367     0.0149   -24.9958     0.0002     0.0007    25.0000    10.0000    10.0000    25.0000    25.0000    10.0000    10.0000    25.0000     0.0018    -0.0023    -0.0010    20.7877    41.4531     1.4838     0.8960     0.8960     0.1981    14.4503    14.5060    -0.055
    140   -32.8040     34.972    422.000 213301.000     30.000    41.5367     0.0149   -24.9958     0.0002     0.0007    25.0000    10.0000    10.0000    25.0000    25.0000    10.0000    10.0000    25.0000     0.0018    -0.0023    -0.0010    20.7877    41.4532     1.4928     0.9017     0.9017     0.1970    14.4503    14.5060    -0.055
    141   -32.9993     35.122    321.000 213301.000     30.000    41.5367     0.0149   -24.9958     0.0002     0.0007    25.0000    10.0000    10.0000    25.0000    25.0000    10.0000    10.0000    25.0000     0.0018    -0.0023    -0.0010    20.7877    41.4532     1.5015     0.9072     0.9072     0.1959    14.4503    14.5060    -0.055
    142   -33.1969     35.011    297.000 213301.000     30.000    41.5367     0.0149   -24.9958     0.0002     0.0007    25.0000    10.0000    10.0000    25.0000    25.0000    10.0000    10.0000    25.0000     0.0018    -0.0023    -0.0010    20.7877    41.4531     1.5102     0.9127     0.9127     0.1948    14.4503    14.5060    -0.055
    143   -33.3979     35.058    304.000 213301.000     30.000    41.5367     0.0149   -24.9958     0.0002     0.0007    25.0000    10.0000    10.0000    25.0000    25.0000    10.0000    10.0000    25.0000     0.0018    -0.0023    -0.0010    20.7877    41.4532     1.5191     0.9183     0.9183     0.1936    14.4503    14.5060    -0.055
    144   -33.5980     34.913    310.000 213301.000     30.000    41.5367     0.0149   -24.9958     0.0002     0.0007    25.0000    10.0000    10.0000    25.0000    25.0000    10.0000    10.0000    25.0000     0.0018    -0.0023    -0.0010    20.7877    41.4532     1.5279     0.9239     0.9239     0.1925    14.4503    14.5060    -0.055
    145   -33.7989     34.906    276.000 213301.000     30.000    41.5367     0.0149   -24.9958     0.0002     0.0007    25.0000    10.0000    10.0000    25.0000    25.0000    10.0000    10.0000    25.0000     0.0018    -0.0023    -0.0010    20.7877    41.4532     1.5368     0.9295     0.9295     0.1912    14.4503    14.5060    -0.055
    146   -33.9991     35.092    276.000 213301.000     30.000    41.5367     0.0149   -24.9958     0.0002     0.0007    25.0000    10.0000    10.0000    25.0000    25.0000    10.0000    10.0000    25.0000     0.0018    -0.0023    -0.0010    20.7877    41.4531     1.5456     0.9351     0.9351     0.1900    14.4503    14.5060    -0.055
    147   -34.2007     34.885    290.000 213301.000     30.000    41.5367     0.0149   -24.9958     0.0002     0.0007    25.0000    10.0000    10.0000    25.0000    25.0000    10.0000    10.0000    25.0000     0.0018    -0.0023    -0.0010    20.7877    41.4531     1.5545     0.9407     0.9407     0.1887    14.4503    14.5060    -0.055
    148   -34.4029     35.118    276.000 213301.000     30.000    41.5367     0.0149   -24.9958     0.0002     0.0007    25.0000    10.0000    10.0000    25.0000    25.0000    10.0000    10.0000    25.0000     0.0018    -0.0023    -0.0010    20.7877    41.4531     1.5634     0.9463     0.9463     0.1874    14.4503    14.5060    -0.055
    149   -34.6014     35.021    308.000 213301.000     30.000    41.5367     0.0149   -24.9958     0.0002     0.0007    25.0000    10.0000    10.0000    25.0000    25.0000    10.0000    10.0000    25.0000     0.0018    -0.0023    -0.0010    20.7877    41.4532     1.5722     0.9519     0.9519     0.1861    14.4503    14.5060    -0.055
    150   -34.7979     35.031    298.000 213301.000     30.000    41.5367     0.0149   -24.9958     0.0002     0.0007    25.0000    10.0000    10.0000    25.0000    25.0000    10.0000    10.0000    25.0000     0.0018    -0.0023    -0.0010    20.7878    41.4531     1.5808     0.9573     0.9573     0.1848    14.4503    14.5060    -0.055
    151   -34.9978     34.925    311.000 213301.000     30.000    41.5367     0.0149   -24.9958     0.0002     0.0007    25.0000    10.0000    10.0000    25.0000    25.0000    10.0000    10.0000    25.0000     0.0018    -0.0023    -0.0010    20.7877    41.4531     1.5896     0.9629     0.9629     0.1834    14.4503    14.5060    -0.055
    152   -35.1975     35.028    305.000 213301.000     30.000    41.5367     0.0149   -24.9958     0.0002     0.0007    25.0000    10.0000    10.0000    25.0000    25.0000    10.0000    10.0000    25.0000     0.0018    -0.0023    -0.0010    20.7878    41.4531     1.5984     0.9684     0.9684     0.1820    14.4503    14.5060    -0.055
    153   -35.3988     35.101    294.000 213301.000     30.000    41.5367     0.0149   -24.9958     0.0002     0.0007    25.0000    10.0000    10.0000    25.0000    25.0000    10.0000    10.0000    25.0000     0.0018    -0.0023    -0.0010    20.7877    41.4531     1.6073     0.9740     0.9740     0.1806    14.4503    14.5060    -0.055
    154   -35.6021     35.006    313.000 213301.000     30.000    41.5367     0.0149   -24.9958     0.0002     0.0007    25.0000    10.0000    10.0000    25.0000    25.0000    10.0000    10.0000    25.0000     0.0018    -0.0023    -0.0010    20.7877    41.4531     1.6162     0.9797     0.9797     0.1791    14.4503    14.5060    -0.055
    155   -35.8030     35.047    270.000 213301.000     30.000    41.5367     0.0149   -24.9958     0.0002     0.0007    25.0000    10.0000    10.0000    25.0000    25.0000    10.0000    10.0000    25.0000     0.0018    -0.0023    -0.0010    20.7877    41.4531     1.6250     0.9852     0.9852     0.1776    14.4503    14.5060    -0.055
    156   -36.0004     35.071    276.000 213301.000     30.000    41.5367     0.0149   -24.9958     0.0002     0.0007    25.0000    10.0000    10.0000    25.0000    25.0000    10.0000    10.0000    25.0000     0.0018    -0.0023    -0.0010    20.7877    41.4531     1.6337     0.9907     0.9907     0.1761    14.4503    14.5060    -0.055
    157   -36.2032     35.079    263.000 213301.000     30.000    41.5367     0.0149   -24.9958     0.0002     0.0007    25.0000    10.0000    10.0000    25.0000    25.0000    10.0000    10.0000    25.0000     0.0018    -0.0023    -0.0010    20.7877    41.4531     1.6426     0.9963     0.9963     0.1746    14.4503    14.5060    -0.055
    158   -36.3997     35.070    270.000 213301.000     30.000    41.5367     0.0149   -24.9958     0.0002     0.0007    25.0000    10.0000    10.0000    25.0000    25.0000    10.0000    10.0000    25.0000     0.0018    -0.0023    -0.0010    20.7877    41.4531     1.6512     1.0018     1.0018     0.1730    14.4503    14.5060    -0.055
    159   -36.5993     35.096    278.000 213301.000     30.000    41.5367     0.0149   -24.9958     0.0002     0.0007    25.0000    10.0000    10.0000    25.0000    25.0000    10.0000    10.0000    25.0000     0.0018    -0.0023    -0.0010    20.7877    41.4531     1.6599     1.0073     1.0073     0.1714    14.4503    14.5060    -0.055
    160   -36.7985     35.151    254.000 213301.000     30.000    41.5367     0.0149   -24.9958     0.0002     0.0007    25.0000    10.0000    10.0000    25.0000    25.0000    10.0000    10.0000    25.0000     0.0018    -0.0023    -0.0010    20.7877    41.4531     1.6687     1.0128     1.0128     0.1698    14.4503    14.5060    -0.055
    161   -36.9971     34.970    285.000 213301.000     30.000    41.5367     0.0149   -24.9958     0.0002     0.0007    25.0000    10.0000    10.0000    25.0000    25.0000    10.0000    10.0000    25.0000     0.0018    -0.0023    -0.0010    20.7877    41.4531     1.6774     1.0183     1.0183     0.1682    14.4503    14.5060    -0.055
    162   -37.1986     34.916    233.000 213301.000     30.000    41.5367     0.0149   -24.9958     0.0002     0.0007    25.0000    10.0000    10.0000    25.0000    25.0000    10.0000    10.0000    25.0000     0.0018    -0.0023    -0.0010    20.7877    41.4531     1.6862     1.0238     1.0238     0.1665    14.4503    14.5060    -0.055
    163   -37.4014     35.133    270.000 213301.000     30.000    41.5367     0.0149   -24.9958     0.0002     0.0007    25.0000    10.0000    10.0000    25.0000    25.0000    10.0000    10.0000    25.0000     0.0018    -0.0023    -0.0010    20.7877    41.4531     1.6950     1.0294     1.0294     0.1648    14.4503    14.5060    -0.055
    164   -37.6023     34.960    314.000 213301.000     30.000    41.5367     0.0149   -24.9958     0.0002     0.0007    25.0000    10.0000    10.0000    25.0000    25.0000    10.0000    10.0000    25.0000     0.0018    -0.0023    -0.0010    20.7878    41.4531     1.7038     1.0350     1.0350     0.1631    14.4503    14.5060    -0.055
    165   -37.7994     35.043    293.000 213301.000     30.000    41.5367     0.0149   -24.9958     0.0002     0.0007    25.0000    10.0000    10.0000    25.0000    25.0000    10.0000    10.0000    25.0000     0.0018    -0.0023    -0.0010    20.7877    41.4531     1.7124     1.0404     1.0404     0.1613    14.4503    14.5060    -0.055
    166   -38.0008     35.068    313.000 213301.000     30.000    41.5367     0.0149   -24.9958     0.0002     0.0007    25.0000    10.0000    10.0000    25.0000    25.0000    10.0000    10.0000    25.0000     0.0018    -0.0023    -0.0009    20.7878    41.4531     1.7212     1.0459     1.0459     0.1595    14.4503    14.5060    -0.055
    167   -38.1979     35.085    293.000 213301.000     30.000    41.5367     0.0149   -24.9958     0.0002     0.0007    25.0000    10.0000    10.0000    25.0000    25.0000    10.0000    10.0000    25.0000     0.0018    -0.0023    -0.0010    20.7877    41.4531     1.7298     1.0514     1.0514     0.1577    14.4503    14.5060    -0.055
    168   -38.3990     35.072    264.000 213301.000     30.000    41.5367     0.0149   -24.9958     0.0002     0.0007    25.0000    10.0000    10.0000    25.0000    25.0000    10.0000    10.0000    25.0000     0.0018    -0.0023    -0.0010    20.7877    41.4531     1.7386     1.0569     1.0569     0.1559    14.4503    14.5061    -0.055
    169   -38.6003     35.038    251.000 213301.000     30.000    41.5367     0.0149   -24.9958     0.0002     0.0007    25.0000    10.0000    10.0000    25.0000    25.0000    10.0000    10.0000    25.0000     0.0018    -0.0023    -0.0010    20.7878    41.4531     1.7473     1.0624     1.0624     0.1540    14.4503    14.5060    -0.055
    170   -38.7994     35.025    263.000 213301.000     30.000    41.5367     0.0149   -24.9958     0.0002     0.0007    25.0000    10.0000    10.0000    25.0000    25.0000    10.0000    10.0000    25.0000     0.0018    -0.0023    -0.0010    20.7877    41.4531     1.7560     1.0679     1.0679     0.1521    14.4503    14.5060    -0.055
    171   -38.9994     35.084    255.000 213301.000     30.000    41.5367     0.0149   -24.9958     0.0002     0.0007    25.0000    10.0000    10.0000    25.0000    25.0000    10.0000    10.0000    25.0000     0.0018    -0.0023    -0.0010    20.7877    41.4531     1.7647     1.0733     1.0733     0.1502    14.4503    14.5060    -0.055
    172   -39.2015     34.996    273.000 213301.000     30.000    41.5367     0.0149   -24.9958     0.0002     0.0007    25.0000    10.0000    10.0000    25.0000    25.0000    10.0000    10.0000    25.0000     0.0018    -0.0023    -0.0010    20.7877    41.4531     1.7735     1.0789     1.0789     0.1483    14.4503    14.5060    -0.055
    173   -39.3991     35.253    261.000 213301.000     30.000    41.5367     0.0149   -24.9958     0.0002     0.0007    25.0000    10.0000    10.0000    25.0000    25.0000    10.0000    10.0000    25.0000     0.0018    -0.0023    -0.0010    20.7877    41.4531     1.7821     1.0843     1.0843     0.1463    14.4503    14.5060    -0.055
    174   -39.6000     34.978    257.000 213301.000     30.000    41.5367     0.0149   -24.9958     0.0002     0.0007    25.0000    10.0000    10.0000    25.0000    25.0000    10.0000    10.0000    25.0000     0.0018    -0.0023    -0.0010    20.7877    41.4531     1.7908     1.0898     1.0898     0.1443    14.4503    14.5061    -0.055
    175   -39.7962     35.047    258.000 213301.000     30.000    41.5367     0.0149   -24.9958     0.0002     0.0007    25.0000    10.0000    10.0000    25.0000    25.0000    10.0000    10.0000    25.0000     0.0018    -0.0023    -0.0010    20.7877    41.4531     1.7993     1.0951     1.0951     0.1423    14.4503    14.5060    -0.055
    176   -39.9979     35.070    274.000 213301.000     30.000    41.5367     0.0149   -24.9958     0.0002     0.0007    25.0000    10.0000    10.0000    25.0000    25.0000    10.0000    10.0000    25.0000     0.0018    -0.0023    -0.0009    20.7877    41.4531     1.8081     1.1006     1.1006     0.1402    14.4503    14.5060    -0.055
    177   -40.1988     34.912    274.000 213301.000     30.000    41.5367     0.0149   -24.9958     0.0002     0.0007    25.0000    10.0000    10.0000    25.0000    25.0000    10.0000    10.0000    25.0000     0.0018    -0.0023    -0.0010    20.7877    41.4531     1.8168     1.1061     1.1061     0.1382    14.4503    14.5061    -0.055
    178   -40.3987     35.117    270.000 213301.000     30.000    41.5367     0.0149   -24.9958     0.0002     0.0007    25.0000    10.0000    10.0000    25.0000    25.0000    10.0000    10.0000    25.0000     0.0018    -0.0023    -0.0010    20.7877    41.4531     1.8254     1.1115     1.1115     0.1360    14.4503    14.5060    -0.055
    179   -40.5993     35.125    269.000 213301.000     30.000    41.5367     0.0149   -24.9958     0.0002     0.0007    25.0000    10.0000    10.0000    25.0000    25.0000    10.0000    10.0000    25.0000     0.0018    -0.0023    -0.0010    20.7878    41.4531     1.8341     1.1170     1.1170     0.1339    14.4503    14.5061    -0.055
    180   -40.8018     35.077    287.000 213301.000     30.000    41.5367     0.0149   -24.9958     0.0002     0.0007    25.0000    10.0000    10.0000    25.0000    25.0000    10.0000    10.0000    25.0000     0.0018    -0.0023    -0.0009    20.7878    41.4530     1.8429     1.1225     1.1225     0.1317    14.4503    14.5061    -0.055
    181   -41.0021     34.957    242.000 213301.000     30.000    41.5367     0.0149   -24.9958     0.0002     0.0007    25.0000    10.0000    10.0000    25.0000    25.0000    10.0000    10.0000    25.0000     0.0018    -0.0023    -0.0010    20.7878    41.4531     1.8515     1.1279     1.1279     0.1295    14.4503    14.5061    -0.055
    182   -41.2015     35.086    253.000 213301.000     30.000    41.5367     0.0149   -24.9958     0.0002     0.0007    25.0000    10.0000    10.0000    25.0000    25.0000    10.0000    10.0000    25.0000     0.0018    -0.0023    -0.0010    20.7877    41.4531     1.8601     1.1333     1.1333     0.1273    14.4503    14.5061    -0.055
    183   -41.3978     35.219    258.000 213301.000     30.000    41.5367     0.0149   -24.9958     0.0002     0.0007    25.0000    10.0000    10.0000    25.0000    25.0000    10.0000    10.0000    25.0000     0.0018    -0.0023    -0.0010    20.7877    41.4531     1.8686     1.1387     1.1387     0.1251    14.4503    14.5061    -0.055
    184   -41.5968     35.103    245.000 213301.000     30.000    41.5367     0.0149   -24.9958     0.0002     0.0007    25.0000    10.0000    10.0000    25.0000    25.0000    10.0000    10.0000    25.0000     0.0018    -0.0023    -0.0010    20.7877    41.4531     1.8772     1.1440     1.1440     0.1229    14.4503    14.5061    -0.055
    185   -41.7987     35.048    256.000 213301.000     30.000    41.5367     0.0149   -24.9958     0.0002     0.0007    25.0000    10.0000    10.0000    25.0000    25.0000    10.0000    10.0000    25.0000     0.0018    -0.0023    -0.0010    20.7878    41.4531     1.8859     1.1495     1.1495     0.1205    14.4503    14.5061    -0.055
    186   -41.9991     34.970    279.000 213301.000     30.000    41.5367     0.0149   -24.9958     0.0002     0.0007    25.0000    10.0000    10.0000    25.0000    25.0000    10.0000    10.0000    25.0000     0.0018    -0.0023    -0.0010    20.7877    41.4531     1.8945     1.1549     1.1549     0.1182    14.4503    14.5060    -0.055
    187   -42.2016     34.957    234.000 213301.000     30.000    41.5367     0.0149   -24.9958     0.0002     0.0007    25.0000    10.0000    10.0000    25.0000    25.0000    10.0000    10.0000    25.0000     0.0018    -0.0023    -0.0010    20.7878    41.4531     1.9032     1.1604     1.1604     0.1158    14.4503    14.5061    -0.055
    188   -42.4026     35.053    302.000 213301.000     30.000    41.5367     0.0149   -24.9958     0.0002     0.0007    25.0000    10.0000    10.0000    25.0000    25.0000    10.0000    10.0000    25.0000     0.0018    -0.0023    -0.0009    20.7877    41.4531     1.9119     1.1658     1.1658     0.1135    14.4503    14.5061    -0.055
    189   -42.6037     35.053    282.000 213301.000     30.000    41.5367     0.0149   -24.9958     0.0002     0.0007    25.0000    10.0000    10.0000    25.0000    25.0000    10.0000    10.0000    25.0000     0.0018    -0.0023    -0.0010    20.7877    41.4531     1.9205     1.1712     1.1712     0.1110    14.4503    14.5061    -0.055
    190   -42.8003     35.042    281.000 213301.000     30.000    41.5367     0.0149   -24.9958     0.0002     0.0007    25.0000    10.0000    10.0000    25.0000    25.0000    10.0000    10.0000    25.0000     0.0018    -0.0023    -0.0010    20.7878    41.4531     1.9290     1.1765     1.1765     0.1087    14.4503    14.5061    -0.055
    191   -42.9996     34.870    285.000 213301.000     30.000    41.5367     0.0149   -24.9958     0.0002     0.0007    25.0000    10.0000    10.0000    25.0000    25.0000    10.0000    10.0000    25.0000     0.0018    -0.0023    -0.0010    20.7877    41.4531     1.9375     1.1819     1.1818     0.1062    14.4503    14.5061    -0.055
    192   -43.1979     35.039    303.000 213301.000     30.000    41.5367     0.0149   -24.9958     0.0002     0.0007    25.0000    10.0000    10.0000    25.0000    25.0000    10.0000    10.0000    25.0000     0.0018    -0.0023    -0.0010    20.7877    41.4531     1.9461     1.1872     1.1872     0.1038    14.4503    14.5060    -0.055
    193   -43.3980     34.971    378.000 213301.000     30.000    41.5367     0.0149   -24.9958     0.0002     0.0007    25.0000    10.0000    10.0000    25.0000    25.0000    10.0000    10.0000    25.0000     0.0018    -0.0023    -0.0010    20.7878    41.4531     1.9546     1.1925     1.1925     0.1012    14.4503    14.5061    -0.055
    194   -43.5982     35.169    623.000 213301.000     30.000    41.5367     0.0149   -24.9958     0.0002     0.0007    25.0000    10.0000    10.0000    25.0000    25.0000    10.0000    10.0000    25.0000     0.0018    -0.0023    -0.0010    20.7877    41.4531     1.9632     1.1979     1.1979     0.0987    14.4503    14.5060    -0.055
    195   -43.7996     34.935   1670.000 213301.000     30.000    41.5367     0.0149   -24.9958     0.0002     0.0007    25.0000    10.0000    10.0000    25.0000    25.0000    10.0000    10.0000    25.0000     0.0018    -0.0023    -0.0009    20.7877    41.4531     1.9718     1.2033     1.2033     0.0961    14.4503    14.5060    -0.055
    196   -44.0014     35.003   6628.000 213301.000     30.000    41.5367     0.0149   -24.9958     0.0002     0.0007    25.0000    10.0000    10.0000    25.0000    25.0000    10.0000    10.0000    25.0000     0.0018    -0.0023    -0.0010    20.7877    41.4531     1.9805     1.2087     1.2087     0.0935    14.4503    14.5061    -0.055
    197   -44.2026     34.996  20916.000 213301.000     30.000    41.5367     0.0149   -24.9958     0.0002     0.0007    25.0000    10.0000    10.0000    25.0000    25.0000    10.0000    10.0000    25.0000     0.0018    -0.0023    -0.0010    20.7877    41.4531     1.9891     1.2140     1.2140     0.0909    14.4503    14.5061    -0.055
    198   -44.3955     34.781  40666.000 213301.000     30.000    41.5367     0.0149   -24.9958     0.0002     0.0007    25.0000    10.0000    10.0000    25.0000    25.0000    10.0000    10.0000    25.0000     0.0018    -0.0023    -0.0010    20.7878    41.4531     1.9973     1.2192     1.2192     0.0883    14.4503    14.5061    -0.055
    199   -44.6005     35.012  54093.000 213301.000     30.000    41.5367     0.0149   -24.9958     0.0002     0.0007    25.0000    10.0000    10.0000    25.0000    25.0000    10.0000    10.0000    25.0000     0.0018    -0.0023    -0.0010    20.7878    41.4531     2.0061     1.2246     1.2246     0.0856    14.4503    14.5060    -0.055
    200   -44.7976     34.947  47160.000 213301.000     30.000    41.5367     0.0149   -24.9958     0.0002     0.0007    25.0000    10.0000    10.0000    25.0000    25.0000    10.0000    10.0000    25.0000     0.0018    -0.0023    -0.0010    20.7878    41.4531     2.0145     1.2299     1.2299     0.0830    14.4503    14.5060    -0.055
    201   -44.9991     35.024  28529.000 213301.000     30.000    41.5367     0.0149   -24.9958     0.0002     0.0007    25.0000    10.0000    10.0000    25.0000    25.0000    10.0000    10.0000    25.0000     0.0018    -0.0023    -0.0010    20.7877    41.4531     2.0231     1.2352     1.2352     0.0802    14.4503    14.5060    -0.055
    202   -45.1988     34.888  11781.000 213301.000     30.000    41.5367     0.0149   -24.9958     0.0002     0.0007    25.0000    10.0000    10.0000    25.0000    25.0000    10.0000    10.0000    25.0000     0.0018    -0.0023    -0.0010    20.7877    41.4531     2.0316     1.2405     1.2405     0.0775    14.4503    14.5060    -0.055
    203   -45.3996     34.912   3572.000 213301.000     30.000    41.5367     0.0149   -24.9958     0.0002     0.0007    25.0000    10.0000    10.0000    25.0000    25.0000    10.0000    10.0000    25.0000     0.0018    -0.0023    -0.0009    20.7878    41.4531     2.0401     1.2458     1.2458     0.0747    14.4503    14.5061    -0.055
    204   -45.6007     34.985   1078.000 213301.000     30.000    41.5367     0.0149   -24.9958     0.0002     0.0007    25.0000    10.0000    10.0000    25.0000    25.0000    10.0000    10.0000    25.0000     0.0018    -0.0023    -0.0009    20.7877    41.4531     2.0487     1.2511     1.2511     0.0719    14.4503    14.5060    -0.055
    205   -45.8008     34.796    438.000 213301.000     30.000    41.5367     0.0149   -24.9958     0.0002     0.0007    25.0000    10.0000    10.0000    25.0000    25.0000    10.0000    10.0000    25.0000     0.0018    -0.0023    -0.0010    20.7877    41.4531     2.0572     1.2564     1.2564     0.0691    14.4503    14.5060    -0.055
    206   -46.0032     35.024    320.000 213301.000     30.000    41.5367     0.0149   -24.9958     0.0002     0.0007    25.0000    10.0000    10.0000    25.0000    25.0000    10.0000    10.0000    25.0000     0.0018    -0.0023    -0.0010    20.7877    41.4531     2.0658     1.2618     1.2617     0.0662    14.4503    14.5060    -0.055
    207   -46.1988     35.017    290.000 213301.000     30.000    41.5367     0.0149   -24.9958     0.0002     0.0007    25.0000    10.0000    10.0000    25.0000    25.0000    10.0000    10.0000    25.0000     0.0018    -0.0023    -0.0010    20.7877    41.4531     2.0741     1.2669     1.2669     0.0634    14.4503    14.5060    -0.055
    208   -46.3964     34.888    266.000 213301.000     30.000    41.5367     0.0149   -24.9958     0.0002     0.0007    25.0000    10.0000    10.0000    25.0000    25.0000    10.0000    10.0000    25.0000     0.0018    -0.0023    -0.0010    20.7878    41.4531     2.0825     1.2721     1.2721     0.0605    14.4503    14.5060    -0.055
    209   -46.5988     35.053    275.000 213301.000     30.000    41.5367     0.0149   -24.9958     0.0002     0.0007    25.0000    10.0000    10.0000    25.0000    25.0000    10.0000    10.0000    25.0000     0.0018    -0.0023    -0.0010    20.7878    41.4531     2.0911     1.2774     1.2774     0.0575    14.4503    14.5060    -0.055
    210   -46.7982     35.005    261.000 213301.000     30.000    41.5367     0.0149   -24.9958     0.0002     0.0007    25.0000    10.0000    10.0000    25.0000    25.0000    10.0000    10.0000    25.0000     0.0018    -0.0023    -0.0010    20.7877    41.4531     2.0995     1.2826     1.2826     0.0546    14.4503    14.5060    -0.055
    211   -46.9988     34.921    228.000 213301.000     30.000    41.5367     0.0149   -24.9958     0.0002     0.0007    25.0000    10.0000    10.0000    25.0000    25.0000    10.0000    10.0000    25.0000     0.0018    -0.0023    -0.0010    20.7878    41.4531     2.1080     1.2879     1.2879     0.0516    14.4503    14.5060    -0.055
    212   -47.1987     35.140    272.000 213301.000     30.000    41.5367     0.0149   -24.9958     0.0002     0.0007    25.0000    10.0000    10.0000    25.0000    25.0000    10.0000    10.0000    25.0000     0.0018    -0.0023    -0.0010    20.7878    41.4531     2.1164     1.2931     1.2931     0.0486    14.4503    14.5060    -0.055
    213   -47.4011     34.978    236.000 213301.000     30.000    41.5367     0.0149   -24.9958     0.0002     0.0007    25.0000    10.0000    10.0000    25.0000    25.0000    10.0000    10.0000    25.0000     0.0018    -0.0023    -0.0010    20.7878    41.4531     2.1250     1.2984     1.2984     0.0455    14.4503    14.5060    -0.055
    214   -47.6017     34.988    257.000 213301.000     30.000    41.5367     0.0149   -24.9958     0.0002     0.0007    25.0000    10.0000    10.0000    25.0000    25.0000    10.0000    10.0000    25.0000     0.0018    -0.0023    -0.0010    20.7877    41.4531     2.1335     1.3036     1.3036     0.0425    14.4503    14.5060    -0.055
    215   -47.8012     34.935    232.000 213301.000     30.000    41.5367     0.0149   -24.9958     0.0002     0.0007    25.0000    10.0000    10.0000    25.0000    25.0000    10.0000    10.0000    25.0000     0.0018    -0.0023    -0.0010    20.7878    41.4531     2.1419     1.3088     1.3088     0.0394    14.4503    14.5060    -0.055
    216   -47.9975     34.832    206.000 213301.000     30.000    41.5367     0.0149   -24.9958     0.0002     0.0007    25.0000    10.0000    10.0000    25.0000    25.0000    10.0000    10.0000    25.0000     0.0018    -0.0023    -0.0009    20.7878    41.4531     2.1502     1.3139     1.3139     0.0364    14.4503    14.5060    -0.055
    217   -48.1996     34.975    239.000 213301.000     30.000    41.5367     0.0149   -24.9958     0.0002     0.0007    25.0000    10.0000    10.0000    25.0000    25.0000    10.0000    10.0000    25.0000     0.0018    -0.0023    -0.0010    20.7878    41.4531     2.1587     1.3192     1.3192     0.0332    14.4503    14.5061    -0.055
    218   -48.3979     35.026    236.000 213301.000     30.000    41.5367     0.0149   -24.9958     0.0002     0.0007    25.0000    10.0000    10.0000    25.0000    25.0000    10.0000    10.0000    25.0000     0.0018    -0.0023    -0.0010    20.7878    41.4531     2.1670     1.3243     1.3243     0.0301    14.4503    14.5060    -0.055
    219   -48.5998     35.088    247.000 213301.000     30.000    41.5367     0.0149   -24.9958     0.0002     0.0007    25.0000    10.0000    10.0000    25.0000    25.0000    10.0000    10.0000    25.0000     0.0018    -0.0023    -0.0010    20.7877    41.4531     2.1755     1.3296     1.3295     0.0268    14.4503    14.5060    -0.055
    220   -48.8008     34.964    222.000 213301.000     30.000    41.5367     0.0149   -24.9958     0.0002     0.0007    25.0000    10.0000    10.0000    25.0000    25.0000    10.0000    10.0000    25.0000     0.0018    -0.0023    -0.0010    20.7878    41.4531     2.1840     1.3347     1.3347     0.0236    14.4503    14.5060    -0.055
    221   -49.0039     34.832    232.000 213301.000     30.000    41.5367     0.0149   -24.9958     0.0002     0.0007    25.0000    10.0000    10.0000    25.0000    25.0000    10.0000    10.0000    25.0000     0.0018    -0.0023    -0.0010    20.7878    41.4531     2.1925     1.3400     1.3400     0.0203    14.4503    14.5060    -0.055
    222   -49.2039     35.031    236.000 213301.000     30.000    41.5367     0.0149   -24.9958     0.0002     0.0007    25.0000    10.0000    10.0000    25.0000    25.0000    10.0000    10.0000    25.0000     0.0018    -0.0023    -0.0010    20.7878    41.4531     2.2009     1.3451     1.3451     0.0171    14.4503    14.5060    -0.055
    223   -49.4025     34.909    204.000 213301.000     30.000    41.5367     0.0149   -24.9958     0.0002     0.0007    25.0000    10.0000    10.0000    25.0000    25.0000    10.0000    10.0000    25.0000     0.0018    -0.0023    -0.0010    20.7878    41.4531     2.2092     1.3502     1.3502     0.0138    14.4503    14.5060    -0.055
    224   -49.5983     34.929    239.000 213301.000     30.000    41.5367     0.0149   -24.9958     0.0002     0.0007    25.0000    10.0000    10.0000    25.0000    25.0000    10.0000    10.0000    25.0000     0.0018    -0.0023    -0.0010    20.7878    41.4531     2.2174     1.3553     1.3553     0.0106    14.4503    14.5060    -0.055
    225   -49.7976     34.843    224.000 213301.000     30.000    41.5367     0.0149   -24.9958     0.0002     0.0007    25.0000    10.0000    10.0000    25.0000    25.0000    10.0000    10.0000    25.0000     0.0018    -0.0023    -0.0010    20.7878    41.4531     2.2258     1.3604     1.3604     0.0072    14.4503    14.5060    -0.055
    226   -49.9977     35.028    253.000 213301.000     30.000    41.5367     0.0149   -24.9958     0.0002     0.0007    25.0000    10.0000    10.0000    25.0000    25.0000    10.0000    10.0000    25.0000     0.0018    -0.0023    -0.0010    20.7878    41.4531     2.2341     1.3655     1.3655     0.0039    14.4503    14.5061    -0.055
    227   -50.1986     35.089    247.000 213301.000     30.000    41.5367     0.0149   -24.9958     0.0002     0.0007    25.0000    10.0000    10.0000    25.0000    25.0000    10.0000    10.0000    25.0000     0.0018    -0.0023    -0.0010    20.7878    41.4531     2.2425     1.3706     1.3706     0.0005    14.4503    14.5060    -0.055
    228   -50.4005     34.900    232.000 213301.000     30.000    41.5367     0.0149   -24.9958     0.0002     0.0007    25.0000    10.0000    10.0000    25.0000    25.0000    10.0000    10.0000    25.0000     0.0018    -0.0023    -0.0010    20.7878    41.4531     2.2510     1.3758     1.3758    -0.0030    14.4503    14.5061    -0.055
    229   -50.6026     34.908    223.000 213301.000     30.000    41.5367     0.0149   -24.9958     0.0002     0.0007    25.0000    10.0000    10.0000    25.0000    25.0000    10.0000    10.0000    25.0000     0.0018    -0.0023    -0.0010    20.7878    41.4531     2.2594     1.3809     1.3809    -0.0064    14.4503    14.5061    -0.055
    230   -50.8027     35.038    229.000 213301.000     30.000    41.5367     0.0149   -24.9958     0.0002     0.0007    25.0000    10.0000    10.0000    25.0000    25.0000    10.0000    10.0000    25.0000     0.0018    -0.0023    -0.0010    20.7878    41.4531     2.2677     1.3860     1.3860    -0.0099    14.4503    14.5060    -0.055
    231   -51.0024     34.780    238.000 213301.000     30.000    41.5367     0.0149   -24.9958     0.0002     0.0007    25.0000    10.0000    10.0000    25.0000    25.0000    10.0000    10.0000    25.0000     0.0018    -0.0023    -0.0010    20.7878    41.4531     2.2761     1.3911     1.3911    -0.0134    14.4503    14.5060    -0.055
    232   -51.1999     34.899    218.000 213301.000     30.000    41.5367     0.0149   -24.9958     0.0002     0.0007    25.0000    10.0000    10.0000    25.0000    25.0000    10.0000    10.0000    25.0000     0.0018    -0.0023    -0.0010    20.7878    41.4531     2.2843     1.3961     1.3961    -0.0169    14.4503    14.5061    -0.055
    233   -51.3997     34.907    262.000 213301.000     30.000    41.5367     0.0149   -24.9958     0.0002     0.0007    25.0000    10.0000    10.0000    25.0000    25.0000    10.0000    10.0000    25.0000     0.0018    -0.0023    -0.0010    20.7878    41.4531     2.2926     1.4012     1.4012    -0.0204    14.4503    14.5061    -0.055
    234   -51.5979     34.958    248.000 213301.000     30.000    41.5367     0.0149   -24.9958     0.0002     0.0007    25.0000    10.0000    10.0000    25.0000    25.0000    10.0000    10.0000    25.0000     0.0018    -0.0023    -0.0010    20.7878    41.4531     2.3008     1.4062     1.4062    -0.0239    14.4503    14.5061    -0.055
    235   -51.8005     34.923    231.000 213301.000     30.000    41.5367     0.0149   -24.9958     0.0002     0.0007    25.0000    10.0000    10.0000    25.0000    25.0000    10.0000    10.0000    25.0000     0.0018    -0.0023    -0.0010    20.7878    41.4531     2.3092     1.4113     1.4113    -0.0275    14.4503    14.5061    -0.055
    236   -51.9991     34.930    230.000 213301.000     30.000    41.5367     0.0149   -24.9958     0.0002     0.0007    25.0000    10.0000    10.0000    25.0000    25.0000    10.0000    10.0000    25.0000     0.0018    -0.0023    -0.0010    20.7878    41.4531     2.3175     1.4163     1.4163    -0.0311    14.4503    14.5060    -0.055
    237   -52.2005     34.953    249.000 213301.000     30.000    41.5367     0.0149   -24.9958     0.0002     0.0007    25.0000    10.0000    10.0000    25.0000    25.0000    10.0000    10.0000    25.0000     0.0018    -0.0023    -0.0010    20.7878    41.4531     2.3258     1.4213     1.4213    -0.0348    14.4503    14.5061    -0.055
    238   -52.4017     34.923    260.000 213301.000     30.000    41.5367     0.0149   -24.9958     0.0002     0.0007    25.0000    10.0000    10.0000    25.0000    25.0000    10.0000    10.0000    25.0000     0.0018    -0.0023    -0.0010    20.7878    41.4531     2.3342     1.4264     1.4264    -0.0385    14.4503    14.5061    -0.055
    239   -52.6021     34.752    239.000 213301.000     30.000    41.5367     0.0149   -24.9958     0.0002     0.0007    25.0000    10.0000    10.0000    25.0000    25.0000    10.0000    10.0000    25.0000     0.0018    -0.0023    -0.0010    20.7878    41.4531     2.3424     1.4314     1.4314    -0.0422    14.4503    14.5061    -0.055
    240   -52.7992     34.961    225.000 213301.000     30.000    41.5367     0.0149   -24.9958     0.0002     0.0007    25.0000    10.0000    10.0000    25.0000    25.0000    10.0000    10.0000    25.0000     0.0018    -0.0023    -0.0010    20.7877    41.4531     2.3506     1.4363     1.4363    -0.0458    14.4503    14.5061    -0.055
    241   -52.9973     35.019    248.000 213301.000     30.000    41.5367     0.0149   -24.9958     0.0002     0.0007    25.0000    10.0000    10.0000    25.0000    25.0000    10.0000    10.0000    25.0000     0.0018    -0.0023    -0.0010    20.7877    41.4531     2.3588     1.4413     1.4413    -0.0495    14.4503    14.5061    -0.055
    242   -53.1973     35.130    247.000 213301.000     30.000    41.5367     0.0149   -24.9958     0.0002     0.0007    25.0000    10.0000    10.0000    25.0000    25.0000    10.0000    10.0000    25.0000     0.0018    -0.0023    -0.0010    20.7878    41.4530     2.3670     1.4462     1.4462    -0.0533    14.4503    14.5061    -0.055
    243   -53.3990     34.911    213.000 213301.000     30.000    41.5367     0.0149   -24.9958     0.0002     0.0007    25.0000    10.0000    10.0000    25.0000    25.0000    10.0000    10.0000    25.0000     0.0018    -0.0023    -0.0010    20.7878    41.4531     2.3753     1.4513     1.4512    -0.0571    14.4503    14.5061    -0.055
    244   -53.5991     34.914    223.000 213301.000     30.000    41.5367     0.0149   -24.9958     0.0002     0.0007    25.0000    10.0000    10.0000    25.0000    25.0000    10.0000    10.0000    25.0000     0.0018    -0.0023    -0.0010    20.7878    41.4531     2.3836     1.4562     1.4562    -0.0609    14.4503    14.5061    -0.055
    245   -53.8004     34.755    262.000 213301.000     30.000    41.5367     0.0149   -24.9958     0.0002     0.0007    25.0000    10.0000    10.0000    25.0000    25.0000    10.0000    10.0000    25.0000     0.0018    -0.0023    -0.0010    20.7878    41.4531     2.3919     1.4612     1.4612    -0.0648    14.4503    14.5061    -0.055
    246   -54.0020     35.065    247.000 213301.000     30.000    41.5367     0.0149   -24.9958     0.0002     0.0007    25.0000    10.0000    10.0000    25.0000    25.0000    10.0000    10.0000    25.0000     0.0018    -0.0023    -0.0010    20.7878    41.4531     2.4002     1.4662     1.4662    -0.0687    14.4503    14.5061    -0.055
    247   -54.2012     34.977    215.000 213301.000     30.000    41.5367     0.0149   -24.9958     0.0002     0.0007    25.0000    10.0000    10.0000    25.0000    25.0000    10.0000    10.0000    25.0000     0.0018    -0.0023    -0.0010    20.7878    41.4531     2.4084     1.4711     1.4711    -0.0725    14.4503    14.5061    -0.055
    248   -54.3991     34.883    256.000 213301.000     30.000    41.5367     0.0149   -24.9958     0.0002     0.0007    25.0000    10.0000    10.0000    25.0000    25.0000    10.0000    10.0000    25.0000     0.0018    -0.0023    -0.0010    20.7878    41.4530     2.4165     1.4760     1.4760    -0.0764    14.4503    14.5061    -0.055
    249   -54.5977     34.898    219.000 213301.000     30.000    41.5367     0.0149   -24.9958     0.0002     0.0007    25.0000    10.0000    10.0000    25.0000    25.0000    10.0000    10.0000    25.0000     0.0018    -0.0023    -0.0010    20.7878    41.4531     2.4246     1.4809     1.4808    -0.0803    14.4503    14.5061    -0.055
    250   -54.7977     35.097    220.000 213301.000     30.000    41.5367     0.0149   -24.9958     0.0002     0.0007    25.0000    10.0000    10.0000    25.0000    25.0000    10.0000    10.0000    25.0000     0.0018    -0.0023    -0.0010    20.7878    41.4531     2.4328     1.4858     1.4857    -0.0843    14.4503    14.5061    -0.055
    251   -54.9993     35.049    225.000 213301.000     30.000    41.5367     0.0149   -24.9958     0.0002     0.0007    25.0000    10.0000    10.0000    25.0000    25.0000    10.0000    10.0000    25.0000     0.0018    -0.0023    -0.0010    20.7878    41.4531     2.4411     1.4907     1.4907    -0.0883    14.4503    14.5061    -0.055
    252   -55.2012     34.992    224.000 213301.000     30.000    41.5367     0.0149   -24.9958     0.0002     0.0007    25.0000    10.0000    10.0000    25.0000    25.0000    10.0000    10.0000    25.0000     0.0018    -0.0023    -0.0010    20.7878    41.4531     2.4493     1.4956     1.4956    -0.0923    14.4503    14.5061    -0.055
    253   -55.4024     34.955    246.000 213301.000     30.000    41.5367     0.0149   -24.9958     0.0002     0.0007    25.0000    10.0000    10.0000    25.0000    25.0000    10.0000    10.0000    25.0000     0.0018    -0.0023    -0.0010    20.7878    41.4531     2.4575     1.5005     1.5005    -0.0964    14.4503    14.5061    -0.055
    254   -55.5999     34.906    210.000 213301.000     30.000    41.5367     0.0149   -24.9958     0.0002     0.0007    25.0000    10.0000    10.0000    25.0000    25.0000    10.0000    10.0000    25.0000     0.0018    -0.0023    -0.0010    20.7878    41.4530     2.4656     1.5053     1.5053    -0.1004    14.4503    14.5061    -0.055
    255   -55.8029     34.882    228.000 213301.000     30.000    41.5367     0.0149   -24.9958     0.0002     0.0007    25.0000    10.0000    10.0000    25.0000    25.0000    10.0000    10.0000    25.0000     0.0018    -0.0023    -0.0010    20.7878    41.4531     2.4739     1.5102     1.5102    -0.1045    14.4503    14.5061    -0.055
    256   -56.0030     34.859    220.000 213301.000     30.000    41.5367     0.0149   -24.9958     0.0002     0.0007    25.0000    10.0000    10.0000    25.0000    25.0000    10.0000    10.0000    25.0000     0.0018    -0.0023    -0.0010    20.7878    41.4531     2.4820     1.5151     1.5151    -0.1086    14.4503    14.5061    -0.055
    257   -56.1972     34.856    239.000 213301.000     30.000    41.5367     0.0149   -24.9958     0.0002     0.0007    25.0000    10.0000    10.0000    25.0000    25.0000    10.0000    10.0000    25.0000     0.0018    -0.0023    -0.0010    20.7878    41.4531     2.4900     1.5198     1.5198    -0.1126    14.4503    14.5061    -0.055
    258   -56.3969     34.867    229.000 213301.000     30.000    41.5367     0.0149   -24.9958     0.0002     0.0007    25.0000    10.0000    10.0000    25.0000    25.0000    10.0000    10.0000    25.0000     0.0018    -0.0023    -0.0010    20.7878    41.4531     2.4981     1.5246     1.5246    -0.1168    14.4503    14.5060    -0.055
    259   -56.5988     34.898    246.000 213301.000     30.000    41.5367     0.0149   -24.9958     0.0002     0.0007    25.0000    10.0000    10.0000    25.0000    25.0000    10.0000    10.0000    25.0000     0.0018    -0.0023    -0.0010    20.7878    41.4531     2.5063     1.5295     1.5295    -0.1210    14.4503    14.5061    -0.055
    260   -56.7975     34.977    251.000 213301.000     30.000    41.5367     0.0149   -24.9958     0.0002     0.0007    25.0000    10.0000    10.0000    25.0000    25.0000    10.0000    10.0000    25.0000     0.0018    -0.0023    -0.0010    20.7878    41.4531     2.5144     1.5342     1.5342    -0.1251    14.4503    14.5061    -0.055
    261   -56.9996     34.988    249.000 213301.000     30.000    41.5367     0.0149   -24.9958     0.0002     0.0007    25.0000    10.0000    10.0000    25.0000    25.0000    10.0000    10.0000    25.0000     0.0018    -0.0023    -0.0010    20.7878    41.4531     2.5226     1.5391     1.5391    -0.1294    14.4503    14.5061    -0.055
    262   -57.2033     35.097    228.000 213301.000     30.000    41.5367     0.0149   -24.9958     0.0002     0.0007    25.0000    10.0000    10.0000    25.0000    25.0000    10.0000    10.0000    25.0000     0.0018    -0.0023    -0.0010    20.7878    41.4531     2.5308     1.5439     1.5439    -0.1337    14.4503    14.5061    -0.055
    263   -57.4038     34.998    217.000 213301.000     30.000    41.5367     0.0149   -24.9958     0.0002     0.0007    25.0000    10.0000    10.0000    25.0000    25.0000    10.0000    10.0000    25.0000     0.0018    -0.0023    -0.0010    20.7878    41.4531     2.5389     1.5487     1.5487    -0.1380    14.4503    14.5061    -0.055
    264   -57.6003     34.794    240.000 213301.000     30.000    41.5367     0.0149   -24.9958     0.0002     0.0007    25.0000    10.0000    10.0000    25.0000    25.0000    10.0000    10.0000    25.0000     0.0018    -0.0023    -0.0009    20.7878    41.4531     2.5469     1.5534     1.5534    -0.1422    14.4503    14.5061    -0.055
    265   -57.8003     34.866    236.000 213301.000     30.000    41.5367     0.0149   -24.9958     0.0002     0.0007    25.0000    10.0000    10.0000    25.0000    25.0000    10.0000    10.0000    25.0000     0.0018    -0.0023    -0.0009    20.7878    41.4531     2.5549     1.5582     1.5581    -0.1465    14.4503    14.5061    -0.055
    266   -57.9989     34.791    230.000 213301.000     30.000    41.5367     0.0149   -24.9958     0.0002     0.0007    25.0000    10.0000    10.0000    25.0000    25.0000    10.0000    10.0000    25.0000     0.0018    -0.0023    -0.0010    20.7878    41.4531     2.5630     1.5629     1.5628    -0.1508    14.4503    14.5061    -0.055
    267   -58.1986     34.987    234.000 213301.000     30.000    41.5367     0.0149   -24.9958     0.0002     0.0007    25.0000    10.0000    10.0000    25.0000    25.0000    10.0000    10.0000    25.0000     0.0018    -0.0023    -0.0009    20.7878    41.4531     2.5710     1.5676     1.5676    -0.1552    14.4503    14.5061    -0.055
    268   -58.3992     34.933    256.000 213301.000     30.000    41.5367     0.0149   -24.9958     0.0002     0.0007    25.0000    10.0000    10.0000    25.0000    25.0000    10.0000    10.0000    25.0000     0.0018    -0.0023    -0.0010    20.7878    41.4531     2.5791     1.5723     1.5723    -0.1596    14.4503    14.5061    -0.055
    269   -58.5994     34.864    209.000 213301.000     30.000    41.5367     0.0149   -24.9958     0.0002     0.0007    25.0000    10.0000    10.0000    25.0000    25.0000    10.0000    10.0000    25.0000     0.0018    -0.0023    -0.0010    20.7878    41.4531     2.5872     1.5770     1.5770    -0.1640    14.4503    14.5061    -0.055
    270   -58.8006     35.089    254.000 213301.000     30.000    41.5367     0.0149   -24.9958     0.0002     0.0007    25.0000    10.0000    10.0000    25.0000    25.0000    10.0000    10.0000    25.0000     0.0018    -0.0023    -0.0010    20.7878    41.4531     2.5953     1.5818     1.5817    -0.1685    14.4503    14.5061    -0.055
    271   -59.0022     34.811    240.000 213301.000     30.000    41.5367     0.0149   -24.9958     0.0002     0.0007    25.0000    10.0000    10.0000    25.0000    25.0000    10.0000    10.0000    25.0000     0.0018    -0.0023    -0.0010    20.7878    41.4531     2.6034     1.5865     1.5865    -0.1729    14.4503    14.5061    -0.055
    272   -59.2011     34.744    215.000 213301.000     30.000    41.5367     0.0149   -24.9958     0.0002     0.0007    25.0000    10.0000    10.0000    25.0000    25.0000    10.0000    10.0000    25.0000     0.0018    -0.0023    -0.0010    20.7878    41.4531     2.6113     1.5911     1.5911    -0.1774    14.4503    14.5061    -0.055
    273   -59.3975     34.800    207.000 213301.000     30.000    41.5367     0.0149   -24.9958     0.0002     0.0007    25.0000    10.0000    10.0000    25.0000    25.0000    10.0000    10.0000    25.0000     0.0018    -0.0023    -0.0010    20.7878    41.4531     2.6192     1.5957     1.5957    -0.1818    14.4503    14.5061    -0.055
    274   -59.5994     34.875    225.000 213301.000     30.000    41.5367     0.0149   -24.9958     0.0002     0.0007    25.0000    10.0000    10.0000    25.0000    25.0000    10.0000    10.0000    25.0000     0.0018    -0.0023    -0.0010    20.7878    41.4531     2.6273     1.6004     1.6004    -0.1864    14.4503    14.5061    -0.055
    275   -59.7976     34.946    244.000 213301.000     30.000    41.5367     0.0149   -24.9958     0.0002     0.0007    25.0000    10.0000    10.0000    25.0000    25.0000    10.0000    10.0000    25.0000     0.0018    -0.0023    -0.0009    20.7878    41.4531     2.6352     1.6050     1.6050    -0.1909    14.4503    14.5061    -0.055
    276   -59.9993     34.899    238.000 213301.000     30.000    41.5367     0.0149   -24.9958     0.0002     0.0007    25.0000    10.0000    10.0000    25.0000    25.0000    10.0000    10.0000    25.0000     0.0018    -0.0023    -0.0009    20.7877    41.4531     2.6433     1.6097     1.6097    -0.1955    14.4503    14.5060    -0.055
    277   -60.1977     34.794    259.000 213301.000     30.000    41.5367     0.0149   -24.9958     0.0002     0.0007    25.0000    10.0000    10.0000    25.0000    25.0000    10.0000    10.0000    25.0000     0.0018    -0.0023    -0.0010    20.7877    41.4531     2.6512     1.6142     1.6142    -0.2000    14.4503    14.5061    -0.055
    278   -60.4015     34.827    414.000 213301.000     30.000    41.5367     0.0149   -24.9958     0.0002     0.0007    25.0000    10.0000    10.0000    25.0000    25.0000    10.0000    10.0000    25.0000     0.0018    -0.0023    -0.0010    20.7877    41.4531     2.6593     1.6189     1.6189    -0.2047    14.4503    14.5061    -0.055
    279   -60.6021     35.024    657.000 213301.000     30.000    41.5367     0.0149   -24.9958     0.0002     0.0007    25.0000    10.0000    10.0000    25.0000    25.0000    10.0000    10.0000    25.0000     0.0018    -0.0023    -0.0010    20.7878    41.4531     2.6673     1.6236     1.6235    -0.2094    14.4503    14.5061    -0.055
    280   -60.8007     34.959    990.000 213301.000     30.000    41.5367     0.0149   -24.9958     0.0002     0.0007    25.0000    10.0000    10.0000    25.0000    25.0000    10.0000    10.0000    25.0000     0.0018    -0.0023    -0.0010    20.7878    41.4531     2.6752     1.6281     1.6281    -0.2140    14.4503    14.5061    -0.055
    281   -60.9996     34.917   1341.000 213301.000     30.000    41.5367     0.0149   -24.9958     0.0002     0.0007    25.0000    10.0000    10.0000    25.0000    25.0000    10.0000    10.0000    25.0000     0.0018    -0.0023    -0.0010    20.7877    41.4531     2.6832     1.6327     1.6326    -0.2187    14.4503    14.5061    -0.055
    282   -61.1982     34.815   1402.000 213301.000     30.000    41.5367     0.0149   -24.9958     0.0002     0.0007    25.0000    10.0000    10.0000    25.0000    25.0000    10.0000    10.0000    25.0000     0.0018    -0.0023    -0.0010    20.7877    41.4531     2.6910     1.6372     1.6372    -0.2233    14.4503    14.5061    -0.055
    283   -61.3980     34.868   1238.000 213301.000     30.000    41.5367     0.0149   -24.9958     0.0002     0.0007    25.0000    10.0000    10.0000    25.0000    25.0000    10.0000    10.0000    25.0000     0.0018    -0.0023    -0.0010    20.7877    41.4531     2.6990     1.6417     1.6417    -0.2281    14.4503    14.5061    -0.055
    284   -61.5999     34.816   1031.000 213301.000     30.000    41.5367     0.0149   -24.9958     0.0002     0.0007    25.0000    10.0000    10.0000    25.0000    25.0000    10.0000    10.0000    25.0000     0.0018    -0.0023    -0.0010    20.7877    41.4531     2.7070     1.6463     1.6463    -0.2329    14.4503    14.5061    -0.055
    285   -61.8013     34.959    696.000 213301.000     30.000    41.5367     0.0149   -24.9958     0.0002     0.0007    25.0000    10.0000    10.0000    25.0000    25.0000    10.0000    10.0000    25.0000     0.0018    -0.0023    -0.0009    20.7877    41.4531     2.7150     1.6509     1.6508    -0.2377    14.4503    14.5061    -0.055
    286   -62.0036     35.032    465.000 213301.000     30.000    41.5367     0.0149   -24.9958     0.0002     0.0007    25.0000    10.0000    10.0000    25.0000    25.0000    10.0000    10.0000    25.0000     0.0018    -0.0023    -0.0010    20.7877    41.4531     2.7230     1.6554     1.6554    -0.2425    14.4503    14.5061    -0.055
    287   -62.2026     34.886    331.000 213301.000     30.000    41.5367     0.0149   -24.9958     0.0002     0.0007    25.0000    10.0000    10.0000    25.0000    25.0000    10.0000    10.0000    25.0000     0.0018    -0.0023    -0.0009    20.7877    41.4530     2.7308     1.6599     1.6599    -0.2473    14.4503    14.5061    -0.055
    288   -62.3993     34.824    264.000 213301.000     30.000    41.5367     0.0149   -24.9958     0.0002     0.0007    25.0000    10.0000    10.0000    25.0000    25.0000    10.0000    10.0000    25.0000     0.0018    -0.0023    -0.0010    20.7877    41.4530     2.7386     1.6643     1.6643    -0.2521    14.4503    14.5061    -0.055
    289   -62.6011     34.799    232.000 213301.000     30.000    41.5367     0.0149   -24.9958     0.0002     0.0007    25.0000    10.0000    10.0000    25.0000    25.0000    10.0000    10.0000    25.0000     0.0019    -0.0023    -0.0010    20.7877    41.4531     2.7466     1.6688     1.6688    -0.2570    14.4503    14.5061    -0.055
    290   -62.8003     35.013    241.000 213301.000     30.000    41.5367     0.0149   -24.9958     0.0002     0.0007    25.0000    10.0000    10.0000    25.0000    25.0000    10.0000    10.0000    25.0000     0.0018    -0.0023    -0.0010    20.7877    41.4530     2.7544     1.6733     1.6733    -0.2618    14.4503    14.5061    -0.055
    291   -62.9971     34.905    226.000 213301.000     30.000    41.5367     0.0149   -24.9958     0.0002     0.0007    25.0000    10.0000    10.0000    25.0000    25.0000    10.0000    10.0000    25.0000     0.0018    -0.0023    -0.0010    20.7877    41.4530     2.7621     1.6777     1.6777    -0.2667    14.4503    14.5061    -0.055
    292   -63.1981     34.863    222.000 213301.000     30.000    41.5367     0.0149   -24.9958     0.0002     0.0007    25.0000    10.0000    10.0000    25.0000    25.0000    10.0000    10.0000    25.0000     0.0018    -0.0023    -0.0010    20.7877    41.4531     2.7700     1.6821     1.6821    -0.2716    14.4503    14.5061    -0.055
    293   -63.3985     34.934    266.000 213301.000     30.000    41.5367     0.0149   -24.9958     0.0002     0.0007    25.0000    10.0000    10.0000    25.0000    25.0000    10.0000    10.0000    25.0000     0.0018    -0.0023    -0.0010    20.7877    41.4530     2.7779     1.6866     1.6866    -0.2766    14.4503    14.5061    -0.055
    294   -63.5996     34.948    292.000 213301.000     30.000    41.5367     0.0149   -24.9958     0.0002     0.0007    25.0000    10.0000    10.0000    25.0000    25.0000    10.0000    10.0000    25.0000     0.0018    -0.0023    -0.0009    20.7877    41.4530     2.7858     1.6910     1.6910    -0.2816    14.4503    14.5061    -0.055
    295   -63.8025     34.866    330.000 213301.000     30.000    41.5367     0.0149   -24.9958     0.0002     0.0007    25.0000    10.0000    10.0000    25.0000    25.0000    10.0000    10.0000    25.0000     0.0018    -0.0023    -0.0010    20.7877    41.4531     2.7938     1.6955     1.6955    -0.2866    14.4503    14.5061    -0.055
    296   -63.9958     34.865    321.000 213301.000     30.000    41.5367     0.0149   -24.9958     0.0002     0.0007    25.0000    10.0000    10.0000    25.0000    25.0000    10.0000    10.0000    25.0000     0.0018    -0.0023    -0.0010    20.7877    41.4531     2.8013     1.6997     1.6997    -0.2915    14.4503    14.5061    -0.055
    297   -64.2001     34.853    313.000 213301.000     30.000    41.5367     0.0149   -24.9958     0.0002     0.0007    25.0000    10.0000    10.0000    25.0000    25.0000    10.0000    10.0000    25.0000     0.0018    -0.0023    -0.0009    20.7877    41.4530     2.8093     1.7042     1.7042    -0.2966    14.4503    14.5061    -0.055
    298   -64.3982     34.886    306.000 213301.000     30.000    41.5367     0.0149   -24.9958     0.0002     0.0007    25.0000    10.0000    10.0000    25.0000    25.0000    10.0000    10.0000    25.0000     0.0018    -0.0023    -0.0010    20.7877    41.4531     2.8171     1.7085     1.7085    -0.3016    14.4503    14.5061    -0.055
    299   -64.5978     34.974    331.000 213301.000     30.000    41.5367     0.0149   -24.9958     0.0002     0.0007    25.0000    10.0000    10.0000    25.0000    25.0000    10.0000    10.0000    25.0000     0.0018    -0.0023    -0.0009    20.7877    41.4530     2.8248     1.7129     1.7129    -0.3067    14.4503    14.5061    -0.055
    300   -64.7999     34.841    347.000 213301.000     30.000    41.5367     0.0149   -24.9958     0.0002     0.0007    25.0000    10.0000    10.0000    25.0000    25.0000    10.0000    10.0000    25.0000     0.0018    -0.0023    -0.0009    20.7877    41.4530     2.8327     1.7173     1.7173    -0.3118    14.4503    14.5061    -0.055
    301   -64.9985     34.984    288.000 213301.000     30.000    41.5367     0.0149   -24.9958     0.0002     0.0007    25.0000    10.0000    10.0000    25.0000    25.0000    10.0000    10.0000    25.0000     0.0018    -0.0023    -0.0010    20.7877    41.4530     2.8405     1.7216     1.7216    -0.3169    14.4503    14.5061    -0.055
    302   -65.1994     34.792    230.000 213301.000     30.000    41.5367     0.0149   -24.9958     0.0002     0.0007    25.0000    10.0000    10.0000    25.0000    25.0000    10.0000    10.0000    25.0000     0.0018    -0.0023    -0.0010    20.7877    41.4531     2.8483     1.7259     1.7259    -0.3221    14.4503    14.5061    -0.055
    303   -65.4011     34.946    240.000 213301.000     30.000    41.5367     0.0149   -24.9958     0.0002     0.0007    25.0000    10.0000    10.0000    25.0000    25.0000    10.0000    10.0000    25.0000     0.0018    -0.0023    -0.0010    20.7877    41.4530     2.8561     1.7303     1.7302    -0.3273    14.4503    14.5061    -0.055
    304   -65.6027     34.959    213.000 213301.000     30.000    41.5367     0.0149   -24.9958     0.0002     0.0007    25.0000    10.0000    10.0000    25.0000    25.0000    10.0000    10.0000    25.0000     0.0018    -0.0023    -0.0010    20.7877    41.4530     2.8639     1.7346     1.7346    -0.3325    14.4503    14.5061    -0.055
    305   -65.7994     34.754    177.000 213301.000     30.000    41.5367     0.0149   -24.9958     0.0002     0.0007    25.0000    10.0000    10.0000    25.0000    25.0000    10.0000    10.0000    25.0000     0.0018    -0.0023    -0.0010    20.7877    41.4530     2.8715     1.7388     1.7388    -0.3377    14.4503    14.5061    -0.055
    306   -65.9971     34.812    233.000 213301.000     30.000    41.5367     0.0149   -24.9958     0.0002     0.0007    25.0000    10.0000    10.0000    25.0000    25.0000    10.0000    10.0000    25.0000     0.0018    -0.0023    -0.0010    20.7876    41.4530     2.8792     1.7430     1.7430    -0.3428    14.4503    14.5061    -0.055
    307   -66.1971     34.843    239.000 213301.000     30.000    41.5367     0.0149   -24.9958     0.0002     0.0007    25.0000    10.0000    10.0000    25.0000    25.0000    10.0000    10.0000    25.0000     0.0018    -0.0023    -0.0009    20.7877    41.4530     2.8869     1.7473     1.7472    -0.3481    14.4503    14.5061    -0.055
    308   -66.3981     34.899    236.000 213301.000     30.000    41.5367     0.0149   -24.9958     0.0002     0.0007    25.0000    10.0000    10.0000    25.0000    25.0000    10.0000    10.0000    25.0000     0.0018    -0.0023    -0.0010    20.7877    41.4531     2.8947     1.7515     1.7515    -0.3534    14.4503    14.5061    -0.055
    309   -66.5988     34.810    248.000 213301.000     30.000    41.5367     0.0149   -24.9958     0.0002     0.0007    25.0000    10.0000    10.0000    25.0000    25.0000    10.0000    10.0000    25.0000     0.0018    -0.0023    -0.0010    20.7876    41.4531     2.9024     1.7558     1.7557    -0.3587    14.4503    14.5061    -0.055
    310   -66.7989     34.865    275.000 213301.000     30.000    41.5367     0.0149   -24.9958     0.0002     0.0007    25.0000    10.0000    10.0000    25.0000    25.0000    10.0000    10.0000    25.0000     0.0018    -0.0023    -0.0010    20.7876    41.4531     2.9101     1.7600     1.7600    -0.3640    14.4503    14.5061    -0.055
    311   -67.0014     34.720    297.000 213301.000     30.000    41.5367     0.0149   -24.9958     0.0002     0.0007    25.0000    10.0000    10.0000    25.0000    25.0000    10.0000    10.0000    25.0000     0.0018    -0.0023    -0.0010    20.7876    41.4530     2.9179     1.7642     1.7642    -0.3694    14.4503    14.5061    -0.055
    312   -67.2015     34.923    267.000 213301.000     30.000    41.5367     0.0149   -24.9958     0.0002     0.0007    25.0000    10.0000    10.0000    25.0000    25.0000    10.0000    10.0000    25.0000     0.0018    -0.0023    -0.0010    20.7877    41.4530     2.9256     1.7684     1.7684    -0.3747    14.4503    14.5061    -0.055
    313   -67.4008     34.842    270.000 213301.000     30.000    41.5367     0.0149   -24.9958     0.0002     0.0007    25.0000    10.0000    10.0000    25.0000    25.0000    10.0000    10.0000    25.0000     0.0018    -0.0023    -0.0010    20.7876    41.4530     2.9333     1.7726     1.7726    -0.3801    14.4503    14.5061    -0.055
    314   -67.5980     34.916    244.000 213301.000     30.000    41.5367     0.0149   -24.9958     0.0002     0.0007    25.0000    10.0000    10.0000    25.0000    25.0000    10.0000    10.0000    25.0000     0.0018    -0.0023    -0.0010    20.7877    41.4531     2.9409     1.7767     1.7767    -0.3854    14.4503    14.5061    -0.055
    315   -67.7968     34.809    245.000 213301.000     30.000    41.5367     0.0149   -24.9958     0.0002     0.0007    25.0000    10.0000    10.0000    25.0000    25.0000    10.0000    10.0000    25.0000     0.0018    -0.0023    -0.0010    20.7877    41.4530     2.9485     1.7808     1.7808    -0.3908    14.4503    14.5061    -0.055
    316   -67.9980     34.855    238.000 213301.000     30.000    41.5367     0.0149   -24.9958     0.0002     0.0007    25.0000    10.0000    10.0000    25.0000    25.0000    10.0000    10.0000    25.0000     0.0018    -0.0023    -0.0009    20.7876    41.4531     2.9562     1.7850     1.7850    -0.3963    14.4503    14.5061    -0.055
    317   -68.1990     34.830    231.000 213301.000     30.000    41.5367     0.0149   -24.9958     0.0002     0.0007    25.0000    10.0000    10.0000    25.0000    25.0000    10.0000    10.0000    25.0000     0.0018    -0.0023    -0.0010    20.7876    41.4531     2.9639     1.7891     1.7891    -0.4017    14.4503    14.5061    -0.055
    318   -68.4004     34.967    246.000 213301.000     30.000    41.5367     0.0149   -24.9958     0.0002     0.0007    25.0000    10.0000    10.0000    25.0000    25.0000    10.0000    10.0000    25.0000     0.0018    -0.0023    -0.0009    20.7876    41.4531     2.9715     1.7932     1.7932    -0.4073    14.4503    14.5061    -0.055
    319   -68.6024     34.864    252.000 213301.000     30.000    41.5367     0.0149   -24.9958     0.0002     0.0007    25.0000    10.0000    10.0000    25.0000    25.0000    10.0000    10.0000    25.0000     0.0018    -0.0023    -0.0010    20.7876    41.4531     2.9792     1.7974     1.7974    -0.4128    14.4503    14.5061    -0.055
    320   -68.7997     34.954    264.000 213301.000     30.000    41.5367     0.0149   -24.9958     0.0002     0.0007    25.0000    10.0000    10.0000    25.0000    25.0000    10.0000    10.0000    25.0000     0.0018    -0.0023    -0.0010    20.7877    41.4530     2.9868     1.8014     1.8014    -0.4182    14.4503    14.5061    -0.055
    321   -69.0008     34.958    273.000 213301.000     30.000    41.5367     0.0149   -24.9958     0.0002     0.0007    25.0000    10.0000    10.0000    25.0000    25.0000    10.0000    10.0000    25.0000     0.0018    -0.0023    -0.0010    20.7876    41.4531     2.9944     1.8055     1.8055    -0.4238    14.4503    14.5061    -0.055
    322   -69.1999     34.718    289.000 213301.000     30.000    41.5367     0.0149   -24.9958     0.0002     0.0007    25.0000    10.0000    10.0000    25.0000    25.0000    10.0000    10.0000    25.0000     0.0018    -0.0023    -0.0010    20.7876    41.4531     3.0020     1.8095     1.8095    -0.4293    14.4503    14.5061    -0.055
    323   -69.3970     34.798    302.000 213301.000     30.000    41.5367     0.0149   -24.9958     0.0002     0.0007    25.0000    10.0000    10.0000    25.0000    25.0000    10.0000    10.0000    25.0000     0.0018    -0.0023    -0.0010    20.7876    41.4530     3.0095     1.8135     1.8135    -0.4348    14.4503    14.5061    -0.055
    324   -69.5981     34.790    312.000 213302.000     30.000    41.5367     0.0149   -24.9958     0.0002     0.0007    25.0000    10.0000    10.0000    25.0000    25.0000    10.0000    10.0000    25.0000     0.0018    -0.0023    -0.0010    20.7876    41.4531     3.0171     1.8176     1.8175    -0.4405    14.4503    14.5061    -0.055
    325   -69.7980     34.817    301.000 213301.000     30.000    41.5367     0.0149   -24.9958     0.0002     0.0007    25.0000    10.0000    10.0000    25.0000    25.0000    10.0000    10.0000    25.0000     0.0018    -0.0023    -0.0010    20.7876    41.4531     3.0246     1.8216     1.8216    -0.4461    14.4503    14.5061    -0.055
    326   -69.9986     34.895    354.000 213301.000     30.000    41.5367     0.0149   -24.9958     0.0002     0.0007    25.0000    10.0000    10.0000    25.0000    25.0000    10.0000    10.0000    25.0000     0.0018    -0.0023    -0.0010    20.7876    41.4531     3.0322     1.8256     1.8256    -0.4517    14.4503    14.5061    -0.055
    327   -70.2022     34.822    486.000 213301.000     30.000    41.5367     0.0149   -24.9958     0.0002     0.0007    25.0000    10.0000    10.0000    25.0000    25.0000    10.0000    10.0000    25.0000     0.0018    -0.0023    -0.0010    20.7876    41.4530     3.0399     1.8296     1.8296    -0.4575    14.4503    14.5061    -0.055
    328   -70.4032     34.659    670.000 213301.000     30.000    41.5367     0.0149   -24.9958     0.0002     0.0007    25.0000    10.0000    10.0000    25.0000    25.0000    10.0000    10.0000    25.0000     0.0018    -0.0023    -0.0010    20.7876    41.4531     3.0475     1.8336     1.8336    -0.4632    14.4503    14.5061    -0.055
    329   -70.6029     34.744    900.000 213301.000     30.000    41.5367     0.0149   -24.9958     0.0002     0.0007    25.0000    10.0000    10.0000    25.0000    25.0000    10.0000    10.0000    25.0000     0.0018    -0.0023    -0.0010    20.7876    41.4531     3.0550     1.8376     1.8376    -0.4689    14.4503    14.5061    -0.055
    330   -70.8023     34.830   1526.000 213301.000     30.000    41.5367     0.0149   -24.9958     0.0002     0.0007    25.0000    10.0000    10.0000    25.0000    25.0000    10.0000    10.0000    25.0000     0.0018    -0.0023    -0.0010    20.7876    41.4530     3.0625     1.8415     1.8415    -0.4746    14.4503    14.5061    -0.055
    331   -70.9986     34.972   3242.000 213301.000     30.000    41.5367     0.0149   -24.9958     0.0002     0.0007    25.0000    10.0000    10.0000    25.0000    25.0000    10.0000    10.0000    25.0000     0.0018    -0.0023    -0.0010    20.7876    41.4531     3.0699     1.8454     1.8453    -0.4802    14.4503    14.5061    -0.055
    332   -71.2007     34.782   6623.000 213301.000     30.000    41.5367     0.0149   -24.9958     0.0002     0.0007    25.0000    10.0000    10.0000    25.0000    25.0000    10.0000    10.0000    25.0000     0.0018    -0.0023    -0.0010    20.7875    41.4531     3.0775     1.8493     1.8493    -0.4860    14.4503    14.5061    -0.055
    333   -71.4016     34.807  10801.000 213301.000     30.000    41.5367     0.0149   -24.9958     0.0002     0.0007    25.0000    10.0000    10.0000    25.0000    25.0000    10.0000    10.0000    25.0000     0.0018    -0.0023    -0.0010    20.7876    41.4531     3.0850     1.8532     1.8532    -0.4918    14.4503    14.5061    -0.055
    334   -71.5985     34.699  14553.000 213301.000     30.000    41.5367     0.0149   -24.9958     0.0002     0.0007    25.0000    10.0000    10.0000    25.0000    25.0000    10.0000    10.0000    25.0000     0.0018    -0.0023    -0.0009    20.7876    41.4531     3.0924     1.8571     1.8570    -0.4975    14.4503    14.5061    -0.055
    335   -71.8007     34.784  17175.000 213301.000     30.000    41.5367     0.0149   -24.9958     0.0002     0.0007    25.0000    10.0000    10.0000    25.0000    25.0000    10.0000    10.0000    25.0000     0.0018    -0.0023    -0.0010    20.7876    41.4531     3.1000     1.8610     1.8610    -0.5034    14.4503    14.5061    -0.055
    336   -72.0027     34.959  17599.000 213301.000     30.000    41.5367     0.0149   -24.9958     0.0002     0.0007    25.0000    10.0000    10.0000    25.0000    25.0000    10.0000    10.0000    25.0000     0.0018    -0.0023    -0.0010    20.7876    41.4531     3.1075     1.8649     1.8649    -0.5093    14.4503    14.5061    -0.055
    337   -72.2032     34.794  15594.000 213301.000     30.000    41.5367     0.0149   -24.9958     0.0002     0.0007    25.0000    10.0000    10.0000    25.0000    25.0000    10.0000    10.0000    25.0000     0.0018    -0.0023    -0.0010    20.7876    41.4531     3.1150     1.8687     1.8687    -0.5151    14.4503    14.5061    -0.055
    338   -72.3998     34.809  12988.000 213301.000     30.000    41.5367     0.0149   -24.9958     0.0002     0.0007    25.0000    10.0000    10.0000    25.0000    25.0000    10.0000    10.0000    25.0000     0.0018    -0.0023    -0.0010    20.7876    41.4530     3.1223     1.8725     1.8725    -0.5209    14.4503    14.5061    -0.055
    339   -72.5979     34.664   9456.000 213301.000     30.000    41.5367     0.0149   -24.9958     0.0002     0.0007    25.0000    10.0000    10.0000    25.0000    25.0000    10.0000    10.0000    25.0000     0.0018    -0.0023    -0.0010    20.7875    41.4531     3.1297     1.8763     1.8762    -0.5267    14.4503    14.5061    -0.055
    340   -72.7975     34.860   6020.000 213301.000     30.000    41.5367     0.0149   -24.9958     0.0002     0.0007    25.0000    10.0000    10.0000    25.0000    25.0000    10.0000    10.0000    25.0000     0.0018    -0.0023    -0.0010    20.7875    41.4531     3.1371     1.8801     1.8800    -0.5326    14.4503    14.5061    -0.055
    341   -72.9992     34.716   3330.000 213301.000     30.000    41.5367     0.0149   -24.9958     0.0002     0.0007    25.0000    10.0000    10.0000    25.0000    25.0000    10.0000    10.0000    25.0000     0.0018    -0.0023    -0.0010    20.7875    41.4531     3.1446     1.8839     1.8839    -0.5386    14.4503    14.5061    -0.055
    342   -73.1994     34.768   1582.000 213301.000     30.000    41.5367     0.0149   -24.9958     0.0002     0.0007    25.0000    10.0000    10.0000    25.0000    25.0000    10.0000    10.0000    25.0000     0.0018    -0.0023    -0.0010    20.7876    41.4531     3.1520     1.8876     1.8876    -0.5446    14.4503    14.5061    -0.055
    343   -73.3994     34.871    784.000 213301.000     30.000    41.5367     0.0149   -24.9958     0.0002     0.0007    25.0000    10.0000    10.0000    25.0000    25.0000    10.0000    10.0000    25.0000     0.0018    -0.0023    -0.0010    20.7876    41.4530     3.1594     1.8914     1.8914    -0.5505    14.4503    14.5061    -0.055
    344   -73.6006     34.730    456.000 213301.000     30.000    41.5367     0.0149   -24.9958     0.0002     0.0007    25.0000    10.0000    10.0000    25.0000    25.0000    10.0000    10.0000    25.0000     0.0018    -0.0023    -0.0010    20.7876    41.4530     3.1668     1.8952     1.8951    -0.5565    14.4503    14.5061    -0.055
    345   -73.8017     34.905    388.000 213301.000     30.000    41.5367     0.0149   -24.9958     0.0002     0.0007    25.0000    10.0000    10.0000    25.0000    25.0000    10.0000    10.0000    25.0000     0.0018    -0.0023    -0.0010    20.7875    41.4531     3.1743     1.8989     1.8989    -0.5626    14.4503    14.5061    -0.055
    346   -73.9994     34.938    319.000 213301.000     30.000    41.5367     0.0149   -24.9958     0.0002     0.0007    25.0000    10.0000    10.0000    25.0000    25.0000    10.0000    10.0000    25.0000     0.0018    -0.0023    -0.0010    20.7875    41.4530     3.1816     1.9026     1.9026    -0.5685    14.4503    14.5061    -0.055
    347   -74.1987     34.753    314.000 213301.000     30.000    41.5367     0.0149   -24.9958     0.0002     0.0007    25.0000    10.0000    10.0000    25.0000    25.0000    10.0000    10.0000    25.0000     0.0018    -0.0023    -0.0010    20.7875    41.4531     3.1889     1.9063     1.9062    -0.5745    14.4503    14.5061    -0.055
    348   -74.3961     34.789    289.000 213301.000     30.000    41.5367     0.0149   -24.9958     0.0002     0.0007    25.0000    10.0000    10.0000    25.0000    25.0000    10.0000    10.0000    25.0000     0.0018    -0.0023    -0.0010    20.7876    41.4530     3.1962     1.9099     1.9099    -0.5805    14.4503    14.5061    -0.055
    349   -74.5988     34.638    340.000 213301.000     30.000    41.5367     0.0149   -24.9958     0.0002     0.0007    25.0000    10.0000    10.0000    25.0000    25.0000    10.0000    10.0000    25.0000     0.0018    -0.0023    -0.0010    20.7875    41.4530     3.2036     1.9136     1.9136    -0.5866    14.4503    14.5061    -0.055
    350   -74.8005     34.920    360.000 213301.000     30.000    41.5367     0.0149   -24.9958     0.0002     0.0007    25.0000    10.0000    10.0000    25.0000    25.0000    10.0000    10.0000    25.0000     0.0018    -0.0023    -0.0010    20.7875    41.4530     3.2110     1.9173     1.9173    -0.5928    14.4503    14.5061    -0.055
    351   -75.0006     34.936    425.000 213301.000     30.000    41.5367     0.0149   -24.9958     0.0002     0.0007    25.0000    10.0000    10.0000    25.0000    25.0000    10.0000    10.0000    25.0000     0.0018    -0.0023    -0.0010    20.7876    41.4530     3.2183     1.9209     1.9209    -0.5989    14.4503    14.5061    -0.055
    352   -75.1991     34.871    999.000 213301.000     30.000    41.5367     0.0149   -24.9958     0.0002     0.0007    25.0000    10.0000    10.0000    25.0000    25.0000    10.0000    10.0000    25.0000     0.0018    -0.0023    -0.0010    20.7876    41.4530     3.2256     1.9245     1.9245    -0.6050    14.4503    14.5061    -0.055
    353   -75.4008     34.683   2715.000 213301.000     30.000    41.5367     0.0149   -24.9958     0.0002     0.0007    25.0000    10.0000    10.0000    25.0000    25.0000    10.0000    10.0000    25.0000     0.0018    -0.0023    -0.0010    20.7876    41.4530     3.2330     1.9282     1.9281    -0.6112    14.4503    14.5061    -0.055
    354   -75.6008     34.804   7250.000 213301.000     30.000    41.5367     0.0149   -24.9958     0.0002     0.0007    25.0000    10.0000    10.0000    25.0000    25.0000    10.0000    10.0000    25.0000     0.0018    -0.0023    -0.0010    20.7876    41.4530     3.2402     1.9318     1.9317    -0.6173    14.4503    14.5061    -0.055
    355   -75.7997     34.886  14105.000 213301.000     30.000    41.5367     0.0149   -24.9958     0.0002     0.0007    25.0000    10.0000    10.0000    25.0000    25.0000    10.0000    10.0000    25.0000     0.0018    -0.0023    -0.0010    20.7876    41.4531     3.2475     1.9353     1.9353    -0.6235    14.4503    14.5061    -0.055
    356   -75.9967     34.767  21732.000 213301.000     30.000    41.5367     0.0149   -24.9958     0.0002     0.0007    25.0000    10.0000    10.0000    25.0000    25.0000    10.0000    10.0000    25.0000     0.0018    -0.0023    -0.0010    20.7875    41.4530     3.2547     1.9388     1.9388    -0.6296    14.4503    14.5061    -0.055
    357   -76.1975     34.839  29354.000 213301.000     30.000    41.5367     0.0149   -24.9958     0.0002     0.0007    25.0000    10.0000    10.0000    25.0000    25.0000    10.0000    10.0000    25.0000     0.0018    -0.0023    -0.0010    20.7875    41.4530     3.2620     1.9424     1.9423    -0.6358    14.4503    14.5061    -0.055
    358   -76.3989     34.771  35241.000 213301.000     30.000    41.5367     0.0149   -24.9958     0.0002     0.0007    25.0000    10.0000    10.0000    25.0000    25.0000    10.0000    10.0000    25.0000     0.0018    -0.0023    -0.0010    20.7875    41.4530     3.2693     1.9459     1.9459    -0.6421    14.4503    14.5061    -0.055
    359   -76.5989     34.922  37100.000 213301.000     30.000    41.5367     0.0149   -24.9958     0.0002     0.0007    25.0000    10.0000    10.0000    25.0000    25.0000    10.0000    10.0000    25.0000     0.0018    -0.0023    -0.0010    20.7876    41.4530     3.2765     1.9494     1.9494    -0.6483    14.4503    14.5061    -0.055
    360   -76.7994     34.767  34120.000 213301.000     30.000    41.5367     0.0149   -24.9958     0.0002     0.0007    25.0000    10.0000    10.0000    25.0000    25.0000    10.0000    10.0000    25.0000     0.0018    -0.0023    -0.0010    20.7875    41.4530     3.2838     1.9529     1.9529    -0.6546    14.4503    14.5061    -0.055
    361   -76.9993     34.748  28498.000 213301.000     30.000    41.5367     0.0149   -24.9958     0.0002     0.0007    25.0000    10.0000    10.0000    25.0000    25.0000    10.0000    10.0000    25.0000     0.0018    -0.0023    -0.0010    20.7875    41.4530     3.2910     1.9564     1.9564    -0.6609    14.4503    14.5061    -0.055
    362   -77.1990     34.724  22563.000 213301.000     30.000    41.5367     0.0149   -24.9958     0.0002     0.0007    25.0000    10.0000    10.0000    25.0000    25.0000    10.0000    10.0000    25.0000     0.0018    -0.0023    -0.0010    20.7875    41.4531     3.2982     1.9599     1.9599    -0.6672    14.4503    14.5061    -0.055
    363   -77.3986     34.770  15731.000 213301.000     30.000    41.5367     0.0149   -24.9958     0.0002     0.0007    25.0000    10.0000    10.0000    25.0000    25.0000    10.0000    10.0000    25.0000     0.0018    -0.0023    -0.0009    20.7875    41.4530     3.3054     1.9633     1.9633    -0.6735    14.4503    14.5061    -0.055
    364   -77.5993     34.687   9270.000 213301.000     30.000    41.5367     0.0149   -24.9958     0.0002     0.0007    25.0000    10.0000    10.0000    25.0000    25.0000    10.0000    10.0000    25.0000     0.0018    -0.0023    -0.0010    20.7875    41.4530     3.3126     1.9668     1.9668    -0.6798    14.4503    14.5061    -0.055
    365   -77.8013     34.829   4564.000 213301.000     30.000    41.5367     0.0149   -24.9958     0.0002     0.0007    25.0000    10.0000    10.0000    25.0000    25.0000    10.0000    10.0000    25.0000     0.0018    -0.0023    -0.0010    20.7875    41.4530     3.3199     1.9702     1.9702    -0.6863    14.4503    14.5061    -0.055
    366   -77.9992     34.577   1868.000 213301.000     30.000    41.5367     0.0149   -24.9958     0.0002     0.0007    25.0000    10.0000    10.0000    25.0000    25.0000    10.0000    10.0000    25.0000     0.0018    -0.0023    -0.0010    20.7875    41.4530     3.3270     1.9736     1.9736    -0.6926    14.4503    14.5061    -0.055
    367   -78.1989     34.825    791.000 213301.000     30.000    41.5367     0.0149   -24.9958     0.0002     0.0007    25.0000    10.0000    10.0000    25.0000    25.0000    10.0000    10.0000    25.0000     0.0018    -0.0023    -0.0010    20.7875    41.4531     3.3341     1.9770     1.9770    -0.6989    14.4503    14.5061    -0.055
    368   -78.4010     34.872    439.000 213301.000     30.000    41.5367     0.0149   -24.9958     0.0002     0.0007    25.0000    10.0000    10.0000    25.0000    25.0000    10.0000    10.0000    25.0000     0.0018    -0.0023    -0.0010    20.7875    41.4530     3.3413     1.9804     1.9804    -0.7054    14.4503    14.5061    -0.055
    369   -78.6024     34.732    357.000 213301.000     30.000    41.5367     0.0149   -24.9958     0.0002     0.0007    25.0000    10.0000    10.0000    25.0000    25.0000    10.0000    10.0000    25.0000     0.0018    -0.0023    -0.0010    20.7876    41.4530     3.3485     1.9838     1.9838    -0.7119    14.4503    14.5061    -0.055
    370   -78.8016     34.785    274.000 213301.000     30.000    41.5367     0.0149   -24.9958     0.0002     0.0007    25.0000    10.0000    10.0000    25.0000    25.0000    10.0000    10.0000    25.0000     0.0018    -0.0023    -0.0010    20.7875    41.4530     3.3556     1.9871     1.9871    -0.7183    14.4503    14.5061    -0.055
    371   -78.9991     34.789    315.000 213301.000     30.000    41.5367     0.0149   -24.9958     0.0002     0.0007    25.0000    10.0000    10.0000    25.0000    25.0000    10.0000    10.0000    25.0000     0.0018    -0.0023    -0.0010    20.7875    41.4530     3.3627     1.9904     1.9904    -0.7247    14.4503    14.5061    -0.055
    372   -79.1980     34.765    349.000 213301.000     30.000    41.5367     0.0149   -24.9958     0.0002     0.0007    25.0000    10.0000    10.0000    25.0000    25.0000    10.0000    10.0000    25.0000     0.0018    -0.0023    -0.0010    20.7874    41.4531     3.3698     1.9937     1.9937    -0.7311    14.4503    14.5061    -0.055
    373   -79.3972     34.846    382.000 213301.000     30.000    41.5367     0.0149   -24.9958     0.0002     0.0007    25.0000    10.0000    10.0000    25.0000    25.0000    10.0000    10.0000    25.0000     0.0018    -0.0023    -0.0010    20.7874    41.4530     3.3768     1.9970     1.9969    -0.7375    14.4503    14.5061    -0.055
    374   -79.6003     34.805    301.000 213301.000     30.000    41.5367     0.0149   -24.9958     0.0002     0.0007    25.0000    10.0000    10.0000    25.0000    25.0000    10.0000    10.0000    25.0000     0.0018    -0.0023    -0.0010    20.7875    41.4530     3.3840     2.0003     2.0003    -0.7441    14.4503    14.5061    -0.055
    375   -79.8009     34.877    270.000 213301.000     30.000    41.5367     0.0149   -24.9958     0.0002     0.0007    25.0000    10.0000    10.0000    25.0000    25.0000    10.0000    10.0000    25.0000     0.0018    -0.0023    -0.0010    20.7874    41.4531     3.3911     2.0036     2.0035    -0.7507    14.4503    14.5061    -0.055
    376   -80.0003     34.808    241.000 213301.000     30.000    41.5367     0.0149   -24.9958     0.0002     0.0007    25.0000    10.0000    10.0000    25.0000    25.0000    10.0000    10.0000    25.0000     0.0018    -0.0023    -0.0010    20.7874    41.4531     3.3982     2.0068     2.0068    -0.7572    14.4503    14.5061    -0.055
    377   -80.2021     34.716    228.000 213301.000     30.000    41.5367     0.0149   -24.9958     0.0002     0.0007    25.0000    10.0000    10.0000    25.0000    25.0000    10.0000    10.0000    25.0000     0.0018    -0.0023    -0.0010    20.7875    41.4531     3.4053     2.0101     2.0100    -0.7638    14.4503    14.5061    -0.055
    378   -80.4017     34.731    234.000 213301.000     30.000    41.5367     0.0149   -24.9958     0.0002     0.0007    25.0000    10.0000    10.0000    25.0000    25.0000    10.0000    10.0000    25.0000     0.0018    -0.0023    -0.0010    20.7875    41.4531     3.4124     2.0133     2.0132    -0.7703    14.4503    14.5061    -0.055
    379   -80.5965     34.819    200.000 213301.000     30.000    41.5367     0.0149   -24.9958     0.0002     0.0007    25.0000    10.0000    10.0000    25.0000    25.0000    10.0000    10.0000    25.0000     0.0018    -0.0023    -0.0010    20.7875    41.4531     3.4192     2.0164     2.0164    -0.7768    14.4503    14.5061    -0.055
    380   -80.7999     34.683    223.000 213301.000     30.000    41.5367     0.0149   -24.9958     0.0002     0.0007    25.0000    10.0000    10.0000    25.0000    25.0000    10.0000    10.0000    25.0000     0.0018    -0.0023    -0.0010    20.7875    41.4530     3.4264     2.0196     2.0196    -0.7835    14.4503    14.5061    -0.055
    381   -81.0008     34.538    198.000 213301.000     30.000    41.5367     0.0149   -24.9958     0.0002     0.0007    25.0000    10.0000    10.0000    25.0000    25.0000    10.0000    10.0000    25.0000     0.0018    -0.0023    -0.0010    20.7875    41.4531     3.4334     2.0228     2.0228    -0.7901    14.4503    14.5061    -0.055
    382   -81.1987     34.598    203.000 213301.000     30.000    41.5367     0.0149   -24.9958     0.0002     0.0007    25.0000    10.0000    10.0000    25.0000    25.0000    10.0000    10.0000    25.0000     0.0018    -0.0023    -0.0010    20.7876    41.4530     3.4404     2.0259     2.0259    -0.7967    14.4503    14.5061    -0.055
    383   -81.3984     34.557    197.000 213301.000     30.000    41.5367     0.0149   -24.9958     0.0002     0.0007    25.0000    10.0000    10.0000    25.0000    25.0000    10.0000    10.0000    25.0000     0.0018    -0.0023    -0.0010    20.7875    41.4531     3.4474     2.0290     2.0290    -0.8033    14.4503    14.5061    -0.055
    384   -81.6017     34.742    215.000 213301.000     30.000    41.5367     0.0149   -24.9958     0.0002     0.0007    25.0000    10.0000    10.0000    25.0000    25.0000    10.0000    10.0000    25.0000     0.0018    -0.0023    -0.0010    20.7875    41.4531     3.4545     2.0322     2.0322    -0.8101    14.4503    14.5061    -0.055
    385   -81.8034     34.666    206.000 213301.000     30.000    41.5367     0.0149   -24.9958     0.0002     0.0007    25.0000    10.0000    10.0000    25.0000    25.0000    10.0000    10.0000    25.0000     0.0018    -0.0023    -0.0009    20.7875    41.4531     3.4615     2.0353     2.0353    -0.8168    14.4503    14.5061    -0.055
    386   -82.0038     34.716    219.000 213301.000     30.000    41.5367     0.0149   -24.9958     0.0002     0.0007    25.0000    10.0000    10.0000    25.0000    25.0000    10.0000    10.0000    25.0000     0.0018    -0.0023    -0.0010    20.7875    41.4531     3.4685     2.0384     2.0384    -0.8235    14.4503    14.5061    -0.055
    387   -82.2011     34.612    199.000 213301.000     30.000    41.5367     0.0149   -24.9958     0.0002     0.0007    25.0000    10.0000    10.0000    25.0000    25.0000    10.0000    10.0000    25.0000     0.0018    -0.0023    -0.0010    20.7875    41.4531     3.4753     2.0414     2.0414    -0.8301    14.4503    14.5061    -0.055
    388   -82.3972     34.749    194.000 213301.000     30.000    41.5367     0.0149   -24.9958     0.0002     0.0007    25.0000    10.0000    10.0000    25.0000    25.0000    10.0000    10.0000    25.0000     0.0018    -0.0023    -0.0010    20.7875    41.4531     3.4822     2.0444     2.0444    -0.8367    14.4503    14.5061    -0.055
    389   -82.5962     34.724    186.000 213301.000     30.000    41.5367     0.0149   -24.9958     0.0002     0.0007    25.0000    10.0000    10.0000    25.0000    25.0000    10.0000    10.0000    25.0000     0.0018    -0.0023    -0.0010    20.7875    41.4531     3.4891     2.0474     2.0474    -0.8434    14.4503    14.5061    -0.055
    390   -82.7975     34.606    196.000 213301.000     30.000    41.5367     0.0149   -24.9958     0.0002     0.0007    25.0000    10.0000    10.0000    25.0000    25.0000    10.0000    10.0000    25.0000     0.0018    -0.0023    -0.0010    20.7875    41.4531     3.4960     2.0505     2.0505    -0.8502    14.4503    14.5061    -0.055
    391   -82.9992     34.618    189.000 213301.000     30.000    41.5367     0.0149   -24.9958     0.0002     0.0007    25.0000    10.0000    10.0000    25.0000    25.0000    10.0000    10.0000    25.0000     0.0018    -0.0023    -0.0010    20.7875    41.4531     3.5030     2.0535     2.0535    -0.8570    14.4503    14.5061    -0.055
    392   -83.2008     34.864    205.000 213301.000     30.000    41.5367     0.0149   -24.9958     0.0002     0.0007    25.0000    10.0000    10.0000    25.0000    25.0000    10.0000    10.0000    25.0000     0.0018    -0.0023    -0.0010    20.7875    41.4531     3.5100     2.0565     2.0565    -0.8638    14.4503    14.5061    -0.055
    393   -83.4020     34.678    190.000 213301.000     30.000    41.5367     0.0149   -24.9958     0.0002     0.0007    25.0000    10.0000    10.0000    25.0000    25.0000    10.0000    10.0000    25.0000     0.0018    -0.0023    -0.0009    20.7875    41.4530     3.5169     2.0595     2.0595    -0.8707    14.4503    14.5061    -0.055
    394   -83.6023     34.711    181.000 213301.000     30.000    41.5367     0.0149   -24.9958     0.0002     0.0007    25.0000    10.0000    10.0000    25.0000    25.0000    10.0000    10.0000    25.0000     0.0018    -0.0023    -0.0009    20.7874    41.4531     3.5238     2.0625     2.0624    -0.8775    14.4503    14.5061    -0.055
    395   -83.8025     34.628    183.000 213301.000     30.000    41.5367     0.0149   -24.9958     0.0002     0.0007    25.0000    10.0000    10.0000    25.0000    25.0000    10.0000    10.0000    25.0000     0.0018    -0.0023    -0.0010    20.7874    41.4531     3.5307     2.0654     2.0654    -0.8843    14.4503    14.5061    -0.055
    396   -83.9990     34.725    179.000 213301.000     30.000    41.5367     0.0149   -24.9958     0.0002     0.0007    25.0000    10.0000    10.0000    25.0000    25.0000    10.0000    10.0000    25.0000     0.0018    -0.0023    -0.0010    20.7875    41.4531     3.5374     2.0683     2.0682    -0.8910    14.4503    14.5061    -0.055
    397   -84.1968     34.808    182.000 213301.000     30.000    41.5367     0.0149   -24.9958     0.0002     0.0007    25.0000    10.0000    10.0000    25.0000    25.0000    10.0000    10.0000    25.0000     0.0018    -0.0023    -0.0009    20.7875    41.4531     3.5442     2.0711     2.0711    -0.8978    14.4503    14.5061    -0.055
    398   -84.3991     34.770    176.000 213301.000     30.000    41.5367     0.0149   -24.9958     0.0002     0.0007    25.0000    10.0000    10.0000    25.0000    25.0000    10.0000    10.0000    25.0000     0.0018    -0.0023    -0.0009    20.7875    41.4531     3.5511     2.0740     2.0740    -0.9047    14.4503    14.5061    -0.055
    399   -84.5979     34.705    171.000 213301.000     30.000    41.5367     0.0149   -24.9958     0.0002     0.0007    25.0000    10.0000    10.0000    25.0000    25.0000    10.0000    10.0000    25.0000     0.0018    -0.0023    -0.0010    20.7875    41.4531     3.5579     2.0769     2.0769    -0.9116    14.4503    14.5060    -0.055
    400   -84.7989     34.785    183.000 213301.000     30.000    41.5367     0.0149   -24.9958     0.0002     0.0007    25.0000    10.0000    10.0000    25.0000    25.0000    10.0000    10.0000    25.0000     0.0018    -0.0023    -0.0010    20.7875    41.4531     3.5648     2.0797     2.0797    -0.9185    14.4503    14.5060    -0.055
    401   -85.0005     34.872    173.000 213301.000     30.000    41.5367     0.0149   -24.9958     0.0002     0.0007    25.0000    10.0000    10.0000    25.0000    25.0000    10.0000    10.0000    25.0000     0.0018    -0.0023    -0.0010    20.7874    41.4531     3.5716     2.0826     2.0826    -0.9255    14.4503    14.5060    -0.055
    402   -85.2011     34.733    190.000 213301.000     30.000    41.5367     0.0149   -24.9958     0.0002     0.0007    25.0000    10.0000    10.0000    25.0000    25.0000    10.0000    10.0000    25.0000     0.0018    -0.0023    -0.0010    20.7874    41.4531     3.5784     2.0854     2.0854    -0.9324    14.4503    14.5060    -0.055
    403   -85.4026     34.743    165.000 213301.000     30.000    41.5367     0.0149   -24.9958     0.0002     0.0007    25.0000    10.0000    10.0000    25.0000    25.0000    10.0000    10.0000    25.0000     0.0018    -0.0023    -0.0009    20.7875    41.4531     3.5853     2.0882     2.0882    -0.9394    14.4503    14.5061    -0.055
    404   -85.5991     34.570    148.000 213301.000     30.000    41.5367     0.0149   -24.9958     0.0002     0.0007    25.0000    10.0000    10.0000    25.0000    25.0000    10.0000    10.0000    25.0000     0.0018    -0.0023    -0.0009    20.7875    41.4531     3.5919     2.0910     2.0909    -0.9462    14.4503    14.5060    -0.055
    405   -85.7997     34.697    173.000 213301.000     30.000    41.5367     0.0149   -24.9958     0.0002     0.0007    25.0000    10.0000    10.0000    25.0000    25.0000    10.0000    10.0000    25.0000     0.0018    -0.0023    -0.0010    20.7874    41.4531     3.5987     2.0937     2.0937    -0.9532    14.4503    14.5061    -0.055
    406   -85.9978     34.760    138.000 213301.000     30.000    41.5367     0.0149   -24.9958     0.0002     0.0007    25.0000    10.0000    10.0000    25.0000    25.0000    10.0000    10.0000    25.0000     0.0018    -0.0023    -0.0010    20.7874    41.4531     3.6054     2.0965     2.0964    -0.9601    14.4503    14.5061    -0.055
    407   -86.1988     34.711    179.000 213301.000     30.000    41.5367     0.0149   -24.9958     0.0002     0.0007    25.0000    10.0000    10.0000    25.0000    25.0000    10.0000    10.0000    25.0000     0.0018    -0.0023    -0.0010    20.7874    41.4531     3.6122     2.0992     2.0992    -0.9671    14.4503    14.5061    -0.055
    408   -86.3974     34.732    171.000 213301.000     30.000    41.5367     0.0149   -24.9958     0.0002     0.0007    25.0000    10.0000    10.0000    25.0000    25.0000    10.0000    10.0000    25.0000     0.0018    -0.0023    -0.0010    20.7875    41.4531     3.6189     2.1019     2.1019    -0.9741    14.4503    14.5061    -0.055
    409   -86.6029     34.623    168.000 213301.000     30.000    41.5367     0.0149   -24.9958     0.0002     0.0007    25.0000    10.0000    10.0000    25.0000    25.0000    10.0000    10.0000    25.0000     0.0018    -0.0023    -0.0010    20.7874    41.4531     3.6258     2.1047     2.1046    -0.9813    14.4503    14.5061    -0.055
    410   -86.8025     34.768    152.000 213301.000     30.000    41.5367     0.0149   -24.9958     0.0002     0.0007    25.0000    10.0000    10.0000    25.0000    25.0000    10.0000    10.0000    25.0000     0.0018    -0.0023    -0.0010    20.7874    41.4531     3.6325     2.1073     2.1073    -0.9883    14.4503    14.5060    -0.055
    411   -86.9997     34.738    156.000 213301.000     30.000    41.5367     0.0149   -24.9958     0.0002     0.0007    25.0000    10.0000    10.0000    25.0000    25.0000    10.0000    10.0000    25.0000     0.0018    -0.0023    -0.0010    20.7874    41.4531     3.6391     2.1099     2.1099    -0.9953    14.4503    14.5061    -0.055
    412   -87.1981     34.699    172.000 213301.000     30.000    41.5367     0.0149   -24.9958     0.0002     0.0007    25.0000    10.0000    10.0000    25.0000    25.0000    10.0000    10.0000    25.0000     0.0018    -0.0023    -0.0010    20.7874    41.4531     3.6457     2.1126     2.1125    -1.0023    14.4503    14.5060    -0.055
    413   -87.4001     34.772    179.000 213301.000     30.000    41.5367     0.0149   -24.9958     0.0002     0.0007    25.0000    10.0000    10.0000    25.0000    25.0000    10.0000    10.0000    25.0000     0.0018    -0.0023    -0.0010    20.7874    41.4531     3.6524     2.1152     2.1152    -1.0094    14.4503    14.5061    -0.055
    414   -87.5991     34.796    175.000 213301.000     30.000    41.5367     0.0149   -24.9958     0.0002     0.0007    25.0000    10.0000    10.0000    25.0000    25.0000    10.0000    10.0000    25.0000     0.0018    -0.0023    -0.0010    20.7874    41.4531     3.6591     2.1178     2.1178    -1.0164    14.4503    14.5061    -0.055
    415   -87.8012     34.588    182.000 213301.000     30.000    41.5367     0.0149   -24.9958     0.0002     0.0007    25.0000    10.0000    10.0000    25.0000    25.0000    10.0000    10.0000    25.0000     0.0018    -0.0023    -0.0010    20.7874    41.4531     3.6658     2.1204     2.1204    -1.0236    14.4503    14.5061    -0.055
    416   -87.9994     34.818    171.000 213301.000     30.000    41.5367     0.0149   -24.9958     0.0002     0.0007    25.0000    10.0000    10.0000    25.0000    25.0000    10.0000    10.0000    25.0000     0.0018    -0.0023    -0.0010    20.7874    41.4530     3.6724     2.1230     2.1229    -1.0307    14.4503    14.5061    -0.055
    417   -88.2035     34.692    195.000 213301.000     30.000    41.5367     0.0149   -24.9958     0.0002     0.0007    25.0000    10.0000    10.0000    25.0000    25.0000    10.0000    10.0000    25.0000     0.0018    -0.0023    -0.0010    20.7874    41.4531     3.6792     2.1256     2.1255    -1.0379    14.4503    14.5061    -0.055
    418   -88.3999     34.647    183.000 213301.000     30.000    41.5367     0.0149   -24.9958     0.0002     0.0007    25.0000    10.0000    10.0000    25.0000    25.0000    10.0000    10.0000    25.0000     0.0018    -0.0023    -0.0010    20.7874    41.4530     3.6857     2.1281     2.1280    -1.0449    14.4503    14.5061    -0.055
    419   -88.6035     34.700    176.000 213301.000     30.000    41.5367     0.0149   -24.9958     0.0002     0.0007    25.0000    10.0000    10.0000    25.0000    25.0000    10.0000    10.0000    25.0000     0.0018    -0.0023    -0.0010    20.7874    41.4531     3.6924     2.1306     2.1306    -1.0522    14.4503    14.5061    -0.055
    420   -88.8027     34.655    173.000 213301.000     30.000    41.5367     0.0149   -24.9958     0.0002     0.0007    25.0000    10.0000    10.0000    25.0000    25.0000    10.0000    10.0000    25.0000     0.0018    -0.0023    -0.0010    20.7875    41.4531     3.6990     2.1331     2.1331    -1.0593    14.4503    14.5061    -0.055
    421   -88.9997     34.753    165.000 213301.000     30.000    41.5367     0.0149   -24.9958     0.0002     0.0007    25.0000    10.0000    10.0000    25.0000    25.0000    10.0000    10.0000    25.0000     0.0018    -0.0023    -0.0009    20.7874    41.4531     3.7054     2.1356     2.1355    -1.0664    14.4503    14.5061    -0.055
    422   -89.2003     34.633    197.000 213301.000     30.000    41.5367     0.0149   -24.9958     0.0002     0.0007    25.0000    10.0000    10.0000    25.0000    25.0000    10.0000    10.0000    25.0000     0.0018    -0.0023    -0.0010    20.7874    41.4531     3.7120     2.1380     2.1380    -1.0736    14.4503    14.5061    -0.055
    423   -89.3985     34.744    183.000 213301.000     30.000    41.5367     0.0149   -24.9958     0.0002     0.0007    25.0000    10.0000    10.0000    25.0000    25.0000    10.0000    10.0000    25.0000     0.0018    -0.0023    -0.0010    20.7874    41.4531     3.7185     2.1405     2.1404    -1.0807    14.4503    14.5061    -0.055
    424   -89.6005     34.720    166.000 213301.000     30.000    41.5367     0.0149   -24.9958     0.0002     0.0007    25.0000    10.0000    10.0000    25.0000    25.0000    10.0000    10.0000    25.0000     0.0018    -0.0023    -0.0010    20.7875    41.4530     3.7252     2.1429     2.1429    -1.0880    14.4503    14.5061    -0.055
    425   -89.8017     34.697    186.000 213301.000     30.000    41.5367     0.0149   -24.9958     0.0002     0.0007    25.0000    10.0000    10.0000    25.0000    25.0000    10.0000    10.0000    25.0000     0.0018    -0.0023    -0.0010    20.7874    41.4531     3.7317     2.1454     2.1453    -1.0953    14.4503    14.5061    -0.055
    426   -90.0030     34.669    195.000 213301.000     30.000    41.5367     0.0149   -24.9958     0.0002     0.0007    25.0000    10.0000    10.0000    25.0000    25.0000    10.0000    10.0000    25.0000     0.0018    -0.0023    -0.0010    20.7874    41.4531     3.7383     2.1478     2.1477    -1.1025    14.4503    14.5060    -0.055
    427   -90.2042     34.642    188.000 213301.000     30.000    41.5367     0.0149   -24.9958     0.0002     0.0007    25.0000    10.0000    10.0000    25.0000    25.0000    10.0000    10.0000    25.0000     0.0018    -0.0023    -0.0010    20.7874    41.4531     3.7449     2.1502     2.1501    -1.1098    14.4503    14.5061    -0.055
    428   -90.4010     34.686    185.000 213301.000     30.000    41.5367     0.0149   -24.9958     0.0002     0.0007    25.0000    10.0000    10.0000    25.0000    25.0000    10.0000    10.0000    25.0000     0.0018    -0.0023    -0.0010    20.7874    41.4531     3.7513     2.1525     2.1524    -1.1170    14.4503    14.5061    -0.055
    429   -90.5990     34.791    200.000 213301.000     30.000    41.5367     0.0149   -24.9958     0.0002     0.0007    25.0000    10.0000    10.0000    25.0000    25.0000    10.0000    10.0000    25.0000     0.0018    -0.0023    -0.0010    20.7875    41.4531     3.7577     2.1548     2.1548    -1.1242    14.4503    14.5061    -0.055
    430   -90.7994     34.659    197.000 213301.000     30.000    41.5367     0.0149   -24.9958     0.0002     0.0007    25.0000    10.0000    10.0000    25.0000    25.0000    10.0000    10.0000    25.0000     0.0018    -0.0023    -0.0010    20.7874    41.4531     3.7642     2.1571     2.1571    -1.1314    14.4503    14.5061    -0.055
    431   -90.9989     34.704    269.000 213301.000     30.000    41.5367     0.0149   -24.9958     0.0002     0.0007    25.0000    10.0000    10.0000    25.0000    25.0000    10.0000    10.0000    25.0000     0.0018    -0.0023    -0.0010    20.7875    41.4531     3.7707     2.1594     2.1594    -1.1387    14.4503    14.5061    -0.055
    432   -91.1995     34.675    376.000 213301.000     30.000    41.5367     0.0149   -24.9958     0.0002     0.0007    25.0000    10.0000    10.0000    25.0000    25.0000    10.0000    10.0000    25.0000     0.0018    -0.0023    -0.0010    20.7875    41.4531     3.7771     2.1617     2.1617    -1.1460    14.4503    14.5061    -0.055
    433   -91.4012     34.604    821.000 213301.000     30.000    41.5367     0.0149   -24.9958     0.0002     0.0007    25.0000    10.0000    10.0000    25.0000    25.0000    10.0000    10.0000    25.0000     0.0018    -0.0023    -0.0009    20.7875    41.4531     3.7836     2.1640     2.1640    -1.1534    14.4503    14.5061    -0.055
    434   -91.6006     34.756   2073.000 213301.000     30.000    41.5367     0.0149   -24.9958     0.0002     0.0007    25.0000    10.0000    10.0000    25.0000    25.0000    10.0000    10.0000    25.0000     0.0018    -0.0023    -0.0010    20.7875    41.4531     3.7901     2.1662     2.1662    -1.1607    14.4503    14.5061    -0.055
    435   -91.8006     34.720   4246.000 213301.000     30.000    41.5367     0.0149   -24.9958     0.0002     0.0007    25.0000    10.0000    10.0000    25.0000    25.0000    10.0000    10.0000    25.0000     0.0018    -0.0023    -0.0010    20.7874    41.4531     3.7965     2.1685     2.1684    -1.1680    14.4503    14.5061    -0.055
    436   -92.0011     34.815   7509.000 213301.000     30.000    41.5367     0.0149   -24.9958     0.0002     0.0007    25.0000    10.0000    10.0000    25.0000    25.0000    10.0000    10.0000    25.0000     0.0018    -0.0023    -0.0010    20.7875    41.4531     3.8029     2.1707     2.1707    -1.1754    14.4503    14.5061    -0.055
    437   -92.1983     34.778  11064.000 213301.000     30.000    41.5367     0.0149   -24.9958     0.0002     0.0007    25.0000    10.0000    10.0000    25.0000    25.0000    10.0000    10.0000    25.0000     0.0018    -0.0023    -0.0010    20.7875    41.4531     3.8092     2.1729     2.1728    -1.1827    14.4503    14.5061    -0.055
    438   -92.3997     34.576  14352.000 213301.000     30.000    41.5367     0.0149   -24.9958     0.0002     0.0007    25.0000    10.0000    10.0000    25.0000    25.0000    10.0000    10.0000    25.0000     0.0018    -0.0023    -0.0010    20.7875    41.4530     3.8157     2.1751     2.1750    -1.1901    14.4503    14.5061    -0.055
    439   -92.5983     34.550  17256.000 213301.000     30.000    41.5367     0.0149   -24.9958     0.0002     0.0007    25.0000    10.0000    10.0000    25.0000    25.0000    10.0000    10.0000    25.0000     0.0018    -0.0023    -0.0010    20.7874    41.4531     3.8220     2.1772     2.1772    -1.1974    14.4503    14.5061    -0.055
    440   -92.7982     34.736  19975.000 213301.000     30.000    41.5367     0.0149   -24.9958     0.0002     0.0007    25.0000    10.0000    10.0000    25.0000    25.0000    10.0000    10.0000    25.0000     0.0018    -0.0023    -0.0009    20.7874    41.4531     3.8284     2.1793     2.1793    -1.2048    14.4503    14.5061    -0.055
    441   -92.9978     34.768  21325.000 213301.000     30.000    41.5367     0.0149   -24.9958     0.0002     0.0007    25.0000    10.0000    10.0000    25.0000    25.0000    10.0000    10.0000    25.0000     0.0018    -0.0023    -0.0010    20.7874    41.4531     3.8347     2.1815     2.1814    -1.2122    14.4503    14.5061    -0.055
    442   -93.2007     34.544  21663.000 213301.000     30.000    41.5367     0.0149   -24.9958     0.0002     0.0007    25.0000    10.0000    10.0000    25.0000    25.0000    10.0000    10.0000    25.0000     0.0018    -0.0023    -0.0010    20.7874    41.4531     3.8412     2.1836     2.1836    -1.2197    14.4503    14.5061    -0.055
    443   -93.4019     34.668  20742.000 213301.000     30.000    41.5367     0.0149   -24.9958     0.0002     0.0007    25.0000    10.0000    10.0000    25.0000    25.0000    10.0000    10.0000    25.0000     0.0018    -0.0023    -0.0009    20.7874    41.4531     3.8475     2.1857     2.1857    -1.2271    14.4503    14.5061    -0.055
    444   -93.6014     34.842  18656.000 213301.000     30.000    41.5367     0.0149   -24.9958     0.0002     0.0007    25.0000    10.0000    10.0000    25.0000    25.0000    10.0000    10.0000    25.0000     0.0018    -0.0023    -0.0010    20.7874    41.4530     3.8538     2.1878     2.1877    -1.2345    14.4503    14.5061    -0.055
    445   -93.7972     34.609  16353.000 213301.000     30.000    41.5367     0.0149   -24.9958     0.0002     0.0007    25.0000    10.0000    10.0000    25.0000    25.0000    10.0000    10.0000    25.0000     0.0018    -0.0023    -0.0010    20.7874    41.4531     3.8600     2.1898     2.1897    -1.2418    14.4503    14.5061    -0.055
    446   -94.0008     34.656  13849.000 213301.000     30.000    41.5367     0.0149   -24.9958     0.0002     0.0007    25.0000    10.0000    10.0000    25.0000    25.0000    10.0000    10.0000    25.0000     0.0018    -0.0023    -0.0010    20.7875    41.4530     3.8664     2.1918     2.1918    -1.2494    14.4503    14.5061    -0.055
    447   -94.1981     34.673  11290.000 213301.000     30.000    41.5367     0.0149   -24.9958     0.0002     0.0007    25.0000    10.0000    10.0000    25.0000    25.0000    10.0000    10.0000    25.0000     0.0018    -0.0023    -0.0010    20.7874    41.4531     3.8726     2.1938     2.1938    -1.2568    14.4503    14.5061    -0.055
    448   -94.4001     34.776   8258.000 213301.000     30.000    41.5367     0.0149   -24.9958     0.0002     0.0007    25.0000    10.0000    10.0000    25.0000    25.0000    10.0000    10.0000    25.0000     0.0018    -0.0023    -0.0009    20.7874    41.4531     3.8790     2.1958     2.1958    -1.2643    14.4503    14.5061    -0.055
    449   -94.6006     34.831   5558.000 213301.000     30.000    41.5367     0.0149   -24.9958     0.0002     0.0007    25.0000    10.0000    10.0000    25.0000    25.0000    10.0000    10.0000    25.0000     0.0018    -0.0023    -0.0010    20.7875    41.4531     3.8852     2.1978     2.1978    -1.2718    14.4503    14.5060    -0.055
    450   -94.8028     34.664   3332.000 213301.000     30.000    41.5367     0.0149   -24.9958     0.0002     0.0007    25.0000    10.0000    10.0000    25.0000    25.0000    10.0000    10.0000    25.0000     0.0018    -0.0023    -0.0010    20.7874    41.4531     3.8916     2.1998     2.1998    -1.2794    14.4503    14.5061    -0.055
    451   -94.9963     34.638   1624.000 213301.000     30.000    41.5367     0.0149   -24.9958     0.0002     0.0007    25.0000    10.0000    10.0000    25.0000    25.0000    10.0000    10.0000    25.0000     0.0018    -0.0023    -0.0010    20.7874    41.4531     3.8976     2.2017     2.2016    -1.2866    14.4503    14.5061    -0.055
    452   -95.2026     34.625    727.000 213301.000     30.000    41.5367     0.0149   -24.9958     0.0002     0.0007    25.0000    10.0000    10.0000    25.0000    25.0000    10.0000    10.0000    25.0000     0.0018    -0.0023    -0.0010    20.7874    41.4531     3.9040     2.2037     2.2036    -1.2944    14.4503    14.5061    -0.055
    453   -95.3995     34.776    399.000 213301.000     30.000    41.5367     0.0149   -24.9958     0.0002     0.0007    25.0000    10.0000    10.0000    25.0000    25.0000    10.0000    10.0000    25.0000     0.0018    -0.0023    -0.0010    20.7874    41.4531     3.9101     2.2055     2.2055    -1.3018    14.4503    14.5061    -0.055
    454   -95.5984     34.686    240.000 213301.000     30.000    41.5367     0.0149   -24.9958     0.0002     0.0007    25.0000    10.0000    10.0000    25.0000    25.0000    10.0000    10.0000    25.0000     0.0018    -0.0023    -0.0010    20.7874    41.4531     3.9163     2.2074     2.2074    -1.3093    14.4503    14.5061    -0.055
    455   -95.7990     34.719    200.000 213301.000     30.000    41.5367     0.0149   -24.9958     0.0002     0.0007    25.0000    10.0000    10.0000    25.0000    25.0000    10.0000    10.0000    25.0000     0.0018    -0.0023    -0.0009    20.7873    41.4531     3.9225     2.2093     2.2092    -1.3168    14.4503    14.5061    -0.055
    456   -95.9981     34.652    171.000 213301.000     30.000    41.5367     0.0149   -24.9958     0.0002     0.0007    25.0000    10.0000    10.0000    25.0000    25.0000    10.0000    10.0000    25.0000     0.0018    -0.0023    -0.0010    20.7874    41.4531     3.9287     2.2111     2.2111    -1.3243    14.4503    14.5061    -0.055
    457   -96.1977     34.599    187.000 213301.000     30.000    41.5367     0.0149   -24.9958     0.0002     0.0007    25.0000    10.0000    10.0000    25.0000    25.0000    10.0000    10.0000    25.0000     0.0018    -0.0023    -0.0010    20.7873    41.4531     3.9348     2.2129     2.2129    -1.3319    14.4503    14.5061    -0.055
    458   -96.4024     34.416    160.000 213301.000     30.000    41.5367     0.0149   -24.9958     0.0002     0.0007    25.0000    10.0000    10.0000    25.0000    25.0000    10.0000    10.0000    25.0000     0.0018    -0.0023    -0.0010    20.7873    41.4531     3.9411     2.2148     2.2147    -1.3396    14.4503    14.5061    -0.055
    459   -96.6044     34.496    208.000 213301.000     30.000    41.5367     0.0149   -24.9958     0.0002     0.0007    25.0000    10.0000    10.0000    25.0000    25.0000    10.0000    10.0000    25.0000     0.0018    -0.0023    -0.0009    20.7873    41.4531     3.9473     2.2166     2.2166    -1.3472    14.4503    14.5061    -0.055
    460   -96.8028     34.736    189.000 213301.000     30.000    41.5367     0.0149   -24.9958     0.0002     0.0007    25.0000    10.0000    10.0000    25.0000    25.0000    10.0000    10.0000    25.0000     0.0018    -0.0023    -0.0010    20.7873    41.4531     3.9534     2.2183     2.2183    -1.3548    14.4503    14.5060    -0.055
    461   -97.0019     34.798    182.000 213301.000     30.000    41.5367     0.0149   -24.9958     0.0002     0.0007    25.0000    10.0000    10.0000    25.0000    25.0000    10.0000    10.0000    25.0000     0.0018    -0.0023    -0.0009    20.7873    41.4531     3.9595     2.2201     2.2201    -1.3623    14.4503    14.5061    -0.055
    462   -97.1974     34.756    180.000 213301.000     30.000    41.5367     0.0149   -24.9958     0.0002     0.0007    25.0000    10.0000    10.0000    25.0000    25.0000    10.0000    10.0000    25.0000     0.0018    -0.0023    -0.0010    20.7874    41.4530     3.9655     2.2218     2.2218    -1.3697    14.4503    14.5061    -0.055
    463   -97.3974     34.671    185.000 213301.000     30.000    41.5367     0.0149   -24.9958     0.0002     0.0007    25.0000    10.0000    10.0000    25.0000    25.0000    10.0000    10.0000    25.0000     0.0018    -0.0023    -0.0009    20.7873    41.4530     3.9716     2.2235     2.2235    -1.3773    14.4503    14.5061    -0.055
    464   -97.6025     34.544    195.000 213301.000     30.000    41.5367     0.0149   -24.9958     0.0002     0.0007    25.0000    10.0000    10.0000    25.0000    25.0000    10.0000    10.0000    25.0000     0.0018    -0.0023    -0.0010    20.7873    41.4530     3.9778     2.2252     2.2252    -1.3852    14.4503    14.5061    -0.055
    465   -97.7982     34.591    159.000 213301.000     30.000    41.5367     0.0149   -24.9958     0.0002     0.0007    25.0000    10.0000    10.0000    25.0000    25.0000    10.0000    10.0000    25.0000     0.0018    -0.0023    -0.0009    20.7872    41.4530     3.9838     2.2269     2.2269    -1.3926    14.4503    14.5061    -0.055
    466   -97.9997     34.576    173.000 213301.000     30.000    41.5367     0.0149   -24.9958     0.0002     0.0007    25.0000    10.0000    10.0000    25.0000    25.0000    10.0000    10.0000    25.0000     0.0018    -0.0023    -0.0009    20.7873    41.4530     3.9899     2.2286     2.2285    -1.4003    14.4503    14.5061    -0.055
    467   -98.2020     34.650    165.000 213301.000     30.000    41.5367     0.0149   -24.9958     0.0002     0.0007    25.0000    10.0000    10.0000    25.0000    25.0000    10.0000    10.0000    25.0000     0.0018    -0.0023    -0.0009    20.7872    41.4530     3.9960     2.2302     2.2302    -1.4080    14.4503    14.5061    -0.055
    468   -98.4012     34.653    140.000 213301.000     30.000    41.5367     0.0149   -24.9958     0.0002     0.0007    25.0000    10.0000    10.0000    25.0000    25.0000    10.0000    10.0000    25.0000     0.0018    -0.0023    -0.0010    20.7872    41.4530     4.0020     2.2318     2.2318    -1.4156    14.4503    14.5061    -0.055
    469   -98.5992     34.682    142.000 213301.000     30.000    41.5367     0.0149   -24.9958     0.0002     0.0007    25.0000    10.0000    10.0000    25.0000    25.0000    10.0000    10.0000    25.0000     0.0018    -0.0023    -0.0010    20.7872    41.4530     4.0080     2.2334     2.2334    -1.4232    14.4503    14.5061    -0.055
    470   -98.7979     34.562    150.000 213301.000     30.000    41.5367     0.0149   -24.9958     0.0002     0.0007    25.0000    10.0000    10.0000    25.0000    25.0000    10.0000    10.0000    25.0000     0.0018    -0.0023    -0.0010    20.7871    41.4530     4.0139     2.2350     2.2350    -1.4308    14.4503    14.5061    -0.055
    471   -98.9967     34.681    164.000 213301.000     30.000    41.5367     0.0149   -24.9958     0.0002     0.0007    25.0000    10.0000    10.0000    25.0000    25.0000    10.0000    10.0000    25.0000     0.0018    -0.0023    -0.0010    20.7871    41.4530     4.0199     2.2366     2.2365    -1.4385    14.4503    14.5061    -0.055
    472   -99.1987     34.807    163.000 213301.000     30.000    41.5367     0.0149   -24.9958     0.0002     0.0007    25.0000    10.0000    10.0000    25.0000    25.0000    10.0000    10.0000    25.0000     0.0018    -0.0023    -0.0010    20.7871    41.4530     4.0259     2.2381     2.2381    -1.4462    14.4503    14.5061    -0.055
    473   -99.3989     34.637    152.000 213301.000     30.000    41.5367     0.0149   -24.9958     0.0002     0.0007    25.0000    10.0000    10.0000    25.0000    25.0000    10.0000    10.0000    25.0000     0.0018    -0.0023    -0.0009    20.7871    41.4530     4.0319     2.2396     2.2396    -1.4539    14.4503    14.5061    -0.055
    474   -99.5973     34.638    140.000 213301.000     30.000    41.5367     0.0149   -24.9958     0.0002     0.0007    25.0000    10.0000    10.0000    25.0000    25.0000    10.0000    10.0000    25.0000     0.0018    -0.0023    -0.0009    20.7870    41.4530     4.0378     2.2411     2.2411    -1.4615    14.4503    14.5061    -0.055
    475   -99.8017     34.725    183.000 213301.000     30.000    41.5367     0.0149   -24.9958     0.0002     0.0007    25.0000    10.0000    10.0000    25.0000    25.0000    10.0000    10.0000    25.0000     0.0018    -0.0023    -0.0009    20.7870    41.4530     4.0439     2.2427     2.2426    -1.4694    14.4503    14.5061    -0.055
    476  -100.0032     34.659    153.000 213301.000     30.000    41.5367     0.0149   -24.9958     0.0002     0.0007    25.0000    10.0000    10.0000    25.0000    25.0000    10.0000    10.0000    25.0000     0.0018    -0.0023    -0.0010    20.7870    41.4530     4.0499     2.2441     2.2441    -1.4772    14.4503    14.5061    -0.055
    477  -100.1988     34.664    136.000 213301.000     30.000    41.5367     0.0149   -24.9958     0.0002     0.0007    25.0000    10.0000    10.0000    25.0000    25.0000    10.0000    10.0000    25.0000     0.0018    -0.0023    -0.0010    20.7869    41.4530     4.0557     2.2456     2.2455    -1.4847    14.4503    14.5061    -0.055
    478  -100.3978     34.514    164.000 213301.000     30.000    41.5367     0.0149   -24.9958     0.0002     0.0007    25.0000    10.0000    10.0000    25.0000    25.0000    10.0000    10.0000    25.0000     0.0018    -0.0023    -0.0010    20.7869    41.4530     4.0616     2.2470     2.2470    -1.4924    14.4503    14.5061    -0.055
    479  -100.5962     34.643    154.000 213301.000     30.000    41.5367     0.0149   -24.9958     0.0002     0.0007    25.0000    10.0000    10.0000    25.0000    25.0000    10.0000    10.0000    25.0000     0.0018    -0.0023    -0.0009    20.7868    41.4530     4.0674     2.2484     2.2484    -1.5001    14.4503    14.5061    -0.055
    480  -100.8007     34.524    152.000 213301.000     30.000    41.5367     0.0149   -24.9958     0.0002     0.0007    25.0000    10.0000    10.0000    25.0000    25.0000    10.0000    10.0000    25.0000     0.0018    -0.0023    -0.0010    20.7868    41.4530     4.0734     2.2498     2.2498    -1.5080    14.4503    14.5061    -0.055
    481  -101.0006     34.607    139.000 213301.000     30.000    41.5367     0.0149   -24.9958     0.0002     0.0007    25.0000    10.0000    10.0000    25.0000    25.0000    10.0000    10.0000    25.0000     0.0018    -0.0023    -0.0009    20.7867    41.4530     4.0793     2.2512     2.2512    -1.5157    14.4503    14.5061    -0.055
    482  -101.2005     34.701    146.000 213301.000     30.000    41.5367     0.0149   -24.9958     0.0002     0.0007    25.0000    10.0000    10.0000    25.0000    25.0000    10.0000    10.0000    25.0000     0.0018    -0.0023    -0.0010    20.7869    41.4530     4.0852     2.2525     2.2525    -1.5235    14.4503    14.5061    -0.055
    483  -101.4038     34.497    166.000 213301.000     30.000    41.5367     0.0149   -24.9958     0.0002     0.0007    25.0000    10.0000    10.0000    25.0000    25.0000    10.0000    10.0000    25.0000     0.0018    -0.0023    -0.0010    20.7872    41.4530     4.0911     2.2539     2.2539    -1.5313    14.4503    14.5061    -0.055
    484  -101.5996     34.518    192.000 213301.000     30.000    41.5367     0.0149   -24.9958     0.0002     0.0007    25.0000    10.0000    10.0000    25.0000    25.0000    10.0000    10.0000    25.0000     0.0018    -0.0023    -0.0010    20.7873    41.4530     4.0968     2.2552     2.2552    -1.5389    14.4503    14.5061    -0.055
    485  -101.8008     34.504    147.000 213301.000     30.000    41.5367     0.0149   -24.9958     0.0002     0.0007    25.0000    10.0000    10.0000    25.0000    25.0000    10.0000    10.0000    25.0000     0.0018    -0.0023    -0.0010    20.7874    41.4530     4.1027     2.2565     2.2565    -1.5468    14.4503    14.5061    -0.055
    486  -101.9971     34.602    164.000 213301.000     30.000    41.5367     0.0149   -24.9958     0.0002     0.0007    25.0000    10.0000    10.0000    25.0000    25.0000    10.0000    10.0000    25.0000     0.0018    -0.0023    -0.0010    20.7873    41.4530     4.1084     2.2578     2.2577    -1.5544    14.4503    14.5061    -0.055
    487  -102.1981     34.753    144.000 213301.000     30.000    41.5367     0.0149   -24.9958     0.0002     0.0007    25.0000    10.0000    10.0000    25.0000    25.0000    10.0000    10.0000    25.0000     0.0018    -0.0023    -0.0010    20.7874    41.4530     4.1142     2.2590     2.2590    -1.5622    14.4503    14.5061    -0.055
    488  -102.3979     34.607    147.000 213301.000     30.000    41.5367     0.0149   -24.9958     0.0002     0.0007    25.0000    10.0000    10.0000    25.0000    25.0000    10.0000    10.0000    25.0000     0.0018    -0.0023    -0.0010    20.7874    41.4530     4.1200     2.2603     2.2602    -1.5700    14.4503    14.5061    -0.055
    489  -102.5985     34.641    164.000 213301.000     30.000    41.5367     0.0149   -24.9958     0.0002     0.0007    25.0000    10.0000    10.0000    25.0000    25.0000    10.0000    10.0000    25.0000     0.0018    -0.0023    -0.0010    20.7873    41.4530     4.1258     2.2615     2.2614    -1.5778    14.4503    14.5061    -0.055
    490  -102.7971     34.586    154.000 213301.000     30.000    41.5367     0.0149   -24.9958     0.0002     0.0007    25.0000    10.0000    10.0000    25.0000    25.0000    10.0000    10.0000    25.0000     0.0018    -0.0023    -0.0010    20.7874    41.4530     4.1315     2.2627     2.2626    -1.5856    14.4503    14.5061    -0.055
    491  -103.0038     34.524    169.000 213301.000     30.000    41.5367     0.0149   -24.9958     0.0002     0.0007    25.0000    10.0000    10.0000    25.0000    25.0000    10.0000    10.0000    25.0000     0.0018    -0.0023    -0.0010    20.7873    41.4530     4.1375     2.2639     2.2639    -1.5936    14.4503    14.5061    -0.055
    492  -103.1958     34.511    187.000 213301.000     30.000    41.5367     0.0149   -24.9958     0.0002     0.0007    25.0000    10.0000    10.0000    25.0000    25.0000    10.0000    10.0000    25.0000     0.0018    -0.0023    -0.0010    20.7872    41.4530     4.1430     2.2650     2.2650    -1.6011    14.4503    14.5061    -0.055
    493  -103.4007     34.524    175.000 213301.000     30.000    41.5367     0.0149   -24.9958     0.0002     0.0007    25.0000    10.0000    10.0000    25.0000    25.0000    10.0000    10.0000    25.0000     0.0018    -0.0023    -0.0010    20.7872    41.4530     4.1488     2.2662     2.2662    -1.6091    14.4503    14.5061    -0.055
    494  -103.6006     34.591    174.000 213301.000     30.000    41.5367     0.0149   -24.9958     0.0002     0.0007    25.0000    10.0000    10.0000    25.0000    25.0000    10.0000    10.0000    25.0000     0.0018    -0.0023    -0.0009    20.7874    41.4530     4.1546     2.2673     2.2673    -1.6170    14.4503    14.5061    -0.055
    495  -103.7975     34.478    164.000 213301.000     30.000    41.5367     0.0149   -24.9958     0.0002     0.0007    25.0000    10.0000    10.0000    25.0000    25.0000    10.0000    10.0000    25.0000     0.0018    -0.0023    -0.0009    20.7873    41.4530     4.1602     2.2684     2.2684    -1.6247    14.4503    14.5061    -0.055
    496  -103.9998     34.619    162.000 213301.000     30.000    41.5367     0.0149   -24.9958     0.0002     0.0007    25.0000    10.0000    10.0000    25.0000    25.0000    10.0000    10.0000    25.0000     0.0018    -0.0023    -0.0010    20.7873    41.4530     4.1659     2.2695     2.2695    -1.6326    14.4503    14.5061    -0.055
    497  -104.2007     34.568    182.000 213301.000     30.000    41.5367     0.0149   -24.9958     0.0002     0.0007    25.0000    10.0000    10.0000    25.0000    25.0000    10.0000    10.0000    25.0000     0.0018    -0.0023    -0.0010    20.7873    41.4530     4.1716     2.2706     2.2705    -1.6405    14.4503    14.5061    -0.055
    498  -104.3988     34.636    161.000 213301.000     30.000    41.5367     0.0149   -24.9958     0.0002     0.0007    25.0000    10.0000    10.0000    25.0000    25.0000    10.0000    10.0000    25.0000     0.0018    -0.0023    -0.0010    20.7873    41.4530     4.1772     2.2716     2.2716    -1.6482    14.4503    14.5061    -0.055
    499  -104.5994     34.704    171.000 213301.000     30.000    41.5367     0.0149   -24.9958     0.0002     0.0007    25.0000    10.0000    10.0000    25.0000    25.0000    10.0000    10.0000    25.0000     0.0018    -0.0023    -0.0010    20.7873    41.4530     4.1829     2.2726     2.2726    -1.6561    14.4503    14.5061    -0.055
    500  -104.8033     34.527    171.000 213301.000     30.000    41.5367     0.0149   -24.9958     0.0002     0.0007    25.0000    10.0000    10.0000    25.0000    25.0000    10.0000    10.0000    25.0000     0.0018    -0.0023    -0.0010    20.7874    41.4530     4.1886     2.2737     2.2736    -1.6641    14.4503    14.5061    -0.055
    501  -105.0006     34.625    177.000 213301.000     30.000    41.5367     0.0149   -24.9958     0.0002     0.0007    25.0000    10.0000    10.0000    25.0000    25.0000    10.0000    10.0000    25.0000     0.0018    -0.0023    -0.0010    20.7874    41.4530     4.1942     2.2747     2.2746    -1.6719    14.4503    14.5061    -0.055
    502  -105.1996     34.603    174.000 213301.000     30.000    41.5367     0.0149   -24.9958     0.0002     0.0007    25.0000    10.0000    10.0000    25.0000    25.0000    10.0000    10.0000    25.0000     0.0018    -0.0023    -0.0010    20.7873    41.4530     4.1998     2.2756     2.2756    -1.6797    14.4503    14.5061    -0.055
    503  -105.3980     34.686    195.000 213301.000     30.000    41.5367     0.0149   -24.9958     0.0002     0.0007    25.0000    10.0000    10.0000    25.0000    25.0000    10.0000    10.0000    25.0000     0.0018    -0.0023    -0.0009    20.7874    41.4530     4.2053     2.2766     2.2765    -1.6875    14.4503    14.5061    -0.055
    504  -105.5983     34.704    168.000 213301.000     30.000    41.5367     0.0149   -24.9958     0.0002     0.0007    25.0000    10.0000    10.0000    25.0000    25.0000    10.0000    10.0000    25.0000     0.0018    -0.0023    -0.0010    20.7874    41.4530     4.2109     2.2775     2.2775    -1.6954    14.4503    14.5061    -0.055
    505  -105.7980     34.584    163.000 213301.000     30.000    41.5367     0.0149   -24.9958     0.0002     0.0007    25.0000    10.0000    10.0000    25.0000    25.0000    10.0000    10.0000    25.0000     0.0018    -0.0023    -0.0010    20.7874    41.4530     4.2165     2.2784     2.2784    -1.7032    14.4503    14.5061    -0.055
    506  -105.9988     34.518    189.000 213301.000     30.000    41.5367     0.0149   -24.9958     0.0002     0.0007    25.0000    10.0000    10.0000    25.0000    25.0000    10.0000    10.0000    25.0000     0.0018    -0.0023    -0.0010    20.7874    41.4530     4.2221     2.2793     2.2793    -1.7112    14.4503    14.5061    -0.055
    507  -106.2007     34.646    157.000 213301.000     30.000    41.5367     0.0149   -24.9958     0.0002     0.0007    25.0000    10.0000    10.0000    25.0000    25.0000    10.0000    10.0000    25.0000     0.0018    -0.0023    -0.0009    20.7874    41.4530     4.2277     2.2802     2.2801    -1.7191    14.4503    14.5061    -0.055
    508  -106.4024     34.709    167.000 213301.000     30.000    41.5367     0.0149   -24.9958     0.0002     0.0007    25.0000    10.0000    10.0000    25.0000    25.0000    10.0000    10.0000    25.0000     0.0018    -0.0023    -0.0010    20.7874    41.4530     4.2332     2.2810     2.2810    -1.7271    14.4503    14.5061    -0.055
    509  -106.6023     34.532    159.000 213301.000     30.000    41.5367     0.0149   -24.9958     0.0002     0.0007    25.0000    10.0000    10.0000    25.0000    25.0000    10.0000    10.0000    25.0000     0.0018    -0.0023    -0.0010    20.7873    41.4530     4.2388     2.2819     2.2818    -1.7350    14.4503    14.5061    -0.055
    510  -106.7998     34.555    177.000 213301.000     30.000    41.5367     0.0149   -24.9958     0.0002     0.0007    25.0000    10.0000    10.0000    25.0000    25.0000    10.0000    10.0000    25.0000     0.0018    -0.0023    -0.0009    20.7873    41.4530     4.2442     2.2827     2.2826    -1.7428    14.4503    14.5061    -0.055
    511  -106.9981     34.596    171.000 213301.000     30.000    41.5367     0.0149   -24.9958     0.0002     0.0007    25.0000    10.0000    10.0000    25.0000    25.0000    10.0000    10.0000    25.0000     0.0018    -0.0023    -0.0009    20.7873    41.4530     4.2496     2.2835     2.2834    -1.7506    14.4503    14.5061    -0.055
    512  -107.1991     34.681    164.000 213301.000     30.000    41.5367     0.0149   -24.9958     0.0002     0.0007    25.0000    10.0000    10.0000    25.0000    25.0000    10.0000    10.0000    25.0000     0.0018    -0.0023    -0.0010    20.7873    41.4530     4.2552     2.2842     2.2842    -1.7586    14.4503    14.5061    -0.055
    513  -107.4028     34.572    188.000 213301.000     30.000    41.5367     0.0149   -24.9958     0.0002     0.0007    25.0000    10.0000    10.0000    25.0000    25.0000    10.0000    10.0000    25.0000     0.0018    -0.0023    -0.0010    20.7873    41.4530     4.2607     2.2850     2.2850    -1.7666    14.4503    14.5061    -0.055
    514  -107.5996     34.556    181.000 213301.000     30.000    41.5367     0.0149   -24.9958     0.0002     0.0007    25.0000    10.0000    10.0000    25.0000    25.0000    10.0000    10.0000    25.0000     0.0018    -0.0023    -0.0010    20.7873    41.4530     4.2661     2.2857     2.2857    -1.7744    14.4503    14.5061    -0.055
    515  -107.8031     34.498    179.000 213301.000     30.000    41.5367     0.0149   -24.9958     0.0002     0.0007    25.0000    10.0000    10.0000    25.0000    25.0000    10.0000    10.0000    25.0000     0.0018    -0.0023    -0.0010    20.7873    41.4530     4.2716     2.2865     2.2864    -1.7825    14.4503    14.5061    -0.055
    516  -107.9953     34.652    212.000 213301.000     30.000    41.5367     0.0149   -24.9958     0.0002     0.0007    25.0000    10.0000    10.0000    25.0000    25.0000    10.0000    10.0000    25.0000     0.0018    -0.0023    -0.0010    20.7873    41.4530     4.2768     2.2871     2.2871    -1.7901    14.4503    14.5061    -0.055
    517  -108.1993     34.559    230.000 213301.000     30.000    41.5367     0.0149   -24.9958     0.0002     0.0007    25.0000    10.0000    10.0000    25.0000    25.0000    10.0000    10.0000    25.0000     0.0018    -0.0023    -0.0010    20.7873    41.4530     4.2824     2.2878     2.2878    -1.7982    14.4503    14.5061    -0.055
    518  -108.3998     34.629    213.000 213301.000     30.000    41.5367     0.0149   -24.9958     0.0002     0.0007    25.0000    10.0000    10.0000    25.0000    25.0000    10.0000    10.0000    25.0000     0.0018    -0.0023    -0.0010    20.7873    41.4530     4.2878     2.2885     2.2884    -1.8061    14.4503    14.5061    -0.055
    519  -108.5988     34.516    247.000 213301.000     30.000    41.5367     0.0149   -24.9958     0.0002     0.0007    25.0000    10.0000    10.0000    25.0000    25.0000    10.0000    10.0000    25.0000     0.0018    -0.0023    -0.0010    20.7873    41.4531     4.2932     2.2891     2.2891    -1.8140    14.4503    14.5061    -0.055
    520  -108.7973     34.483    250.000 213301.000     30.000    41.5367     0.0149   -24.9958     0.0002     0.0007    25.0000    10.0000    10.0000    25.0000    25.0000    10.0000    10.0000    25.0000     0.0018    -0.0023    -0.0009    20.7873    41.4530     4.2985     2.2897     2.2897    -1.8219    14.4503    14.5061    -0.055
    521  -108.9973     34.708    301.000 213301.000     30.000    41.5367     0.0149   -24.9958     0.0002     0.0007    25.0000    10.0000    10.0000    25.0000    25.0000    10.0000    10.0000    25.0000     0.0018    -0.0023    -0.0010    20.7873    41.4530     4.3039     2.2903     2.2903    -1.8298    14.4503    14.5061    -0.055
    522  -109.1996     34.566    319.000 213301.000     30.000    41.5367     0.0149   -24.9958     0.0002     0.0007    25.0000    10.0000    10.0000    25.0000    25.0000    10.0000    10.0000    25.0000     0.0018    -0.0023    -0.0010    20.7873    41.4530     4.3093     2.2909     2.2909    -1.8378    14.4503    14.5061    -0.055
    523  -109.3991     34.637    476.000 213301.000     30.000    41.5367     0.0149   -24.9958     0.0002     0.0007    25.0000    10.0000    10.0000    25.0000    25.0000    10.0000    10.0000    25.0000     0.0018    -0.0023    -0.0009    20.7873    41.4531     4.3146     2.2915     2.2914    -1.8458    14.4503    14.5061    -0.055
    524  -109.6043     34.561    795.000 213301.000     30.000    41.5367     0.0149   -24.9958     0.0002     0.0007    25.0000    10.0000    10.0000    25.0000    25.0000    10.0000    10.0000    25.0000     0.0018    -0.0023    -0.0009    20.7873    41.4531     4.3201     2.2920     2.2920    -1.8539    14.4503    14.5061    -0.055
    525  -109.7966     34.440   1371.000 213301.000     30.000    41.5367     0.0149   -24.9958     0.0002     0.0007    25.0000    10.0000    10.0000    25.0000    25.0000    10.0000    10.0000    25.0000     0.0018    -0.0023    -0.0010    20.7873    41.4531     4.3252     2.2925     2.2925    -1.8616    14.4503    14.5061    -0.055
    526  -110.0010     34.629   2596.000 213301.000     30.000    41.5367     0.0149   -24.9958     0.0002     0.0007    25.0000    10.0000    10.0000    25.0000    25.0000    10.0000    10.0000    25.0000     0.0018    -0.0023    -0.0010    20.7872    41.4531     4.3306     2.2931     2.2930    -1.8697    14.4503    14.5061    -0.055
    527  -110.1994     34.710   4579.000 213301.000     30.000    41.5367     0.0149   -24.9958     0.0002     0.0007    25.0000    10.0000    10.0000    25.0000    25.0000    10.0000    10.0000    25.0000     0.0018    -0.0023    -0.0010    20.7872    41.4531     4.3358     2.2935     2.2935    -1.8776    14.4503    14.5061    -0.055
    528  -110.3989     34.512   6706.000 213301.000     30.000    41.5367     0.0149   -24.9958     0.0002     0.0007    25.0000    10.0000    10.0000    25.0000    25.0000    10.0000    10.0000    25.0000     0.0018    -0.0023    -0.0009    20.7872    41.4530     4.3411     2.2940     2.2939    -1.8855    14.4503    14.5061    -0.055
    529  -110.5993     34.660   9075.000 213301.000     30.000    41.5367     0.0149   -24.9958     0.0002     0.0007    25.0000    10.0000    10.0000    25.0000    25.0000    10.0000    10.0000    25.0000     0.0018    -0.0023    -0.0010    20.7871    41.4530     4.3464     2.2944     2.2944    -1.8935    14.4503    14.5061    -0.055
    530  -110.7998     34.708  11431.000 213301.000     30.000    41.5367     0.0149   -24.9958     0.0002     0.0007    25.0000    10.0000    10.0000    25.0000    25.0000    10.0000    10.0000    25.0000     0.0018    -0.0023    -0.0010    20.7871    41.4530     4.3516     2.2949     2.2948    -1.9015    14.4503    14.5061    -0.055
    531  -110.9991     34.466  13963.000 213301.000     30.000    41.5367     0.0149   -24.9958     0.0002     0.0007    25.0000    10.0000    10.0000    25.0000    25.0000    10.0000    10.0000    25.0000     0.0018    -0.0023    -0.0009    20.7871    41.4530     4.3568     2.2953     2.2952    -1.9094    14.4503    14.5061    -0.055
    532  -111.2015     34.483  15907.000 213301.000     30.000    41.5367     0.0149   -24.9958     0.0002     0.0007    25.0000    10.0000    10.0000    25.0000    25.0000    10.0000    10.0000    25.0000     0.0018    -0.0023    -0.0010    20.7871    41.4530     4.3621     2.2957     2.2956    -1.9175    14.4503    14.5061    -0.055
    533  -111.4033     34.697  17805.000 213301.000     30.000    41.5367     0.0149   -24.9958     0.0002     0.0007    25.0000    10.0000    10.0000    25.0000    25.0000    10.0000    10.0000    25.0000     0.0018    -0.0023    -0.0010    20.7871    41.4530     4.3674     2.2960     2.2960    -1.9255    14.4503    14.5061    -0.055
    534  -111.6011     34.502  19301.000 213301.000     30.000    41.5367     0.0149   -24.9958     0.0002     0.0007    25.0000    10.0000    10.0000    25.0000    25.0000    10.0000    10.0000    25.0000     0.0018    -0.0023    -0.0010    20.7871    41.4530     4.3725     2.2964     2.2963    -1.9334    14.4503    14.5061    -0.055
    535  -111.7999     34.649  20664.000 213301.000     30.000    41.5367     0.0149   -24.9958     0.0002     0.0007    25.0000    10.0000    10.0000    25.0000    25.0000    10.0000    10.0000    25.0000     0.0018    -0.0023    -0.0010    20.7871    41.4530     4.3776     2.2967     2.2966    -1.9413    14.4503    14.5061    -0.055
    536  -111.9977     34.531  21394.000 213301.000     30.000    41.5367     0.0149   -24.9958     0.0002     0.0007    25.0000    10.0000    10.0000    25.0000    25.0000    10.0000    10.0000    25.0000     0.0018    -0.0023    -0.0009    20.7872    41.4530     4.3828     2.2970     2.2969    -1.9492    14.4503    14.5061    -0.055
    537  -112.1969     34.497  21669.000 213301.000     30.000    41.5367     0.0149   -24.9958     0.0002     0.0007    25.0000    10.0000    10.0000    25.0000    25.0000    10.0000    10.0000    25.0000     0.0018    -0.0023    -0.0009    20.7871    41.4530     4.3879     2.2973     2.2972    -1.9571    14.4503    14.5061    -0.055
    538  -112.3989     34.508  21034.000 213301.000     30.000    41.5367     0.0149   -24.9958     0.0002     0.0007    25.0000    10.0000    10.0000    25.0000    25.0000    10.0000    10.0000    25.0000     0.0018    -0.0023    -0.0010    20.7871    41.4530     4.3931     2.2975     2.2975    -1.9652    14.4503    14.5061    -0.055
    539  -112.5981     34.688  20438.000 213301.000     30.000    41.5367     0.0149   -24.9958     0.0002     0.0007    25.0000    10.0000    10.0000    25.0000    25.0000    10.0000    10.0000    25.0000     0.0018    -0.0023    -0.0009    20.7873    41.4530     4.3982     2.2978     2.2977    -1.9731    14.4503    14.5061    -0.055
    540  -112.8008     34.516  19249.000 213301.000     30.000    41.5367     0.0149   -24.9958     0.0002     0.0007    25.0000    10.0000    10.0000    25.0000    25.0000    10.0000    10.0000    25.0000     0.0018    -0.0023    -0.0010    20.7872    41.4530     4.4034     2.2980     2.2980    -1.9812    14.4503    14.5061    -0.055
    541  -113.0019     34.544  17731.000 213301.000     30.000    41.5367     0.0149   -24.9958     0.0002     0.0007    25.0000    10.0000    10.0000    25.0000    25.0000    10.0000    10.0000    25.0000     0.0018    -0.0023    -0.0009    20.7872    41.4530     4.4085     2.2982     2.2982    -1.9892    14.4503    14.5061    -0.055
    542  -113.2017     34.512  16344.000 213301.000     30.000    41.5367     0.0149   -24.9958     0.0002     0.0007    25.0000    10.0000    10.0000    25.0000    25.0000    10.0000    10.0000    25.0000     0.0018    -0.0023    -0.0010    20.7872    41.4530     4.4136     2.2984     2.2984    -1.9972    14.4503    14.5061    -0.055
    543  -113.3980     34.624  14598.000 213301.000     30.000    41.5367     0.0149   -24.9958     0.0002     0.0007    25.0000    10.0000    10.0000    25.0000    25.0000    10.0000    10.0000    25.0000     0.0018    -0.0023    -0.0009    20.7872    41.4530     4.4186     2.2986     2.2985    -2.0050    14.4503    14.5061    -0.055
    544  -113.5984     34.516  12532.000 213301.000     30.000    41.5367     0.0149   -24.9958     0.0002     0.0007    25.0000    10.0000    10.0000    25.0000    25.0000    10.0000    10.0000    25.0000     0.0018    -0.0023    -0.0010    20.7872    41.4530     4.4236     2.2987     2.2987    -2.0130    14.4503    14.5061    -0.055
    545  -113.7970     34.603  10912.000 213301.000     30.000    41.5367     0.0149   -24.9958     0.0002     0.0007    25.0000    10.0000    10.0000    25.0000    25.0000    10.0000    10.0000    25.0000     0.0018    -0.0023    -0.0009    20.7872    41.4530     4.4286     2.2988     2.2988    -2.0210    14.4503    14.5061    -0.055
    546  -114.0001     34.658   8878.000 213301.000     30.000    41.5367     0.0149   -24.9958     0.0002     0.0007    25.0000    10.0000    10.0000    25.0000    25.0000    10.0000    10.0000    25.0000     0.0018    -0.0023    -0.0010    20.7871    41.4530     4.4337     2.2990     2.2989    -2.0291    14.4503    14.5061    -0.055
    547  -114.1995     34.429   6962.000 213301.000     30.000    41.5367     0.0149   -24.9958     0.0002     0.0007    25.0000    10.0000    10.0000    25.0000    25.0000    10.0000    10.0000    25.0000     0.0018    -0.0023    -0.0010    20.7871    41.4530     4.4387     2.2990     2.2990    -2.0370    14.4503    14.5061    -0.055
    548  -114.4029     34.439   5347.000 213301.000     30.000    41.5367     0.0149   -24.9958     0.0002     0.0007    25.0000    10.0000    10.0000    25.0000    25.0000    10.0000    10.0000    25.0000     0.0018    -0.0023    -0.0010    20.7870    41.4530     4.4438     2.2991     2.2991    -2.0451    14.4503    14.5061    -0.055
    549  -114.5946     34.558   3817.000 213301.000     30.000    41.5367     0.0149   -24.9958     0.0002     0.0007    25.0000    10.0000    10.0000    25.0000    25.0000    10.0000    10.0000    25.0000     0.0018    -0.0023    -0.0009    20.7870    41.4530     4.4486     2.2992     2.2991    -2.0528    14.4503    14.5061    -0.055
    550  -114.8026     34.675   2651.000 213301.000     30.000    41.5367     0.0149   -24.9958     0.0002     0.0007    25.0000    10.0000    10.0000    25.0000    25.0000    10.0000    10.0000    25.0000     0.0018    -0.0023    -0.0010    20.7869    41.4530     4.4538     2.2992     2.2991    -2.0611    14.4503    14.5061    -0.055
    551  -115.0004     34.751   1724.000 213301.000     30.000    41.5367     0.0149   -24.9958     0.0002     0.0007    25.0000    10.0000    10.0000    25.0000    25.0000    10.0000    10.0000    25.0000     0.0018    -0.0023    -0.0010    20.7868    41.4530     4.4587     2.2992     2.2992    -2.0690    14.4503    14.5061    -0.055
    552  -115.1993     34.592   1072.000 213301.000     30.000    41.5367     0.0149   -24.9958     0.0002     0.0007    25.0000    10.0000    10.0000    25.0000    25.0000    10.0000    10.0000    25.0000     0.0018    -0.0023    -0.0009    20.7871    41.4530     4.4636     2.2992     2.2991    -2.0769    14.4503    14.5061    -0.055
    553  -115.3971     34.614    762.000 213301.000     30.000    41.5367     0.0149   -24.9958     0.0002     0.0007    25.0000    10.0000    10.0000    25.0000    25.0000    10.0000    10.0000    25.0000     0.0018    -0.0023    -0.0010    20.7870    41.4530     4.4685     2.2992     2.2991    -2.0848    14.4503    14.5061    -0.055
    554  -115.5982     34.807    500.000 213301.000     30.000    41.5367     0.0149   -24.9958     0.0002     0.0007    25.0000    10.0000    10.0000    25.0000    25.0000    10.0000    10.0000    25.0000     0.0018    -0.0023    -0.0010    20.7871    41.4530     4.4735     2.2991     2.2991    -2.0929    14.4503    14.5061    -0.055
    555  -115.7978     34.747    373.000 213301.000     30.000    41.5367     0.0149   -24.9958     0.0002     0.0007    25.0000    10.0000    10.0000    25.0000    25.0000    10.0000    10.0000    25.0000     0.0018    -0.0023    -0.0009    20.7870    41.4530     4.4784     2.2990     2.2990    -2.1008    14.4503    14.5061    -0.055
    556  -116.0007     34.535    347.000 213301.000     30.000    41.5367     0.0149   -24.9958     0.0002     0.0007    25.0000    10.0000    10.0000    25.0000    25.0000    10.0000    10.0000    25.0000     0.0018    -0.0023    -0.0009    20.7870    41.4531     4.4833     2.2990     2.2989    -2.1089    14.4503    14.5061    -0.055
    557  -116.2038     34.583    269.000 213301.000     30.000    41.5367     0.0149   -24.9958     0.0002     0.0007    25.0000    10.0000    10.0000    25.0000    25.0000    10.0000    10.0000    25.0000     0.0018    -0.0023    -0.0009    20.7870    41.4531     4.4883     2.2988     2.2988    -2.1170    14.4503    14.5061    -0.055
    558  -116.4048     34.553    273.000 213301.000     30.000    41.5367     0.0149   -24.9958     0.0002     0.0007    25.0000    10.0000    10.0000    25.0000    25.0000    10.0000    10.0000    25.0000     0.0018    -0.0023    -0.0010    20.7870    41.4530     4.4932     2.2987     2.2987    -2.1250    14.4503    14.5061    -0.055
    559  -116.6016     34.514    228.000 213301.000     30.000    41.5367     0.0149   -24.9958     0.0002     0.0007    25.0000    10.0000    10.0000    25.0000    25.0000    10.0000    10.0000    25.0000     0.0018    -0.0023    -0.0010    20.7870    41.4530     4.4980     2.2986     2.2985    -2.1329    14.4503    14.5061    -0.055
    560  -116.7988     34.536    197.000 213301.000     30.000    41.5367     0.0149   -24.9958     0.0002     0.0007    25.0000    10.0000    10.0000    25.0000    25.0000    10.0000    10.0000    25.0000     0.0018    -0.0023    -0.0010    20.7870    41.4531     4.5027     2.2984     2.2983    -2.1408    14.4503    14.5061    -0.055
    561  -116.9977     34.624    184.000 213301.000     30.000    41.5367     0.0149   -24.9958     0.0002     0.0007    25.0000    10.0000    10.0000    25.0000    25.0000    10.0000    10.0000    25.0000     0.0018    -0.0023    -0.0010    20.7870    41.4531     4.5075     2.2982     2.2982    -2.1487    14.4503    14.5061    -0.055
    562  -117.2006     34.477    206.000 213301.000     30.000    41.5367     0.0149   -24.9958     0.0002     0.0007    25.0000    10.0000    10.0000    25.0000    25.0000    10.0000    10.0000    25.0000     0.0018    -0.0023    -0.0010    20.7870    41.4530     4.5124     2.2980     2.2980    -2.1568    14.4503    14.5061    -0.055
    563  -117.4006     34.582    221.000 213301.000     30.000    41.5367     0.0149   -24.9958     0.0002     0.0007    25.0000    10.0000    10.0000    25.0000    25.0000    10.0000    10.0000    25.0000     0.0018    -0.0023    -0.0010    20.7871    41.4530     4.5172     2.2978     2.2977    -2.1648    14.4503    14.5061    -0.055
    564  -117.5981     34.569    196.000 213301.000     30.000    41.5367     0.0149   -24.9958     0.0002     0.0007    25.0000    10.0000    10.0000    25.0000    25.0000    10.0000    10.0000    25.0000     0.0018    -0.0023    -0.0010    20.7871    41.4531     4.5220     2.2975     2.2975    -2.1726    14.4503    14.5061    -0.055
    565  -117.8013     34.596    185.000 213301.000     30.000    41.5367     0.0149   -24.9958     0.0002     0.0007    25.0000    10.0000    10.0000    25.0000    25.0000    10.0000    10.0000    25.0000     0.0018    -0.0023    -0.0010    20.7871    41.4531     4.5268     2.2973     2.2972    -2.1807    14.4503    14.5061    -0.055
    566  -118.0026     34.492    191.000 213301.000     30.000    41.5367     0.0149   -24.9958     0.0002     0.0007    25.0000    10.0000    10.0000    25.0000    25.0000    10.0000    10.0000    25.0000     0.0018    -0.0023    -0.0010    20.7871    41.4530     4.5316     2.2970     2.2969    -2.1888    14.4503    14.5061    -0.055
    567  -118.1993     34.490    205.000 213301.000     30.000    41.5367     0.0149   -24.9958     0.0002     0.0007    25.0000    10.0000    10.0000    25.0000    25.0000    10.0000    10.0000    25.0000     0.0018    -0.0023    -0.0009    20.7871    41.4530     4.5363     2.2967     2.2966    -2.1966    14.4503    14.5061    -0.055
    568  -118.3996     34.538    190.000 213301.000     30.000    41.5367     0.0149   -24.9958     0.0002     0.0007    25.0000    10.0000    10.0000    25.0000    25.0000    10.0000    10.0000    25.0000     0.0018    -0.0023    -0.0010    20.7871    41.4531     4.5410     2.2963     2.2963    -2.2046    14.4503    14.5061    -0.055
    569  -118.5999     34.515    203.000 213301.000     30.000    41.5367     0.0149   -24.9958     0.0002     0.0007    25.0000    10.0000    10.0000    25.0000    25.0000    10.0000    10.0000    25.0000     0.0018    -0.0023    -0.0010    20.7871    41.4530     4.5457     2.2960     2.2960    -2.2126    14.4503    14.5061    -0.055
    570  -118.7993     34.454    211.000 213301.000     30.000    41.5367     0.0149   -24.9958     0.0002     0.0007    25.0000    10.0000    10.0000    25.0000    25.0000    10.0000    10.0000    25.0000     0.0018    -0.0023    -0.0010    20.7869    41.4530     4.5504     2.2956     2.2956    -2.2205    14.4503    14.5061    -0.055
    571  -118.9983     34.545    262.000 213301.000     30.000    41.5367     0.0149   -24.9958     0.0002     0.0007    25.0000    10.0000    10.0000    25.0000    25.0000    10.0000    10.0000    25.0000     0.0018    -0.0023    -0.0009    20.7870    41.4530     4.5551     2.2953     2.2952    -2.2284    14.4503    14.5061    -0.055
    572  -119.1969     34.490    333.000 213301.000     30.000    41.5367     0.0149   -24.9958     0.0002     0.0007    25.0000    10.0000    10.0000    25.0000    25.0000    10.0000    10.0000    25.0000     0.0018    -0.0023    -0.0010    20.7869    41.4530     4.5597     2.2949     2.2948    -2.2364    14.4503    14.5061    -0.055
    573  -119.3992     34.573    575.000 213301.000     30.000    41.5367     0.0149   -24.9958     0.0002     0.0007    25.0000    10.0000    10.0000    25.0000    25.0000    10.0000    10.0000    25.0000     0.0018    -0.0023    -0.0010    20.7869    41.4531     4.5644     2.2944     2.2944    -2.2444    14.4503    14.5061    -0.055
    574  -119.6032     34.588    884.000 213301.000     30.000    41.5367     0.0149   -24.9958     0.0002     0.0007    25.0000    10.0000    10.0000    25.0000    25.0000    10.0000    10.0000    25.0000     0.0018    -0.0023    -0.0009    20.7868    41.4531     4.5692     2.2940     2.2939    -2.2525    14.4503    14.5061    -0.055
    575  -119.8001     34.580   1320.000 213301.000     30.000    41.5367     0.0149   -24.9958     0.0002     0.0007    25.0000    10.0000    10.0000    25.0000    25.0000    10.0000    10.0000    25.0000     0.0018    -0.0024    -0.0009    20.7868    41.4531     4.5737     2.2935     2.2935    -2.2604    14.4503    14.5061    -0.055
    576  -119.9982     34.558   1829.000 213301.000     30.000    41.5367     0.0149   -24.9958     0.0002     0.0007    25.0000    10.0000    10.0000    25.0000    25.0000    10.0000    10.0000    25.0000     0.0018    -0.0023    -0.0010    20.7870    41.4530     4.5783     2.2930     2.2930    -2.2682    14.4503    14.5061    -0.055
# Sum of Counts = 1328224
# Center of Mass = -78.627460+/-0.099590
# Full Width Half-Maximum = 56.888031+/-0.051468
# 12:31:13 AM  5/24/2023   scan completed.
