# scan = 28
# date = 5/24/2023
# time = 6:21:56 AM
# proposal = 9879
# experiment = HB-1A  -Instrument time
# experiment_number = 978
# command = scan s2 -5 -120 0.2 preset mcu 30
# builtin_command = scan s2 -5 -120 0.2 preset mcu 30
# users = Feng Ye, John Carruth, Adam Aczel, Songxue Chi, Jaime Fernandez-Baca, Masaaki Matsuda, Tao Hong, Travis Williams, Wei Tian, Michael Cox
# local_contact = Wei Tian, Adam Aczel
# scan_title = Si powder elastic config, 40' S-A coll, 80' A-D colli, third
# monochromator = PG002
# analyzer = Pg002
# sense = +-+
# collimation = 40-40-40-80
# samplename = Si powdre, Si crystal, FeGa alloy, La2Ni7 crystal, Ba2.8Sr0.2CoSn2O9 crystal
# sampletype = crystal
# samplemosaic = 30.000000
# latticeconstants = 5.431000,5.431000,5.431000,90.000000,90.000000,90.000000
# ubmatrix = 0.130198,0.130198,-0.000000,-0.000000,-0.000000,0.184128,0.130198,-0.130198,-0.000000
# mode = 0
# plane_normal = 0.000000,0.000000,1.000000
# ubconf = UB23May2023_31856PM.ini
# preset_type = normal 
# preset_channel = mcu
# preset_value = 30.000000
# def_x = s2
# def_y = detector
# col_headers = 
#   Pt.         s2       time   detector    monitor        mcu         m2   rad_coll         s1        sgl        sgu   slitb_bt   slitb_lf   slitb_rt   slitb_tp   slita_bt   slita_lf   slita_rt   slita_tp        stl        stu         sz         a1         a2          q          h          k          l         ei         ef          e
      1    -5.0007     34.048   1955.000 213301.000     30.000    41.5367     0.0149   -24.9958     0.0002     0.0007    25.0000    10.0000    10.0000    25.0000    25.0000    10.0000    10.0000    25.0000     0.0018    -0.0023    -0.0009    20.7915    41.4530     0.2307     0.1290     0.1290     0.0803    14.4503    14.5061    -0.055
      2    -5.2005     33.995   1827.000 213301.000     30.000    41.5367     0.0149   -24.9958     0.0002     0.0007    25.0000    10.0000    10.0000    25.0000    25.0000    10.0000    10.0000    25.0000     0.0018    -0.0023    -0.0009    20.7906    41.4531     0.2399     0.1344     0.1344     0.0830    14.4503    14.5060    -0.055
      3    -5.4003     34.082   1648.000 213301.000     30.000    41.5367     0.0149   -24.9958     0.0002     0.0007    25.0000    10.0000    10.0000    25.0000    25.0000    10.0000    10.0000    25.0000     0.0018    -0.0023    -0.0009    20.7901    41.4531     0.2491     0.1397     0.1397     0.0857    14.4503    14.5061    -0.055
      4    -5.5993     34.135   1630.000 213301.000     30.000    41.5367     0.0149   -24.9958     0.0002     0.0007    25.0000    10.0000    10.0000    25.0000    25.0000    10.0000    10.0000    25.0000     0.0018    -0.0023    -0.0009    20.7898    41.4531     0.2583     0.1450     0.1450     0.0884    14.4503    14.5061    -0.055
      5    -5.7980     33.930   1566.000 213301.000     30.000    41.5367     0.0149   -24.9958     0.0002     0.0007    25.0000    10.0000    10.0000    25.0000    25.0000    10.0000    10.0000    25.0000     0.0018    -0.0023    -0.0009    20.7896    41.4530     0.2674     0.1502     0.1502     0.0910    14.4503    14.5061    -0.055
      6    -5.9990     33.817   1533.000 213301.000     30.000    41.5367     0.0149   -24.9958     0.0002     0.0007    25.0000    10.0000    10.0000    25.0000    25.0000    10.0000    10.0000    25.0000     0.0018    -0.0023    -0.0009    20.7894    41.4530     0.2767     0.1556     0.1556     0.0936    14.4503    14.5061    -0.055
      7    -6.2003     34.001   1487.000 213301.000     30.000    41.5367     0.0149   -24.9958     0.0002     0.0007    25.0000    10.0000    10.0000    25.0000    25.0000    10.0000    10.0000    25.0000     0.0018    -0.0023    -0.0009    20.7892    41.4530     0.2860     0.1610     0.1610     0.0962    14.4503    14.5061    -0.055
      8    -6.3990     33.953   1457.000 213301.000     30.000    41.5367     0.0149   -24.9958     0.0002     0.0007    25.0000    10.0000    10.0000    25.0000    25.0000    10.0000    10.0000    25.0000     0.0018    -0.0023    -0.0009    20.7891    41.4530     0.2951     0.1663     0.1663     0.0988    14.4503    14.5061    -0.055
      9    -6.5991     33.895   1361.000 213301.000     30.000    41.5367     0.0149   -24.9958     0.0002     0.0007    25.0000    10.0000    10.0000    25.0000    25.0000    10.0000    10.0000    25.0000     0.0018    -0.0023    -0.0009    20.7890    41.4530     0.3043     0.1717     0.1717     0.1013    14.4503    14.5061    -0.055
     10    -6.8011     34.015   1267.000 213301.000     30.000    41.5367     0.0149   -24.9958     0.0002     0.0007    25.0000    10.0000    10.0000    25.0000    25.0000    10.0000    10.0000    25.0000     0.0018    -0.0023    -0.0009    20.7889    41.4530     0.3136     0.1771     0.1771     0.1038    14.4503    14.5061    -0.055
     11    -6.9979     34.007   1197.000 213301.000     30.000    41.5367     0.0149   -24.9958     0.0002     0.0007    25.0000    10.0000    10.0000    25.0000    25.0000    10.0000    10.0000    25.0000     0.0018    -0.0023    -0.0009    20.7889    41.4530     0.3227     0.1823     0.1823     0.1063    14.4503    14.5061    -0.055
     12    -7.2006     33.925   1252.000 213301.000     30.000    41.5367     0.0149   -24.9958     0.0002     0.0007    25.0000    10.0000    10.0000    25.0000    25.0000    10.0000    10.0000    25.0000     0.0018    -0.0023    -0.0009    20.7888    41.4530     0.3320     0.1878     0.1878     0.1088    14.4503    14.5061    -0.055
     13    -7.3972     34.100   1134.000 213301.000     30.000    41.5367     0.0149   -24.9958     0.0002     0.0007    25.0000    10.0000    10.0000    25.0000    25.0000    10.0000    10.0000    25.0000     0.0018    -0.0023    -0.0009    20.7888    41.4530     0.3411     0.1931     0.1931     0.1112    14.4503    14.5061    -0.055
     14    -7.5975     33.979   1162.000 213301.000     30.000    41.5367     0.0149   -24.9958     0.0002     0.0007    25.0000    10.0000    10.0000    25.0000    25.0000    10.0000    10.0000    25.0000     0.0018    -0.0023    -0.0009    20.7887    41.4530     0.3503     0.1985     0.1985     0.1136    14.4503    14.5061    -0.055
     15    -7.7973     34.025   1068.000 213301.000     30.000    41.5367     0.0149   -24.9958     0.0002     0.0007    25.0000    10.0000    10.0000    25.0000    25.0000    10.0000    10.0000    25.0000     0.0018    -0.0023    -0.0009    20.7886    41.4530     0.3595     0.2038     0.2039     0.1159    14.4503    14.5061    -0.055
     16    -7.9979     34.029   1106.000 213301.000     30.000    41.5367     0.0149   -24.9958     0.0002     0.0007    25.0000    10.0000    10.0000    25.0000    25.0000    10.0000    10.0000    25.0000     0.0018    -0.0023    -0.0009    20.7886    41.4530     0.3687     0.2093     0.2093     0.1183    14.4503    14.5061    -0.055
     17    -8.1994     34.043   1069.000 213301.000     30.000    41.5367     0.0149   -24.9958     0.0002     0.0007    25.0000    10.0000    10.0000    25.0000    25.0000    10.0000    10.0000    25.0000     0.0018    -0.0023    -0.0009    20.7885    41.4530     0.3780     0.2147     0.2147     0.1206    14.4503    14.5061    -0.055
     18    -8.3964     34.021    991.000 213301.000     30.000    41.5367     0.0149   -24.9958     0.0002     0.0007    25.0000    10.0000    10.0000    25.0000    25.0000    10.0000    10.0000    25.0000     0.0018    -0.0023    -0.0009    20.7885    41.4530     0.3870     0.2200     0.2200     0.1229    14.4503    14.5061    -0.055
     19    -8.5960     34.004    961.000 213301.000     30.000    41.5367     0.0149   -24.9958     0.0002     0.0007    25.0000    10.0000    10.0000    25.0000    25.0000    10.0000    10.0000    25.0000     0.0018    -0.0023    -0.0009    20.7885    41.4530     0.3962     0.2254     0.2254     0.1252    14.4503    14.5061    -0.055
     20    -8.8027     33.910    893.000 213301.000     30.000    41.5367     0.0149   -24.9958     0.0002     0.0007    25.0000    10.0000    10.0000    25.0000    25.0000    10.0000    10.0000    25.0000     0.0018    -0.0023    -0.0009    20.7884    41.4530     0.4057     0.2310     0.2310     0.1275    14.4503    14.5061    -0.055
     21    -8.9995     34.014    918.000 213301.000     30.000    41.5367     0.0149   -24.9958     0.0002     0.0007    25.0000    10.0000    10.0000    25.0000    25.0000    10.0000    10.0000    25.0000     0.0018    -0.0023    -0.0009    20.7884    41.4530     0.4148     0.2364     0.2364     0.1296    14.4503    14.5061    -0.055
     22    -9.1985     33.800    877.000 213301.000     30.000    41.5367     0.0149   -24.9958     0.0002     0.0007    25.0000    10.0000    10.0000    25.0000    25.0000    10.0000    10.0000    25.0000     0.0018    -0.0023    -0.0009    20.7884    41.4530     0.4239     0.2418     0.2418     0.1318    14.4503    14.5061    -0.055
     23    -9.3993     33.994    893.000 213301.000     30.000    41.5367     0.0149   -24.9958     0.0002     0.0007    25.0000    10.0000    10.0000    25.0000    25.0000    10.0000    10.0000    25.0000     0.0018    -0.0023    -0.0009    20.7884    41.4530     0.4332     0.2472     0.2472     0.1340    14.4503    14.5061    -0.055
     24    -9.5975     33.963    871.000 213301.000     30.000    41.5367     0.0149   -24.9958     0.0002     0.0007    25.0000    10.0000    10.0000    25.0000    25.0000    10.0000    10.0000    25.0000     0.0018    -0.0023    -0.0009    20.7883    41.4530     0.4423     0.2526     0.2526     0.1361    14.4503    14.5061    -0.055
     25    -9.7977     33.900    845.000 213301.000     30.000    41.5367     0.0149   -24.9958     0.0002     0.0007    25.0000    10.0000    10.0000    25.0000    25.0000    10.0000    10.0000    25.0000     0.0018    -0.0023    -0.0009    20.7883    41.4530     0.4515     0.2581     0.2581     0.1382    14.4503    14.5061    -0.055
     26   -10.0033     34.028    755.000 213301.000     30.000    41.5367     0.0149   -24.9958     0.0002     0.0007    25.0000    10.0000    10.0000    25.0000    25.0000    10.0000    10.0000    25.0000     0.0018    -0.0023    -0.0009    20.7883    41.4530     0.4609     0.2637     0.2637     0.1403    14.4503    14.5061    -0.055
     27   -10.1999     33.894    778.000 213301.000     30.000    41.5367     0.0149   -24.9958     0.0002     0.0007    25.0000    10.0000    10.0000    25.0000    25.0000    10.0000    10.0000    25.0000     0.0018    -0.0024    -0.0009    20.7883    41.4530     0.4700     0.2690     0.2690     0.1424    14.4503    14.5061    -0.055
     28   -10.4015     34.009    779.000 213301.000     30.000    41.5367     0.0149   -24.9958     0.0002     0.0007    25.0000    10.0000    10.0000    25.0000    25.0000    10.0000    10.0000    25.0000     0.0018    -0.0023    -0.0009    20.7882    41.4530     0.4792     0.2745     0.2745     0.1444    14.4503    14.5061    -0.055
     29   -10.5965     33.864    779.000 213301.000     30.000    41.5367     0.0149   -24.9958     0.0002     0.0007    25.0000    10.0000    10.0000    25.0000    25.0000    10.0000    10.0000    25.0000     0.0018    -0.0023    -0.0009    20.7882    41.4530     0.4882     0.2799     0.2799     0.1464    14.4503    14.5061    -0.055
     30   -10.8019     34.037    802.000 213301.000     30.000    41.5367     0.0149   -24.9958     0.0002     0.0007    25.0000    10.0000    10.0000    25.0000    25.0000    10.0000    10.0000    25.0000     0.0018    -0.0023    -0.0009    20.7882    41.4530     0.4976     0.2855     0.2855     0.1484    14.4503    14.5061    -0.055
     31   -10.9966     34.027    679.000 213301.000     30.000    41.5367     0.0149   -24.9958     0.0002     0.0007    25.0000    10.0000    10.0000    25.0000    25.0000    10.0000    10.0000    25.0000     0.0018    -0.0023    -0.0009    20.7882    41.4530     0.5066     0.2908     0.2908     0.1503    14.4503    14.5061    -0.055
     32   -11.1965     33.944    701.000 213301.000     30.000    41.5367     0.0149   -24.9958     0.0002     0.0007    25.0000    10.0000    10.0000    25.0000    25.0000    10.0000    10.0000    25.0000     0.0018    -0.0023    -0.0009    20.7882    41.4529     0.5157     0.2963     0.2963     0.1522    14.4503    14.5061    -0.055
     33   -11.4005     33.909    675.000 213301.000     30.000    41.5367     0.0149   -24.9958     0.0002     0.0007    25.0000    10.0000    10.0000    25.0000    25.0000    10.0000    10.0000    25.0000     0.0018    -0.0023    -0.0009    20.7882    41.4530     0.5251     0.3019     0.3019     0.1541    14.4503    14.5061    -0.055
     34   -11.6027     33.956    702.000 213301.000     30.000    41.5367     0.0149   -24.9958     0.0002     0.0007    25.0000    10.0000    10.0000    25.0000    25.0000    10.0000    10.0000    25.0000     0.0018    -0.0023    -0.0009    20.7881    41.4530     0.5344     0.3074     0.3074     0.1560    14.4503    14.5061    -0.055
     35   -11.8036     34.099    681.000 213301.000     30.000    41.5367     0.0149   -24.9958     0.0002     0.0007    25.0000    10.0000    10.0000    25.0000    25.0000    10.0000    10.0000    25.0000     0.0018    -0.0023    -0.0009    20.7881    41.4530     0.5436     0.3130     0.3130     0.1578    14.4503    14.5061    -0.055
     36   -11.9989     34.008    654.000 213301.000     30.000    41.5367     0.0149   -24.9958     0.0002     0.0007    25.0000    10.0000    10.0000    25.0000    25.0000    10.0000    10.0000    25.0000     0.0018    -0.0023    -0.0009    20.7881    41.4530     0.5526     0.3183     0.3183     0.1596    14.4503    14.5061    -0.055
     37   -12.1985     33.967    627.000 213301.000     30.000    41.5367     0.0149   -24.9958     0.0002     0.0007    25.0000    10.0000    10.0000    25.0000    25.0000    10.0000    10.0000    25.0000     0.0018    -0.0023    -0.0009    20.7882    41.4530     0.5617     0.3238     0.3238     0.1614    14.4503    14.5061    -0.055
     38   -12.4015     33.949    648.000 213301.000     30.000    41.5367     0.0149   -24.9958     0.0002     0.0007    25.0000    10.0000    10.0000    25.0000    25.0000    10.0000    10.0000    25.0000     0.0018    -0.0023    -0.0009    20.7881    41.4529     0.5710     0.3294     0.3294     0.1632    14.4503    14.5062    -0.055
     39   -12.5978     33.859    584.000 213301.000     30.000    41.5367     0.0149   -24.9958     0.0002     0.0007    25.0000    10.0000    10.0000    25.0000    25.0000    10.0000    10.0000    25.0000     0.0018    -0.0023    -0.0009    20.7881    41.4530     0.5800     0.3348     0.3348     0.1649    14.4503    14.5061    -0.055
     40   -12.8004     33.964    582.000 213301.000     30.000    41.5367     0.0149   -24.9958     0.0002     0.0007    25.0000    10.0000    10.0000    25.0000    25.0000    10.0000    10.0000    25.0000     0.0018    -0.0023    -0.0009    20.7881    41.4530     0.5893     0.3404     0.3404     0.1666    14.4503    14.5061    -0.055
     41   -12.9992     33.975    607.000 213301.000     30.000    41.5367     0.0149   -24.9958     0.0002     0.0007    25.0000    10.0000    10.0000    25.0000    25.0000    10.0000    10.0000    25.0000     0.0018    -0.0023    -0.0009    20.7881    41.4529     0.5984     0.3459     0.3459     0.1683    14.4503    14.5061    -0.055
     42   -13.2034     33.969    617.000 213301.000     30.000    41.5367     0.0149   -24.9958     0.0002     0.0007    25.0000    10.0000    10.0000    25.0000    25.0000    10.0000    10.0000    25.0000     0.0018    -0.0023    -0.0009    20.7881    41.4530     0.6078     0.3515     0.3515     0.1699    14.4503    14.5061    -0.055
     43   -13.4025     34.058    595.000 213301.000     30.000    41.5367     0.0149   -24.9958     0.0002     0.0007    25.0000    10.0000    10.0000    25.0000    25.0000    10.0000    10.0000    25.0000     0.0018    -0.0023    -0.0009    20.7880    41.4529     0.6169     0.3570     0.3570     0.1715    14.4503    14.5062    -0.055
     44   -13.5970     33.957    534.000 213301.000     30.000    41.5367     0.0149   -24.9958     0.0002     0.0007    25.0000    10.0000    10.0000    25.0000    25.0000    10.0000    10.0000    25.0000     0.0018    -0.0023    -0.0009    20.7881    41.4529     0.6258     0.3624     0.3624     0.1731    14.4503    14.5061    -0.055
     45   -13.7980     33.901    545.000 213301.000     30.000    41.5367     0.0149   -24.9958     0.0002     0.0007    25.0000    10.0000    10.0000    25.0000    25.0000    10.0000    10.0000    25.0000     0.0018    -0.0024    -0.0009    20.7880    41.4529     0.6350     0.3680     0.3680     0.1747    14.4503    14.5062    -0.055
     46   -14.0015     33.939    516.000 213301.000     30.000    41.5367     0.0149   -24.9958     0.0002     0.0007    25.0000    10.0000    10.0000    25.0000    25.0000    10.0000    10.0000    25.0000     0.0018    -0.0024    -0.0009    20.7880    41.4529     0.6444     0.3736     0.3736     0.1762    14.4503    14.5062    -0.055
     47   -14.1972     33.946    516.000 213301.000     30.000    41.5367     0.0149   -24.9958     0.0002     0.0007    25.0000    10.0000    10.0000    25.0000    25.0000    10.0000    10.0000    25.0000     0.0018    -0.0023    -0.0009    20.7880    41.4529     0.6533     0.3790     0.3790     0.1777    14.4503    14.5062    -0.055
     48   -14.4001     33.832    541.000 213301.000     30.000    41.5367     0.0149   -24.9958     0.0002     0.0007    25.0000    10.0000    10.0000    25.0000    25.0000    10.0000    10.0000    25.0000     0.0018    -0.0023    -0.0009    20.7880    41.4530     0.6626     0.3847     0.3847     0.1792    14.4503    14.5061    -0.055
     49   -14.5999     34.005    505.000 213301.000     30.000    41.5367     0.0149   -24.9958     0.0002     0.0007    25.0000    10.0000    10.0000    25.0000    25.0000    10.0000    10.0000    25.0000     0.0018    -0.0023    -0.0009    20.7880    41.4529     0.6718     0.3902     0.3902     0.1807    14.4503    14.5061    -0.055
     50   -14.8034     33.971    490.000 213301.000     30.000    41.5367     0.0149   -24.9958     0.0002     0.0007    25.0000    10.0000    10.0000    25.0000    25.0000    10.0000    10.0000    25.0000     0.0018    -0.0023    -0.0009    20.7880    41.4529     0.6811     0.3959     0.3959     0.1821    14.4503    14.5062    -0.055
     51   -14.9999     33.860    497.000 213301.000     30.000    41.5367     0.0149   -24.9958     0.0002     0.0007    25.0000    10.0000    10.0000    25.0000    25.0000    10.0000    10.0000    25.0000     0.0018    -0.0023    -0.0009    20.7880    41.4529     0.6901     0.4013     0.4013     0.1835    14.4503    14.5061    -0.055
     52   -15.1977     33.992    504.000 213301.000     30.000    41.5367     0.0149   -24.9958     0.0002     0.0007    25.0000    10.0000    10.0000    25.0000    25.0000    10.0000    10.0000    25.0000     0.0018    -0.0023    -0.0009    20.7880    41.4529     0.6991     0.4068     0.4068     0.1848    14.4503    14.5061    -0.055
     53   -15.3985     33.710    517.000 213301.000     30.000    41.5367     0.0149   -24.9958     0.0002     0.0007    25.0000    10.0000    10.0000    25.0000    25.0000    10.0000    10.0000    25.0000     0.0018    -0.0023    -0.0009    20.7880    41.4530     0.7083     0.4124     0.4124     0.1862    14.4503    14.5061    -0.055
     54   -15.5984     33.922    496.000 213301.000     30.000    41.5367     0.0149   -24.9958     0.0002     0.0007    25.0000    10.0000    10.0000    25.0000    25.0000    10.0000    10.0000    25.0000     0.0018    -0.0023    -0.0009    20.7880    41.4529     0.7174     0.4180     0.4180     0.1875    14.4503    14.5061    -0.055
     55   -15.7982     33.915    473.000 213301.000     30.000    41.5367     0.0149   -24.9958     0.0002     0.0007    25.0000    10.0000    10.0000    25.0000    25.0000    10.0000    10.0000    25.0000     0.0018    -0.0023    -0.0009    20.7880    41.4530     0.7266     0.4235     0.4235     0.1888    14.4503    14.5061    -0.055
     56   -16.0027     33.888    530.000 213301.000     30.000    41.5367     0.0149   -24.9958     0.0002     0.0007    25.0000    10.0000    10.0000    25.0000    25.0000    10.0000    10.0000    25.0000     0.0018    -0.0023    -0.0009    20.7880    41.4530     0.7359     0.4292     0.4292     0.1901    14.4503    14.5061    -0.055
     57   -16.1996     33.924    502.000 213301.000     30.000    41.5367     0.0149   -24.9958     0.0002     0.0007    25.0000    10.0000    10.0000    25.0000    25.0000    10.0000    10.0000    25.0000     0.0018    -0.0024    -0.0009    20.7879    41.4529     0.7449     0.4347     0.4347     0.1913    14.4503    14.5061    -0.055
     58   -16.3968     34.022    509.000 213301.000     30.000    41.5367     0.0149   -24.9958     0.0002     0.0007    25.0000    10.0000    10.0000    25.0000    25.0000    10.0000    10.0000    25.0000     0.0018    -0.0023    -0.0009    20.7879    41.4530     0.7539     0.4402     0.4402     0.1925    14.4503    14.5061    -0.055
     59   -16.5993     33.926    509.000 213301.000     30.000    41.5367     0.0149   -24.9958     0.0002     0.0007    25.0000    10.0000    10.0000    25.0000    25.0000    10.0000    10.0000    25.0000     0.0018    -0.0023    -0.0009    20.7879    41.4530     0.7631     0.4459     0.4459     0.1937    14.4503    14.5061    -0.055
     60   -16.8025     33.961    529.000 213301.000     30.000    41.5367     0.0149   -24.9958     0.0002     0.0007    25.0000    10.0000    10.0000    25.0000    25.0000    10.0000    10.0000    25.0000     0.0018    -0.0023    -0.0009    20.7879    41.4530     0.7724     0.4516     0.4516     0.1949    14.4503    14.5061    -0.055
     61   -17.0040     34.022    486.000 213301.000     30.000    41.5367     0.0149   -24.9958     0.0002     0.0007    25.0000    10.0000    10.0000    25.0000    25.0000    10.0000    10.0000    25.0000     0.0018    -0.0023    -0.0009    20.7879    41.4530     0.7816     0.4572     0.4572     0.1960    14.4503    14.5061    -0.055
     62   -17.1975     33.872    481.000 213301.000     30.000    41.5367     0.0149   -24.9958     0.0002     0.0007    25.0000    10.0000    10.0000    25.0000    25.0000    10.0000    10.0000    25.0000     0.0018    -0.0023    -0.0009    20.7879    41.4530     0.7904     0.4626     0.4626     0.1970    14.4503    14.5061    -0.055
     63   -17.3962     33.943    515.000 213301.000     30.000    41.5367     0.0149   -24.9958     0.0002     0.0007    25.0000    10.0000    10.0000    25.0000    25.0000    10.0000    10.0000    25.0000     0.0018    -0.0023    -0.0009    20.7879    41.4530     0.7995     0.4681     0.4681     0.1981    14.4503    14.5061    -0.055
     64   -17.5988     33.917    451.000 213301.000     30.000    41.5367     0.0149   -24.9958     0.0002     0.0007    25.0000    10.0000    10.0000    25.0000    25.0000    10.0000    10.0000    25.0000     0.0018    -0.0023    -0.0009    20.7879    41.4530     0.8087     0.4738     0.4738     0.1992    14.4503    14.5061    -0.055
     65   -17.8015     33.973    451.000 213301.000     30.000    41.5367     0.0149   -24.9958     0.0002     0.0007    25.0000    10.0000    10.0000    25.0000    25.0000    10.0000    10.0000    25.0000     0.0018    -0.0023    -0.0009    20.7879    41.4530     0.8180     0.4795     0.4795     0.2002    14.4503    14.5061    -0.055
     66   -18.0031     33.962    475.000 213301.000     30.000    41.5367     0.0149   -24.9958     0.0002     0.0007    25.0000    10.0000    10.0000    25.0000    25.0000    10.0000    10.0000    25.0000     0.0018    -0.0023    -0.0009    20.7879    41.4530     0.8272     0.4851     0.4851     0.2012    14.4503    14.5061    -0.055
     67   -18.2031     33.948    462.000 213301.000     30.000    41.5367     0.0149   -24.9958     0.0002     0.0007    25.0000    10.0000    10.0000    25.0000    25.0000    10.0000    10.0000    25.0000     0.0018    -0.0023    -0.0009    20.7879    41.4530     0.8363     0.4907     0.4907     0.2021    14.4503    14.5061    -0.055
     68   -18.4009     33.963    458.000 213301.000     30.000    41.5367     0.0149   -24.9958     0.0002     0.0007    25.0000    10.0000    10.0000    25.0000    25.0000    10.0000    10.0000    25.0000     0.0018    -0.0023    -0.0009    20.7879    41.4530     0.8453     0.4963     0.4963     0.2031    14.4503    14.5061    -0.055
     69   -18.5979     33.925    478.000 213301.000     30.000    41.5367     0.0149   -24.9958     0.0002     0.0007    25.0000    10.0000    10.0000    25.0000    25.0000    10.0000    10.0000    25.0000     0.0018    -0.0023    -0.0009    20.7879    41.4530     0.8543     0.5018     0.5018     0.2040    14.4503    14.5061    -0.055
     70   -18.7991     33.869    500.000 213301.000     30.000    41.5367     0.0149   -24.9958     0.0002     0.0007    25.0000    10.0000    10.0000    25.0000    25.0000    10.0000    10.0000    25.0000     0.0018    -0.0023    -0.0009    20.7879    41.4530     0.8634     0.5075     0.5075     0.2048    14.4503    14.5061    -0.055
     71   -18.9999     33.865    476.000 213301.000     30.000    41.5367     0.0149   -24.9958     0.0002     0.0007    25.0000    10.0000    10.0000    25.0000    25.0000    10.0000    10.0000    25.0000     0.0018    -0.0023    -0.0009    20.7879    41.4530     0.8726     0.5131     0.5131     0.2057    14.4503    14.5061    -0.055
     72   -19.1987     34.003    471.000 213301.000     30.000    41.5367     0.0149   -24.9958     0.0002     0.0007    25.0000    10.0000    10.0000    25.0000    25.0000    10.0000    10.0000    25.0000     0.0018    -0.0023    -0.0009    20.7879    41.4530     0.8816     0.5187     0.5187     0.2065    14.4503    14.5061    -0.055
     73   -19.4000     33.949    472.000 213301.000     30.000    41.5367     0.0149   -24.9958     0.0002     0.0007    25.0000    10.0000    10.0000    25.0000    25.0000    10.0000    10.0000    25.0000     0.0018    -0.0023    -0.0009    20.7879    41.4530     0.8908     0.5243     0.5243     0.2073    14.4503    14.5061    -0.055
     74   -19.6018     33.926    436.000 213301.000     30.000    41.5367     0.0149   -24.9958     0.0002     0.0007    25.0000    10.0000    10.0000    25.0000    25.0000    10.0000    10.0000    25.0000     0.0018    -0.0023    -0.0009    20.7879    41.4530     0.8999     0.5300     0.5300     0.2081    14.4503    14.5061    -0.055
     75   -19.8024     33.897    462.000 213301.000     30.000    41.5367     0.0149   -24.9958     0.0002     0.0007    25.0000    10.0000    10.0000    25.0000    25.0000    10.0000    10.0000    25.0000     0.0018    -0.0023    -0.0009    20.7879    41.4530     0.9090     0.5356     0.5356     0.2088    14.4503    14.5061    -0.055
     76   -19.9992     33.923    472.000 213301.000     30.000    41.5367     0.0149   -24.9958     0.0002     0.0007    25.0000    10.0000    10.0000    25.0000    25.0000    10.0000    10.0000    25.0000     0.0018    -0.0023    -0.0009    20.7879    41.4530     0.9180     0.5412     0.5412     0.2095    14.4503    14.5061    -0.055
     77   -20.1978     33.816    428.000 213301.000     30.000    41.5367     0.0149   -24.9958     0.0002     0.0007    25.0000    10.0000    10.0000    25.0000    25.0000    10.0000    10.0000    25.0000     0.0018    -0.0023    -0.0009    20.7879    41.4530     0.9270     0.5468     0.5468     0.2102    14.4503    14.5061    -0.055
     78   -20.3974     33.886    394.000 213301.000     30.000    41.5367     0.0149   -24.9958     0.0002     0.0007    25.0000    10.0000    10.0000    25.0000    25.0000    10.0000    10.0000    25.0000     0.0018    -0.0023    -0.0009    20.7879    41.4531     0.9361     0.5524     0.5524     0.2108    14.4503    14.5061    -0.055
     79   -20.5992     34.009    436.000 213301.000     30.000    41.5367     0.0149   -24.9958     0.0002     0.0007    25.0000    10.0000    10.0000    25.0000    25.0000    10.0000    10.0000    25.0000     0.0018    -0.0023    -0.0009    20.7879    41.4531     0.9452     0.5580     0.5580     0.2115    14.4503    14.5061    -0.055
     80   -20.7987     33.921    386.000 213301.000     30.000    41.5367     0.0149   -24.9958     0.0002     0.0007    25.0000    10.0000    10.0000    25.0000    25.0000    10.0000    10.0000    25.0000     0.0018    -0.0023    -0.0009    20.7879    41.4530     0.9543     0.5637     0.5637     0.2121    14.4503    14.5061    -0.055
     81   -20.9996     33.941    402.000 213301.000     30.000    41.5367     0.0149   -24.9958     0.0002     0.0007    25.0000    10.0000    10.0000    25.0000    25.0000    10.0000    10.0000    25.0000     0.0018    -0.0023    -0.0009    20.7879    41.4531     0.9634     0.5693     0.5693     0.2126    14.4503    14.5061    -0.055
     82   -21.2004     33.993    387.000 213301.000     30.000    41.5367     0.0149   -24.9958     0.0002     0.0007    25.0000    10.0000    10.0000    25.0000    25.0000    10.0000    10.0000    25.0000     0.0018    -0.0023    -0.0009    20.7879    41.4531     0.9725     0.5750     0.5750     0.2132    14.4503    14.5061    -0.055
     83   -21.4019     33.997    399.000 213301.000     30.000    41.5367     0.0149   -24.9958     0.0002     0.0007    25.0000    10.0000    10.0000    25.0000    25.0000    10.0000    10.0000    25.0000     0.0018    -0.0023    -0.0009    20.7879    41.4531     0.9817     0.5806     0.5806     0.2137    14.4503    14.5061    -0.055
     84   -21.5994     33.950    369.000 213301.000     30.000    41.5367     0.0149   -24.9958     0.0002     0.0007    25.0000    10.0000    10.0000    25.0000    25.0000    10.0000    10.0000    25.0000     0.0018    -0.0024    -0.0009    20.7879    41.4531     0.9906     0.5862     0.5862     0.2142    14.4503    14.5061    -0.055
     85   -21.7972     33.961    405.000 213301.000     30.000    41.5367     0.0149   -24.9958     0.0002     0.0007    25.0000    10.0000    10.0000    25.0000    25.0000    10.0000    10.0000    25.0000     0.0018    -0.0023    -0.0009    20.7879    41.4531     0.9996     0.5918     0.5918     0.2146    14.4503    14.5061    -0.055
     86   -21.9970     34.064    353.000 213301.000     30.000    41.5367     0.0149   -24.9958     0.0002     0.0007    25.0000    10.0000    10.0000    25.0000    25.0000    10.0000    10.0000    25.0000     0.0018    -0.0023    -0.0009    20.7879    41.4531     1.0086     0.5974     0.5974     0.2151    14.4503    14.5061    -0.055
     87   -22.1977     33.980    342.000 213301.000     30.000    41.5367     0.0149   -24.9958     0.0002     0.0007    25.0000    10.0000    10.0000    25.0000    25.0000    10.0000    10.0000    25.0000     0.0018    -0.0023    -0.0009    20.7878    41.4531     1.0177     0.6031     0.6031     0.2155    14.4503    14.5061    -0.055
     88   -22.4001     33.866    369.000 213301.000     30.000    41.5367     0.0149   -24.9958     0.0002     0.0007    25.0000    10.0000    10.0000    25.0000    25.0000    10.0000    10.0000    25.0000     0.0018    -0.0023    -0.0009    20.7878    41.4531     1.0269     0.6088     0.6088     0.2158    14.4503    14.5061    -0.055
     89   -22.6012     33.833    410.000 213301.000     30.000    41.5367     0.0149   -24.9958     0.0002     0.0007    25.0000    10.0000    10.0000    25.0000    25.0000    10.0000    10.0000    25.0000     0.0018    -0.0023    -0.0009    20.7878    41.4531     1.0360     0.6144     0.6144     0.2162    14.4503    14.5061    -0.055
     90   -22.8036     33.990    388.000 213301.000     30.000    41.5367     0.0149   -24.9958     0.0002     0.0007    25.0000    10.0000    10.0000    25.0000    25.0000    10.0000    10.0000    25.0000     0.0018    -0.0023    -0.0009    20.7878    41.4531     1.0451     0.6202     0.6202     0.2165    14.4503    14.5060    -0.055
     91   -23.0011     33.855    366.000 213301.000     30.000    41.5367     0.0149   -24.9958     0.0002     0.0007    25.0000    10.0000    10.0000    25.0000    25.0000    10.0000    10.0000    25.0000     0.0018    -0.0023    -0.0009    20.7878    41.4531     1.0540     0.6257     0.6257     0.2168    14.4503    14.5061    -0.055
     92   -23.2028     33.901    365.000 213301.000     30.000    41.5367     0.0149   -24.9958     0.0002     0.0007    25.0000    10.0000    10.0000    25.0000    25.0000    10.0000    10.0000    25.0000     0.0018    -0.0023    -0.0009    20.7878    41.4531     1.0632     0.6314     0.6314     0.2171    14.4503    14.5061    -0.055
     93   -23.3967     33.857    367.000 213301.000     30.000    41.5367     0.0149   -24.9958     0.0002     0.0007    25.0000    10.0000    10.0000    25.0000    25.0000    10.0000    10.0000    25.0000     0.0018    -0.0023    -0.0009    20.7878    41.4531     1.0719     0.6369     0.6369     0.2173    14.4503    14.5061    -0.055
     94   -23.5967     33.956    340.000 213301.000     30.000    41.5367     0.0149   -24.9958     0.0002     0.0007    25.0000    10.0000    10.0000    25.0000    25.0000    10.0000    10.0000    25.0000     0.0018    -0.0023    -0.0009    20.7878    41.4531     1.0810     0.6425     0.6425     0.2175    14.4503    14.5060    -0.055
     95   -23.7979     33.825    362.000 213301.000     30.000    41.5367     0.0149   -24.9958     0.0002     0.0007    25.0000    10.0000    10.0000    25.0000    25.0000    10.0000    10.0000    25.0000     0.0018    -0.0023    -0.0009    20.7878    41.4531     1.0900     0.6482     0.6482     0.2177    14.4503    14.5061    -0.055
     96   -23.9988     33.983    389.000 213301.000     30.000    41.5367     0.0149   -24.9958     0.0002     0.0007    25.0000    10.0000    10.0000    25.0000    25.0000    10.0000    10.0000    25.0000     0.0018    -0.0023    -0.0009    20.7878    41.4531     1.0991     0.6539     0.6539     0.2178    14.4503    14.5060    -0.055
     97   -24.1992     33.840    324.000 213301.000     30.000    41.5367     0.0149   -24.9958     0.0002     0.0007    25.0000    10.0000    10.0000    25.0000    25.0000    10.0000    10.0000    25.0000     0.0018    -0.0023    -0.0009    20.7878    41.4531     1.1082     0.6595     0.6595     0.2180    14.4503    14.5060    -0.055
     98   -24.4023     33.995    345.000 213301.000     30.000    41.5367     0.0149   -24.9958     0.0002     0.0007    25.0000    10.0000    10.0000    25.0000    25.0000    10.0000    10.0000    25.0000     0.0018    -0.0023    -0.0009    20.7878    41.4531     1.1173     0.6653     0.6653     0.2181    14.4503    14.5060    -0.055
     99   -24.6026     33.929    349.000 213301.000     30.000    41.5367     0.0149   -24.9958     0.0002     0.0007    25.0000    10.0000    10.0000    25.0000    25.0000    10.0000    10.0000    25.0000     0.0018    -0.0024    -0.0009    20.7878    41.4531     1.1263     0.6709     0.6709     0.2181    14.4503    14.5060    -0.055
    100   -24.8026     34.015    364.000 213301.000     30.000    41.5367     0.0149   -24.9958     0.0002     0.0007    25.0000    10.0000    10.0000    25.0000    25.0000    10.0000    10.0000    25.0000     0.0018    -0.0023    -0.0009    20.7878    41.4531     1.1354     0.6766     0.6766     0.2182    14.4503    14.5060    -0.055
    101   -25.0010     33.979    355.000 213301.000     30.000    41.5367     0.0149   -24.9958     0.0002     0.0007    25.0000    10.0000    10.0000    25.0000    25.0000    10.0000    10.0000    25.0000     0.0018    -0.0023    -0.0009    20.7878    41.4531     1.1443     0.6822     0.6822     0.2182    14.4503    14.5060    -0.055
    102   -25.1994     33.952    347.000 213301.000     30.000    41.5367     0.0149   -24.9958     0.0002     0.0007    25.0000    10.0000    10.0000    25.0000    25.0000    10.0000    10.0000    25.0000     0.0018    -0.0023    -0.0009    20.7878    41.4531     1.1532     0.6878     0.6878     0.2182    14.4503    14.5060    -0.055
    103   -25.3989     33.881    361.000 213301.000     30.000    41.5367     0.0149   -24.9958     0.0002     0.0007    25.0000    10.0000    10.0000    25.0000    25.0000    10.0000    10.0000    25.0000     0.0018    -0.0023    -0.0009    20.7878    41.4531     1.1622     0.6934     0.6934     0.2181    14.4503    14.5060    -0.055
    104   -25.5992     33.704    348.000 213301.000     30.000    41.5367     0.0149   -24.9958     0.0002     0.0007    25.0000    10.0000    10.0000    25.0000    25.0000    10.0000    10.0000    25.0000     0.0018    -0.0024    -0.0009    20.7878    41.4531     1.1712     0.6990     0.6990     0.2181    14.4503    14.5060    -0.055
    105   -25.7990     33.879    326.000 213301.000     30.000    41.5367     0.0149   -24.9958     0.0002     0.0007    25.0000    10.0000    10.0000    25.0000    25.0000    10.0000    10.0000    25.0000     0.0018    -0.0023    -0.0009    20.7878    41.4531     1.1802     0.7047     0.7047     0.2180    14.4503    14.5060    -0.055
    106   -26.0004     33.771    344.000 213301.000     30.000    41.5367     0.0149   -24.9958     0.0002     0.0007    25.0000    10.0000    10.0000    25.0000    25.0000    10.0000    10.0000    25.0000     0.0018    -0.0024    -0.0009    20.7878    41.4531     1.1893     0.7104     0.7104     0.2178    14.4503    14.5060    -0.055
    107   -26.2017     33.825    286.000 213301.000     30.000    41.5367     0.0149   -24.9958     0.0002     0.0007    25.0000    10.0000    10.0000    25.0000    25.0000    10.0000    10.0000    25.0000     0.0018    -0.0024    -0.0009    20.7878    41.4531     1.1983     0.7161     0.7161     0.2177    14.4503    14.5060    -0.055
    108   -26.4032     33.783    319.000 213301.000     30.000    41.5367     0.0149   -24.9958     0.0002     0.0007    25.0000    10.0000    10.0000    25.0000    25.0000    10.0000    10.0000    25.0000     0.0018    -0.0024    -0.0009    20.7877    41.4531     1.2074     0.7217     0.7217     0.2175    14.4503    14.5060    -0.055
    109   -26.5977     33.934    362.000 213301.000     30.000    41.5367     0.0149   -24.9958     0.0002     0.0007    25.0000    10.0000    10.0000    25.0000    25.0000    10.0000    10.0000    25.0000     0.0018    -0.0023    -0.0009    20.7877    41.4531     1.2161     0.7272     0.7272     0.2173    14.4503    14.5060    -0.055
    110   -26.7980     33.860    346.000 213301.000     30.000    41.5367     0.0149   -24.9958     0.0002     0.0007    25.0000    10.0000    10.0000    25.0000    25.0000    10.0000    10.0000    25.0000     0.0018    -0.0023    -0.0009    20.7878    41.4531     1.2251     0.7329     0.7329     0.2171    14.4503    14.5060    -0.055
    111   -26.9976     33.892    302.000 213301.000     30.000    41.5367     0.0149   -24.9958     0.0002     0.0007    25.0000    10.0000    10.0000    25.0000    25.0000    10.0000    10.0000    25.0000     0.0018    -0.0023    -0.0009    20.7877    41.4531     1.2340     0.7385     0.7385     0.2168    14.4503    14.5060    -0.055
    112   -27.1981     33.877    358.000 213301.000     30.000    41.5367     0.0149   -24.9958     0.0002     0.0007    25.0000    10.0000    10.0000    25.0000    25.0000    10.0000    10.0000    25.0000     0.0018    -0.0024    -0.0009    20.7877    41.4531     1.2430     0.7442     0.7442     0.2165    14.4503    14.5060    -0.055
    113   -27.3994     33.910    301.000 213301.000     30.000    41.5367     0.0149   -24.9958     0.0002     0.0007    25.0000    10.0000    10.0000    25.0000    25.0000    10.0000    10.0000    25.0000     0.0018    -0.0023    -0.0009    20.7878    41.4531     1.2521     0.7498     0.7498     0.2162    14.4503    14.5061    -0.055
    114   -27.6009     33.884    317.000 213301.000     30.000    41.5367     0.0149   -24.9958     0.0002     0.0007    25.0000    10.0000    10.0000    25.0000    25.0000    10.0000    10.0000    25.0000     0.0018    -0.0023    -0.0009    20.7877    41.4531     1.2611     0.7555     0.7555     0.2158    14.4503    14.5060    -0.055
    115   -27.8019     33.863    315.000 213301.000     30.000    41.5367     0.0149   -24.9958     0.0002     0.0007    25.0000    10.0000    10.0000    25.0000    25.0000    10.0000    10.0000    25.0000     0.0018    -0.0023    -0.0009    20.7878    41.4531     1.2701     0.7612     0.7612     0.2154    14.4503    14.5060    -0.055
    116   -28.0026     33.901    341.000 213301.000     30.000    41.5367     0.0149   -24.9958     0.0002     0.0007    25.0000    10.0000    10.0000    25.0000    25.0000    10.0000    10.0000    25.0000     0.0018    -0.0024    -0.0009    20.7877    41.4531     1.2791     0.7668     0.7668     0.2150    14.4503    14.5060    -0.055
    117   -28.1979     34.011    310.000 213301.000     30.000    41.5367     0.0149   -24.9958     0.0002     0.0007    25.0000    10.0000    10.0000    25.0000    25.0000    10.0000    10.0000    25.0000     0.0018    -0.0023    -0.0009    20.7877    41.4531     1.2878     0.7723     0.7723     0.2146    14.4503    14.5060    -0.055
    118   -28.3978     33.879    342.000 213301.000     30.000    41.5367     0.0149   -24.9958     0.0002     0.0007    25.0000    10.0000    10.0000    25.0000    25.0000    10.0000    10.0000    25.0000     0.0018    -0.0024    -0.0009    20.7878    41.4531     1.2968     0.7780     0.7780     0.2142    14.4503    14.5061    -0.055
    119   -28.5961     33.844    309.000 213301.000     30.000    41.5367     0.0149   -24.9958     0.0002     0.0007    25.0000    10.0000    10.0000    25.0000    25.0000    10.0000    10.0000    25.0000     0.0018    -0.0024    -0.0009    20.7877    41.4531     1.3056     0.7836     0.7836     0.2137    14.4503    14.5060    -0.055
    120   -28.8010     33.999    316.000 213301.000     30.000    41.5367     0.0149   -24.9958     0.0002     0.0007    25.0000    10.0000    10.0000    25.0000    25.0000    10.0000    10.0000    25.0000     0.0018    -0.0023    -0.0009    20.7877    41.4531     1.3148     0.7893     0.7893     0.2131    14.4503    14.5060    -0.055
    121   -28.9992     33.966    338.000 213301.000     30.000    41.5367     0.0149   -24.9958     0.0002     0.0007    25.0000    10.0000    10.0000    25.0000    25.0000    10.0000    10.0000    25.0000     0.0018    -0.0023    -0.0009    20.7878    41.4531     1.3236     0.7949     0.7949     0.2126    14.4503    14.5060    -0.055
    122   -29.2010     33.837    318.000 213301.000     30.000    41.5367     0.0149   -24.9958     0.0002     0.0007    25.0000    10.0000    10.0000    25.0000    25.0000    10.0000    10.0000    25.0000     0.0018    -0.0024    -0.0009    20.7877    41.4531     1.3327     0.8006     0.8006     0.2120    14.4503    14.5060    -0.055
    123   -29.4040     34.044    325.000 213301.000     30.000    41.5367     0.0149   -24.9958     0.0002     0.0007    25.0000    10.0000    10.0000    25.0000    25.0000    10.0000    10.0000    25.0000     0.0018    -0.0023    -0.0009    20.7877    41.4531     1.3417     0.8063     0.8063     0.2114    14.4503    14.5060    -0.055
    124   -29.6004     33.747    309.000 213301.000     30.000    41.5367     0.0149   -24.9958     0.0002     0.0007    25.0000    10.0000    10.0000    25.0000    25.0000    10.0000    10.0000    25.0000     0.0018    -0.0023    -0.0009    20.7877    41.4531     1.3505     0.8118     0.8118     0.2108    14.4503    14.5061    -0.055
    125   -29.7995     33.845    305.000 213301.000     30.000    41.5367     0.0149   -24.9958     0.0002     0.0007    25.0000    10.0000    10.0000    25.0000    25.0000    10.0000    10.0000    25.0000     0.0018    -0.0023    -0.0009    20.7877    41.4531     1.3594     0.8174     0.8174     0.2102    14.4503    14.5061    -0.055
    126   -29.9972     33.914    297.000 213301.000     30.000    41.5367     0.0149   -24.9958     0.0002     0.0007    25.0000    10.0000    10.0000    25.0000    25.0000    10.0000    10.0000    25.0000     0.0018    -0.0023    -0.0009    20.7877    41.4531     1.3682     0.8230     0.8230     0.2095    14.4503    14.5061    -0.055
    127   -30.1984     33.580    295.000 213301.000     30.000    41.5367     0.0149   -24.9958     0.0002     0.0007    25.0000    10.0000    10.0000    25.0000    25.0000    10.0000    10.0000    25.0000     0.0018    -0.0023    -0.0009    20.7877    41.4531     1.3771     0.8287     0.8287     0.2088    14.4503    14.5061    -0.055
    128   -30.3968     33.888    276.000 213301.000     30.000    41.5367     0.0149   -24.9958     0.0002     0.0007    25.0000    10.0000    10.0000    25.0000    25.0000    10.0000    10.0000    25.0000     0.0018    -0.0023    -0.0009    20.7877    41.4531     1.3860     0.8342     0.8342     0.2080    14.4503    14.5061    -0.055
    129   -30.5997     33.887    302.000 213301.000     30.000    41.5367     0.0149   -24.9958     0.0002     0.0007    25.0000    10.0000    10.0000    25.0000    25.0000    10.0000    10.0000    25.0000     0.0018    -0.0024    -0.0009    20.7877    41.4531     1.3950     0.8399     0.8399     0.2073    14.4503    14.5060    -0.055
    130   -30.7993     33.752    305.000 213301.000     30.000    41.5367     0.0149   -24.9958     0.0002     0.0007    25.0000    10.0000    10.0000    25.0000    25.0000    10.0000    10.0000    25.0000     0.0018    -0.0024    -0.0009    20.7877    41.4531     1.4039     0.8455     0.8455     0.2065    14.4503    14.5060    -0.055
    131   -31.0027     33.945    339.000 213301.000     30.000    41.5367     0.0149   -24.9958     0.0002     0.0007    25.0000    10.0000    10.0000    25.0000    25.0000    10.0000    10.0000    25.0000     0.0018    -0.0023    -0.0009    20.7877    41.4531     1.4129     0.8512     0.8512     0.2056    14.4503    14.5061    -0.055
    132   -31.2019     33.887    317.000 213301.000     30.000    41.5367     0.0149   -24.9958     0.0002     0.0007    25.0000    10.0000    10.0000    25.0000    25.0000    10.0000    10.0000    25.0000     0.0018    -0.0023    -0.0009    20.7877    41.4531     1.4218     0.8568     0.8568     0.2048    14.4503    14.5061    -0.055
    133   -31.4021     33.827    315.000 213301.000     30.000    41.5367     0.0149   -24.9958     0.0002     0.0007    25.0000    10.0000    10.0000    25.0000    25.0000    10.0000    10.0000    25.0000     0.0018    -0.0024    -0.0009    20.7877    41.4531     1.4307     0.8625     0.8625     0.2039    14.4503    14.5061    -0.055
    134   -31.5994     33.917    328.000 213301.000     30.000    41.5367     0.0149   -24.9958     0.0002     0.0007    25.0000    10.0000    10.0000    25.0000    25.0000    10.0000    10.0000    25.0000     0.0018    -0.0023    -0.0009    20.7877    41.4531     1.4394     0.8680     0.8680     0.2030    14.4503    14.5061    -0.055
    135   -31.7973     33.970    318.000 213301.000     30.000    41.5367     0.0149   -24.9958     0.0002     0.0007    25.0000    10.0000    10.0000    25.0000    25.0000    10.0000    10.0000    25.0000     0.0018    -0.0023    -0.0009    20.7877    41.4531     1.4482     0.8735     0.8735     0.2021    14.4503    14.5061    -0.055
    136   -31.9989     33.884    334.000 213301.000     30.000    41.5367     0.0149   -24.9958     0.0002     0.0007    25.0000    10.0000    10.0000    25.0000    25.0000    10.0000    10.0000    25.0000     0.0018    -0.0023    -0.0009    20.7877    41.4531     1.4571     0.8792     0.8792     0.2011    14.4503    14.5061    -0.055
    137   -32.2002     33.862    336.000 213301.000     30.000    41.5367     0.0149   -24.9958     0.0002     0.0007    25.0000    10.0000    10.0000    25.0000    25.0000    10.0000    10.0000    25.0000     0.0018    -0.0024    -0.0009    20.7877    41.4531     1.4661     0.8848     0.8848     0.2001    14.4503    14.5061    -0.055
    138   -32.3966     34.018    376.000 213301.000     30.000    41.5367     0.0149   -24.9958     0.0002     0.0007    25.0000    10.0000    10.0000    25.0000    25.0000    10.0000    10.0000    25.0000     0.0018    -0.0023    -0.0009    20.7877    41.4531     1.4748     0.8903     0.8903     0.1991    14.4503    14.5061    -0.055
    139   -32.6000     33.846    423.000 213301.000     30.000    41.5367     0.0149   -24.9958     0.0002     0.0007    25.0000    10.0000    10.0000    25.0000    25.0000    10.0000    10.0000    25.0000     0.0018    -0.0023    -0.0009    20.7877    41.4531     1.4838     0.8960     0.8960     0.1981    14.4503    14.5061    -0.055
    140   -32.8035     33.923    446.000 213301.000     30.000    41.5367     0.0149   -24.9958     0.0002     0.0007    25.0000    10.0000    10.0000    25.0000    25.0000    10.0000    10.0000    25.0000     0.0018    -0.0023    -0.0009    20.7877    41.4531     1.4928     0.9017     0.9017     0.1970    14.4503    14.5061    -0.055
    141   -33.0000     33.892    307.000 213301.000     30.000    41.5367     0.0149   -24.9958     0.0002     0.0007    25.0000    10.0000    10.0000    25.0000    25.0000    10.0000    10.0000    25.0000     0.0018    -0.0023    -0.0009    20.7877    41.4531     1.5015     0.9072     0.9072     0.1959    14.4503    14.5060    -0.055
    142   -33.1972     34.031    327.000 213301.000     30.000    41.5367     0.0149   -24.9958     0.0002     0.0007    25.0000    10.0000    10.0000    25.0000    25.0000    10.0000    10.0000    25.0000     0.0018    -0.0023    -0.0009    20.7877    41.4531     1.5102     0.9127     0.9127     0.1948    14.4503    14.5061    -0.055
    143   -33.3985     34.169    333.000 213301.000     30.000    41.5367     0.0149   -24.9958     0.0002     0.0007    25.0000    10.0000    10.0000    25.0000    25.0000    10.0000    10.0000    25.0000     0.0018    -0.0023    -0.0009    20.7877    41.4531     1.5191     0.9183     0.9183     0.1936    14.4503    14.5061    -0.055
    144   -33.5981     33.763    292.000 213301.000     30.000    41.5367     0.0149   -24.9958     0.0002     0.0007    25.0000    10.0000    10.0000    25.0000    25.0000    10.0000    10.0000    25.0000     0.0018    -0.0023    -0.0009    20.7877    41.4531     1.5279     0.9239     0.9239     0.1925    14.4503    14.5061    -0.055
    145   -33.7989     33.927    283.000 213301.000     30.000    41.5367     0.0149   -24.9958     0.0002     0.0007    25.0000    10.0000    10.0000    25.0000    25.0000    10.0000    10.0000    25.0000     0.0018    -0.0023    -0.0009    20.7877    41.4531     1.5368     0.9295     0.9295     0.1913    14.4503    14.5060    -0.055
    146   -33.9982     33.896    294.000 213301.000     30.000    41.5367     0.0149   -24.9958     0.0002     0.0007    25.0000    10.0000    10.0000    25.0000    25.0000    10.0000    10.0000    25.0000     0.0018    -0.0023    -0.0009    20.7877    41.4531     1.5456     0.9351     0.9351     0.1900    14.4503    14.5061    -0.055
    147   -34.2020     33.817    298.000 213301.000     30.000    41.5367     0.0149   -24.9958     0.0002     0.0007    25.0000    10.0000    10.0000    25.0000    25.0000    10.0000    10.0000    25.0000     0.0018    -0.0023    -0.0009    20.7877    41.4531     1.5546     0.9407     0.9407     0.1887    14.4503    14.5061    -0.055
    148   -34.4018     33.944    307.000 213301.000     30.000    41.5367     0.0149   -24.9958     0.0002     0.0007    25.0000    10.0000    10.0000    25.0000    25.0000    10.0000    10.0000    25.0000     0.0018    -0.0023    -0.0009    20.7877    41.4531     1.5634     0.9463     0.9463     0.1874    14.4503    14.5061    -0.055
    149   -34.6014     33.877    310.000 213301.000     30.000    41.5367     0.0149   -24.9958     0.0002     0.0007    25.0000    10.0000    10.0000    25.0000    25.0000    10.0000    10.0000    25.0000     0.0018    -0.0023    -0.0009    20.7877    41.4531     1.5722     0.9519     0.9519     0.1861    14.4503    14.5061    -0.055
    150   -34.7979     33.901    321.000 213301.000     30.000    41.5367     0.0149   -24.9958     0.0002     0.0007    25.0000    10.0000    10.0000    25.0000    25.0000    10.0000    10.0000    25.0000     0.0018    -0.0023    -0.0009    20.7877    41.4531     1.5808     0.9573     0.9573     0.1848    14.4503    14.5061    -0.055
    151   -34.9979     33.886    314.000 213301.000     30.000    41.5367     0.0149   -24.9958     0.0002     0.0007    25.0000    10.0000    10.0000    25.0000    25.0000    10.0000    10.0000    25.0000     0.0018    -0.0023    -0.0009    20.7877    41.4531     1.5896     0.9629     0.9629     0.1834    14.4503    14.5061    -0.055
    152   -35.1972     33.926    314.000 213301.000     30.000    41.5367     0.0149   -24.9958     0.0002     0.0007    25.0000    10.0000    10.0000    25.0000    25.0000    10.0000    10.0000    25.0000     0.0018    -0.0023    -0.0009    20.7877    41.4531     1.5984     0.9684     0.9684     0.1820    14.4503    14.5061    -0.055
    153   -35.3999     33.916    290.000 213301.000     30.000    41.5367     0.0149   -24.9958     0.0002     0.0007    25.0000    10.0000    10.0000    25.0000    25.0000    10.0000    10.0000    25.0000     0.0018    -0.0023    -0.0009    20.7877    41.4531     1.6073     0.9741     0.9741     0.1806    14.4503    14.5061    -0.055
    154   -35.6001     33.834    269.000 213301.000     30.000    41.5367     0.0149   -24.9958     0.0002     0.0007    25.0000    10.0000    10.0000    25.0000    25.0000    10.0000    10.0000    25.0000     0.0018    -0.0023    -0.0009    20.7877    41.4531     1.6161     0.9796     0.9796     0.1791    14.4503    14.5061    -0.055
    155   -35.8036     33.805    272.000 213301.000     30.000    41.5367     0.0149   -24.9958     0.0002     0.0007    25.0000    10.0000    10.0000    25.0000    25.0000    10.0000    10.0000    25.0000     0.0018    -0.0023    -0.0009    20.7877    41.4531     1.6250     0.9853     0.9853     0.1776    14.4503    14.5061    -0.055
    156   -36.0002     33.934    297.000 213301.000     30.000    41.5367     0.0149   -24.9958     0.0002     0.0007    25.0000    10.0000    10.0000    25.0000    25.0000    10.0000    10.0000    25.0000     0.0018    -0.0023    -0.0009    20.7877    41.4531     1.6337     0.9907     0.9907     0.1761    14.4503    14.5061    -0.055
    157   -36.2036     33.809    280.000 213301.000     30.000    41.5367     0.0149   -24.9958     0.0002     0.0007    25.0000    10.0000    10.0000    25.0000    25.0000    10.0000    10.0000    25.0000     0.0018    -0.0023    -0.0009    20.7877    41.4531     1.6426     0.9963     0.9963     0.1746    14.4503    14.5061    -0.055
    158   -36.4002     33.775    287.000 213301.000     30.000    41.5367     0.0149   -24.9958     0.0002     0.0007    25.0000    10.0000    10.0000    25.0000    25.0000    10.0000    10.0000    25.0000     0.0018    -0.0023    -0.0009    20.7877    41.4531     1.6512     1.0018     1.0018     0.1730    14.4503    14.5061    -0.055
    159   -36.5991     33.980    282.000 213301.000     30.000    41.5367     0.0149   -24.9958     0.0002     0.0007    25.0000    10.0000    10.0000    25.0000    25.0000    10.0000    10.0000    25.0000     0.0018    -0.0023    -0.0009    20.7877    41.4531     1.6599     1.0073     1.0073     0.1715    14.4503    14.5061    -0.055
    160   -36.7972     33.922    258.000 213301.000     30.000    41.5367     0.0149   -24.9958     0.0002     0.0007    25.0000    10.0000    10.0000    25.0000    25.0000    10.0000    10.0000    25.0000     0.0018    -0.0023    -0.0009    20.7877    41.4531     1.6686     1.0128     1.0128     0.1699    14.4503    14.5061    -0.055
    161   -36.9983     33.925    249.000 213301.000     30.000    41.5367     0.0149   -24.9958     0.0002     0.0007    25.0000    10.0000    10.0000    25.0000    25.0000    10.0000    10.0000    25.0000     0.0018    -0.0023    -0.0009    20.7877    41.4531     1.6774     1.0183     1.0183     0.1682    14.4503    14.5061    -0.055
    162   -37.1984     33.877    265.000 213301.000     30.000    41.5367     0.0149   -24.9958     0.0002     0.0007    25.0000    10.0000    10.0000    25.0000    25.0000    10.0000    10.0000    25.0000     0.0018    -0.0023    -0.0009    20.7877    41.4531     1.6862     1.0238     1.0238     0.1665    14.4503    14.5061    -0.055
    163   -37.4025     33.742    241.000 213301.000     30.000    41.5367     0.0149   -24.9958     0.0002     0.0007    25.0000    10.0000    10.0000    25.0000    25.0000    10.0000    10.0000    25.0000     0.0018    -0.0023    -0.0009    20.7877    41.4531     1.6951     1.0295     1.0295     0.1648    14.4503    14.5061    -0.055
    164   -37.6019     33.858    303.000 213301.000     30.000    41.5367     0.0149   -24.9958     0.0002     0.0007    25.0000    10.0000    10.0000    25.0000    25.0000    10.0000    10.0000    25.0000     0.0018    -0.0023    -0.0009    20.7877    41.4531     1.7038     1.0350     1.0350     0.1631    14.4503    14.5061    -0.055
    165   -37.8000     33.747    278.000 213301.000     30.000    41.5367     0.0149   -24.9958     0.0002     0.0007    25.0000    10.0000    10.0000    25.0000    25.0000    10.0000    10.0000    25.0000     0.0018    -0.0023    -0.0009    20.7878    41.4531     1.7124     1.0404     1.0404     0.1613    14.4503    14.5061    -0.055
    166   -38.0013     33.854    299.000 213301.000     30.000    41.5367     0.0149   -24.9958     0.0002     0.0007    25.0000    10.0000    10.0000    25.0000    25.0000    10.0000    10.0000    25.0000     0.0018    -0.0023    -0.0009    20.7877    41.4531     1.7212     1.0460     1.0459     0.1595    14.4503    14.5061    -0.055
    167   -38.1983     33.910    285.000 213301.000     30.000    41.5367     0.0149   -24.9958     0.0002     0.0007    25.0000    10.0000    10.0000    25.0000    25.0000    10.0000    10.0000    25.0000     0.0018    -0.0023    -0.0009    20.7877    41.4531     1.7298     1.0514     1.0514     0.1577    14.4503    14.5061    -0.055
    168   -38.3982     33.969    280.000 213301.000     30.000    41.5367     0.0149   -24.9958     0.0002     0.0007    25.0000    10.0000    10.0000    25.0000    25.0000    10.0000    10.0000    25.0000     0.0018    -0.0023    -0.0009    20.7877    41.4531     1.7385     1.0569     1.0569     0.1559    14.4503    14.5061    -0.055
    169   -38.6003     33.855    272.000 213301.000     30.000    41.5367     0.0149   -24.9958     0.0002     0.0007    25.0000    10.0000    10.0000    25.0000    25.0000    10.0000    10.0000    25.0000     0.0018    -0.0023    -0.0009    20.7877    41.4531     1.7473     1.0624     1.0624     0.1540    14.4503    14.5061    -0.055
    170   -38.8003     33.957    264.000 213301.000     30.000    41.5367     0.0149   -24.9958     0.0002     0.0007    25.0000    10.0000    10.0000    25.0000    25.0000    10.0000    10.0000    25.0000     0.0018    -0.0023    -0.0009    20.7877    41.4531     1.7560     1.0679     1.0679     0.1521    14.4503    14.5061    -0.055
    171   -38.9990     33.552    243.000 213301.000     30.000    41.5367     0.0149   -24.9958     0.0002     0.0007    25.0000    10.0000    10.0000    25.0000    25.0000    10.0000    10.0000    25.0000     0.0018    -0.0023    -0.0009    20.7877    41.4531     1.7647     1.0733     1.0733     0.1502    14.4503    14.5061    -0.055
    172   -39.2016     33.940    266.000 213301.000     30.000    41.5367     0.0149   -24.9958     0.0002     0.0007    25.0000    10.0000    10.0000    25.0000    25.0000    10.0000    10.0000    25.0000     0.0018    -0.0023    -0.0009    20.7877    41.4531     1.7735     1.0789     1.0789     0.1483    14.4503    14.5061    -0.055
    173   -39.4036     34.021    260.000 213301.000     30.000    41.5367     0.0149   -24.9958     0.0002     0.0007    25.0000    10.0000    10.0000    25.0000    25.0000    10.0000    10.0000    25.0000     0.0018    -0.0023    -0.0009    20.7877    41.4531     1.7823     1.0844     1.0844     0.1463    14.4503    14.5061    -0.055
    174   -39.6003     33.850    258.000 213301.000     30.000    41.5367     0.0149   -24.9958     0.0002     0.0007    25.0000    10.0000    10.0000    25.0000    25.0000    10.0000    10.0000    25.0000     0.0018    -0.0023    -0.0009    20.7877    41.4530     1.7908     1.0898     1.0898     0.1443    14.4503    14.5061    -0.055
    175   -39.7972     33.845    254.000 213301.000     30.000    41.5367     0.0149   -24.9958     0.0002     0.0007    25.0000    10.0000    10.0000    25.0000    25.0000    10.0000    10.0000    25.0000     0.0018    -0.0023    -0.0009    20.7877    41.4530     1.7993     1.0952     1.0951     0.1423    14.4503    14.5061    -0.055
    176   -39.9977     33.688    269.000 213301.000     30.000    41.5367     0.0149   -24.9958     0.0002     0.0007    25.0000    10.0000    10.0000    25.0000    25.0000    10.0000    10.0000    25.0000     0.0018    -0.0023    -0.0009    20.7877    41.4530     1.8080     1.1006     1.1006     0.1402    14.4503    14.5061    -0.055
    177   -40.1990     33.737    270.000 213301.000     30.000    41.5367     0.0149   -24.9958     0.0002     0.0007    25.0000    10.0000    10.0000    25.0000    25.0000    10.0000    10.0000    25.0000     0.0018    -0.0023    -0.0009    20.7877    41.4530     1.8168     1.1061     1.1061     0.1382    14.4503    14.5061    -0.055
    178   -40.3997     33.939    270.000 213301.000     30.000    41.5367     0.0149   -24.9958     0.0002     0.0007    25.0000    10.0000    10.0000    25.0000    25.0000    10.0000    10.0000    25.0000     0.0018    -0.0023    -0.0009    20.7877    41.4530     1.8255     1.1116     1.1116     0.1360    14.4503    14.5061    -0.055
    179   -40.5980     33.805    237.000 213301.000     30.000    41.5367     0.0149   -24.9958     0.0002     0.0007    25.0000    10.0000    10.0000    25.0000    25.0000    10.0000    10.0000    25.0000     0.0018    -0.0023    -0.0009    20.7877    41.4530     1.8340     1.1170     1.1170     0.1339    14.4503    14.5061    -0.055
    180   -40.8013     33.925    285.000 213301.000     30.000    41.5367     0.0149   -24.9958     0.0002     0.0007    25.0000    10.0000    10.0000    25.0000    25.0000    10.0000    10.0000    25.0000     0.0018    -0.0023    -0.0009    20.7877    41.4530     1.8428     1.1225     1.1225     0.1317    14.4503    14.5061    -0.055
    181   -41.0029     33.785    262.000 213301.000     30.000    41.5367     0.0149   -24.9958     0.0002     0.0007    25.0000    10.0000    10.0000    25.0000    25.0000    10.0000    10.0000    25.0000     0.0018    -0.0023    -0.0009    20.7877    41.4530     1.8516     1.1280     1.1280     0.1295    14.4503    14.5061    -0.055
    182   -41.2020     33.623    261.000 213301.000     30.000    41.5367     0.0149   -24.9958     0.0002     0.0007    25.0000    10.0000    10.0000    25.0000    25.0000    10.0000    10.0000    25.0000     0.0018    -0.0023    -0.0009    20.7877    41.4530     1.8601     1.1334     1.1334     0.1273    14.4503    14.5061    -0.055
    183   -41.3975     33.849    249.000 213301.000     30.000    41.5367     0.0149   -24.9958     0.0002     0.0007    25.0000    10.0000    10.0000    25.0000    25.0000    10.0000    10.0000    25.0000     0.0018    -0.0023    -0.0009    20.7877    41.4530     1.8686     1.1387     1.1387     0.1251    14.4503    14.5061    -0.055
    184   -41.5997     33.749    262.000 213301.000     30.000    41.5367     0.0149   -24.9958     0.0002     0.0007    25.0000    10.0000    10.0000    25.0000    25.0000    10.0000    10.0000    25.0000     0.0018    -0.0023    -0.0009    20.7877    41.4530     1.8773     1.1441     1.1441     0.1228    14.4503    14.5061    -0.055
    185   -41.7990     33.933    255.000 213301.000     30.000    41.5367     0.0149   -24.9958     0.0002     0.0007    25.0000    10.0000    10.0000    25.0000    25.0000    10.0000    10.0000    25.0000     0.0018    -0.0023    -0.0009    20.7877    41.4530     1.8859     1.1495     1.1495     0.1205    14.4503    14.5061    -0.055
    186   -41.9998     34.172    262.000 213301.000     30.000    41.5367     0.0149   -24.9958     0.0002     0.0007    25.0000    10.0000    10.0000    25.0000    25.0000    10.0000    10.0000    25.0000     0.0018    -0.0023    -0.0009    20.7877    41.4530     1.8946     1.1549     1.1549     0.1182    14.4503    14.5061    -0.055
    187   -42.2004     33.734    279.000 213301.000     30.000    41.5367     0.0149   -24.9958     0.0002     0.0007    25.0000    10.0000    10.0000    25.0000    25.0000    10.0000    10.0000    25.0000     0.0018    -0.0023    -0.0009    20.7877    41.4530     1.9032     1.1603     1.1603     0.1159    14.4503    14.5061    -0.055
    188   -42.4028     33.939    303.000 213301.000     30.000    41.5367     0.0149   -24.9958     0.0002     0.0007    25.0000    10.0000    10.0000    25.0000    25.0000    10.0000    10.0000    25.0000     0.0018    -0.0023    -0.0009    20.7877    41.4530     1.9119     1.1658     1.1658     0.1135    14.4503    14.5061    -0.055
    189   -42.6035     33.714    288.000 213301.000     30.000    41.5367     0.0149   -24.9958     0.0002     0.0007    25.0000    10.0000    10.0000    25.0000    25.0000    10.0000    10.0000    25.0000     0.0018    -0.0023    -0.0009    20.7877    41.4530     1.9205     1.1712     1.1712     0.1110    14.4503    14.5061    -0.055
    190   -42.8008     33.806    300.000 213301.000     30.000    41.5367     0.0149   -24.9958     0.0002     0.0007    25.0000    10.0000    10.0000    25.0000    25.0000    10.0000    10.0000    25.0000     0.0018    -0.0023    -0.0009    20.7877    41.4530     1.9290     1.1765     1.1765     0.1087    14.4503    14.5061    -0.055
    191   -42.9999     33.945    326.000 213301.000     30.000    41.5367     0.0149   -24.9958     0.0002     0.0007    25.0000    10.0000    10.0000    25.0000    25.0000    10.0000    10.0000    25.0000     0.0018    -0.0024    -0.0009    20.7877    41.4530     1.9376     1.1819     1.1819     0.1062    14.4503    14.5061    -0.055
    192   -43.1978     33.926    331.000 213301.000     30.000    41.5367     0.0149   -24.9958     0.0002     0.0007    25.0000    10.0000    10.0000    25.0000    25.0000    10.0000    10.0000    25.0000     0.0018    -0.0023    -0.0009    20.7877    41.4530     1.9461     1.1872     1.1872     0.1038    14.4503    14.5061    -0.055
    193   -43.3970     33.773    406.000 213301.000     30.000    41.5367     0.0149   -24.9958     0.0002     0.0007    25.0000    10.0000    10.0000    25.0000    25.0000    10.0000    10.0000    25.0000     0.0018    -0.0023    -0.0009    20.7877    41.4530     1.9546     1.1925     1.1925     0.1013    14.4503    14.5061    -0.055
    194   -43.5990     33.960    644.000 213301.000     30.000    41.5367     0.0149   -24.9958     0.0002     0.0007    25.0000    10.0000    10.0000    25.0000    25.0000    10.0000    10.0000    25.0000     0.0018    -0.0023    -0.0009    20.7877    41.4531     1.9632     1.1979     1.1979     0.0987    14.4503    14.5061    -0.055
    195   -43.7994     33.811   1651.000 213301.000     30.000    41.5367     0.0149   -24.9958     0.0002     0.0007    25.0000    10.0000    10.0000    25.0000    25.0000    10.0000    10.0000    25.0000     0.0018    -0.0023    -0.0009    20.7877    41.4530     1.9718     1.2033     1.2033     0.0961    14.4503    14.5061    -0.055
    196   -44.0013     33.948   6519.000 213301.000     30.000    41.5367     0.0149   -24.9958     0.0002     0.0007    25.0000    10.0000    10.0000    25.0000    25.0000    10.0000    10.0000    25.0000     0.0018    -0.0023    -0.0009    20.7877    41.4530     1.9805     1.2087     1.2087     0.0935    14.4503    14.5061    -0.055
    197   -44.2037     34.016  21051.000 213301.000     30.000    41.5367     0.0149   -24.9958     0.0002     0.0007    25.0000    10.0000    10.0000    25.0000    25.0000    10.0000    10.0000    25.0000     0.0018    -0.0023    -0.0009    20.7877    41.4530     1.9891     1.2141     1.2141     0.0909    14.4503    14.5061    -0.055
    198   -44.4033     33.934  42081.000 213301.000     30.000    41.5367     0.0149   -24.9958     0.0002     0.0007    25.0000    10.0000    10.0000    25.0000    25.0000    10.0000    10.0000    25.0000     0.0018    -0.0023    -0.0009    20.7877    41.4530     1.9976     1.2194     1.2194     0.0882    14.4503    14.5061    -0.055
    199   -44.6005     33.714  53949.000 213301.000     30.000    41.5367     0.0149   -24.9958     0.0002     0.0007    25.0000    10.0000    10.0000    25.0000    25.0000    10.0000    10.0000    25.0000     0.0018    -0.0024    -0.0009    20.7877    41.4530     2.0061     1.2246     1.2246     0.0856    14.4503    14.5061    -0.055
    200   -44.7975     34.078  48129.000 213301.000     30.000    41.5367     0.0149   -24.9958     0.0002     0.0007    25.0000    10.0000    10.0000    25.0000    25.0000    10.0000    10.0000    25.0000     0.0018    -0.0023    -0.0009    20.7877    41.4531     2.0145     1.2299     1.2299     0.0830    14.4503    14.5061    -0.055
    201   -45.0001     33.815  28366.000 213301.000     30.000    41.5367     0.0149   -24.9958     0.0002     0.0007    25.0000    10.0000    10.0000    25.0000    25.0000    10.0000    10.0000    25.0000     0.0018    -0.0023    -0.0009    20.7877    41.4530     2.0231     1.2352     1.2352     0.0802    14.4503    14.5061    -0.055
    202   -45.1986     33.837  11945.000 213301.000     30.000    41.5367     0.0149   -24.9958     0.0002     0.0007    25.0000    10.0000    10.0000    25.0000    25.0000    10.0000    10.0000    25.0000     0.0018    -0.0023    -0.0009    20.7877    41.4531     2.0316     1.2405     1.2405     0.0775    14.4503    14.5061    -0.055
    203   -45.3994     33.903   3640.000 213301.000     30.000    41.5367     0.0149   -24.9958     0.0002     0.0007    25.0000    10.0000    10.0000    25.0000    25.0000    10.0000    10.0000    25.0000     0.0018    -0.0023    -0.0009    20.7877    41.4531     2.0401     1.2458     1.2458     0.0747    14.4503    14.5061    -0.055
    204   -45.6007     33.839   1047.000 213301.000     30.000    41.5367     0.0149   -24.9958     0.0002     0.0007    25.0000    10.0000    10.0000    25.0000    25.0000    10.0000    10.0000    25.0000     0.0018    -0.0023    -0.0009    20.7878    41.4530     2.0487     1.2511     1.2511     0.0719    14.4503    14.5061    -0.055
    205   -45.8011     33.791    484.000 213301.000     30.000    41.5367     0.0149   -24.9958     0.0002     0.0007    25.0000    10.0000    10.0000    25.0000    25.0000    10.0000    10.0000    25.0000     0.0018    -0.0023    -0.0009    20.7877    41.4531     2.0572     1.2564     1.2564     0.0691    14.4503    14.5061    -0.055
    206   -46.0022     33.949    314.000 213301.000     30.000    41.5367     0.0149   -24.9958     0.0002     0.0007    25.0000    10.0000    10.0000    25.0000    25.0000    10.0000    10.0000    25.0000     0.0018    -0.0023    -0.0009    20.7877    41.4530     2.0657     1.2617     1.2617     0.0662    14.4503    14.5061    -0.055
    207   -46.2004     33.782    291.000 213301.000     30.000    41.5367     0.0149   -24.9958     0.0002     0.0007    25.0000    10.0000    10.0000    25.0000    25.0000    10.0000    10.0000    25.0000     0.0018    -0.0023    -0.0009    20.7877    41.4530     2.0742     1.2669     1.2669     0.0634    14.4503    14.5061    -0.055
    208   -46.3975     34.165    270.000 213301.000     30.000    41.5367     0.0149   -24.9958     0.0002     0.0007    25.0000    10.0000    10.0000    25.0000    25.0000    10.0000    10.0000    25.0000     0.0018    -0.0023    -0.0009    20.7877    41.4531     2.0825     1.2721     1.2721     0.0605    14.4503    14.5061    -0.055
    209   -46.5969     34.026    252.000 213301.000     30.000    41.5367     0.0149   -24.9958     0.0002     0.0007    25.0000    10.0000    10.0000    25.0000    25.0000    10.0000    10.0000    25.0000     0.0018    -0.0023    -0.0009    20.7877    41.4530     2.0910     1.2774     1.2774     0.0576    14.4503    14.5061    -0.055
    210   -46.7983     34.053    232.000 213301.000     30.000    41.5367     0.0149   -24.9958     0.0002     0.0007    25.0000    10.0000    10.0000    25.0000    25.0000    10.0000    10.0000    25.0000     0.0018    -0.0023    -0.0009    20.7877    41.4530     2.0995     1.2826     1.2826     0.0546    14.4503    14.5061    -0.055
    211   -46.9993     33.923    234.000 213301.000     30.000    41.5367     0.0149   -24.9958     0.0002     0.0007    25.0000    10.0000    10.0000    25.0000    25.0000    10.0000    10.0000    25.0000     0.0018    -0.0023    -0.0009    20.7878    41.4530     2.1080     1.2879     1.2879     0.0516    14.4503    14.5061    -0.055
    212   -47.1990     34.096    250.000 213301.000     30.000    41.5367     0.0149   -24.9958     0.0002     0.0007    25.0000    10.0000    10.0000    25.0000    25.0000    10.0000    10.0000    25.0000     0.0018    -0.0023    -0.0009    20.7877    41.4531     2.1165     1.2931     1.2931     0.0486    14.4503    14.5061    -0.055
    213   -47.4005     33.983    268.000 213301.000     30.000    41.5367     0.0149   -24.9958     0.0002     0.0007    25.0000    10.0000    10.0000    25.0000    25.0000    10.0000    10.0000    25.0000     0.0018    -0.0023    -0.0009    20.7877    41.4530     2.1250     1.2984     1.2984     0.0456    14.4503    14.5061    -0.055
    214   -47.6023     34.018    225.000 213301.000     30.000    41.5367     0.0149   -24.9958     0.0002     0.0007    25.0000    10.0000    10.0000    25.0000    25.0000    10.0000    10.0000    25.0000     0.0018    -0.0023    -0.0009    20.7878    41.4531     2.1335     1.3037     1.3036     0.0425    14.4503    14.5061    -0.055
    215   -47.7997     33.919    251.000 213301.000     30.000    41.5367     0.0149   -24.9958     0.0002     0.0007    25.0000    10.0000    10.0000    25.0000    25.0000    10.0000    10.0000    25.0000     0.0018    -0.0023    -0.0009    20.7877    41.4531     2.1418     1.3088     1.3088     0.0394    14.4503    14.5061    -0.055
    216   -47.9987     33.934    216.000 213301.000     30.000    41.5367     0.0149   -24.9958     0.0002     0.0007    25.0000    10.0000    10.0000    25.0000    25.0000    10.0000    10.0000    25.0000     0.0018    -0.0023    -0.0009    20.7877    41.4531     2.1502     1.3140     1.3140     0.0363    14.4503    14.5061    -0.055
    217   -48.2001     33.812    236.000 213301.000     30.000    41.5367     0.0149   -24.9958     0.0002     0.0007    25.0000    10.0000    10.0000    25.0000    25.0000    10.0000    10.0000    25.0000     0.0018    -0.0023    -0.0009    20.7878    41.4531     2.1587     1.3192     1.3192     0.0332    14.4503    14.5061    -0.055
    218   -48.3987     33.898    249.000 213301.000     30.000    41.5367     0.0149   -24.9958     0.0002     0.0007    25.0000    10.0000    10.0000    25.0000    25.0000    10.0000    10.0000    25.0000     0.0018    -0.0023    -0.0009    20.7878    41.4531     2.1671     1.3243     1.3243     0.0301    14.4503    14.5061    -0.055
    219   -48.5996     33.957    231.000 213301.000     30.000    41.5367     0.0149   -24.9958     0.0002     0.0007    25.0000    10.0000    10.0000    25.0000    25.0000    10.0000    10.0000    25.0000     0.0018    -0.0024    -0.0009    20.7878    41.4530     2.1755     1.3295     1.3295     0.0269    14.4503    14.5061    -0.055
    220   -48.8003     33.869    260.000 213301.000     30.000    41.5367     0.0149   -24.9958     0.0002     0.0007    25.0000    10.0000    10.0000    25.0000    25.0000    10.0000    10.0000    25.0000     0.0018    -0.0023    -0.0009    20.7878    41.4530     2.1840     1.3347     1.3347     0.0236    14.4503    14.5061    -0.055
    221   -49.0034     34.050    228.000 213301.000     30.000    41.5367     0.0149   -24.9958     0.0002     0.0007    25.0000    10.0000    10.0000    25.0000    25.0000    10.0000    10.0000    25.0000     0.0018    -0.0023    -0.0009    20.7878    41.4530     2.1925     1.3400     1.3400     0.0203    14.4503    14.5061    -0.055
    222   -49.2017     34.075    219.000 213301.000     30.000    41.5367     0.0149   -24.9958     0.0002     0.0007    25.0000    10.0000    10.0000    25.0000    25.0000    10.0000    10.0000    25.0000     0.0018    -0.0023    -0.0009    20.7877    41.4530     2.2008     1.3451     1.3451     0.0171    14.4503    14.5061    -0.055
    223   -49.4017     34.048    256.000 213301.000     30.000    41.5367     0.0149   -24.9958     0.0002     0.0007    25.0000    10.0000    10.0000    25.0000    25.0000    10.0000    10.0000    25.0000     0.0018    -0.0023    -0.0009    20.7878    41.4531     2.2092     1.3502     1.3502     0.0138    14.4503    14.5061    -0.055
    224   -49.5977     33.965    225.000 213301.000     30.000    41.5367     0.0149   -24.9958     0.0002     0.0007    25.0000    10.0000    10.0000    25.0000    25.0000    10.0000    10.0000    25.0000     0.0018    -0.0023    -0.0009    20.7878    41.4530     2.2174     1.3553     1.3553     0.0106    14.4503    14.5061    -0.055
    225   -49.7978     33.897    228.000 213301.000     30.000    41.5367     0.0149   -24.9958     0.0002     0.0007    25.0000    10.0000    10.0000    25.0000    25.0000    10.0000    10.0000    25.0000     0.0018    -0.0023    -0.0009    20.7878    41.4530     2.2258     1.3604     1.3604     0.0072    14.4503    14.5061    -0.055
    226   -49.9976     33.961    184.000 213301.000     30.000    41.5367     0.0149   -24.9958     0.0002     0.0007    25.0000    10.0000    10.0000    25.0000    25.0000    10.0000    10.0000    25.0000     0.0018    -0.0023    -0.0009    20.7877    41.4530     2.2341     1.3655     1.3655     0.0039    14.4503    14.5061    -0.055
    227   -50.1981     33.815    242.000 213301.000     30.000    41.5367     0.0149   -24.9958     0.0002     0.0007    25.0000    10.0000    10.0000    25.0000    25.0000    10.0000    10.0000    25.0000     0.0018    -0.0023    -0.0009    20.7878    41.4530     2.2425     1.3706     1.3706     0.0005    14.4503    14.5061    -0.055
    228   -50.3998     33.920    242.000 213301.000     30.000    41.5367     0.0149   -24.9958     0.0002     0.0007    25.0000    10.0000    10.0000    25.0000    25.0000    10.0000    10.0000    25.0000     0.0018    -0.0023    -0.0009    20.7878    41.4530     2.2509     1.3758     1.3758    -0.0029    14.4503    14.5061    -0.055
    229   -50.6024     33.975    231.000 213301.000     30.000    41.5367     0.0149   -24.9958     0.0002     0.0007    25.0000    10.0000    10.0000    25.0000    25.0000    10.0000    10.0000    25.0000     0.0018    -0.0023    -0.0009    20.7877    41.4530     2.2594     1.3809     1.3809    -0.0064    14.4503    14.5061    -0.055
    230   -50.8015     34.016    232.000 213301.000     30.000    41.5367     0.0149   -24.9958     0.0002     0.0007    25.0000    10.0000    10.0000    25.0000    25.0000    10.0000    10.0000    25.0000     0.0018    -0.0023    -0.0009    20.7878    41.4530     2.2677     1.3860     1.3860    -0.0099    14.4503    14.5061    -0.055
    231   -50.9998     33.856    215.000 213301.000     30.000    41.5367     0.0149   -24.9958     0.0002     0.0007    25.0000    10.0000    10.0000    25.0000    25.0000    10.0000    10.0000    25.0000     0.0018    -0.0023    -0.0009    20.7878    41.4530     2.2759     1.3910     1.3910    -0.0133    14.4503    14.5061    -0.055
    232   -51.1992     34.067    225.000 213301.000     30.000    41.5367     0.0149   -24.9958     0.0002     0.0007    25.0000    10.0000    10.0000    25.0000    25.0000    10.0000    10.0000    25.0000     0.0018    -0.0023    -0.0009    20.7878    41.4531     2.2843     1.3961     1.3961    -0.0168    14.4503    14.5061    -0.055
    233   -51.3991     34.015    231.000 213301.000     30.000    41.5367     0.0149   -24.9958     0.0002     0.0007    25.0000    10.0000    10.0000    25.0000    25.0000    10.0000    10.0000    25.0000     0.0018    -0.0023    -0.0009    20.7878    41.4530     2.2926     1.4012     1.4011    -0.0204    14.4503    14.5061    -0.055
    234   -51.5996     34.083    241.000 213301.000     30.000    41.5367     0.0149   -24.9958     0.0002     0.0007    25.0000    10.0000    10.0000    25.0000    25.0000    10.0000    10.0000    25.0000     0.0018    -0.0023    -0.0009    20.7878    41.4530     2.3009     1.4062     1.4062    -0.0239    14.4503    14.5061    -0.055
    235   -51.7994     33.826    228.000 213301.000     30.000    41.5367     0.0149   -24.9958     0.0002     0.0007    25.0000    10.0000    10.0000    25.0000    25.0000    10.0000    10.0000    25.0000     0.0018    -0.0023    -0.0009    20.7878    41.4530     2.3092     1.4113     1.4112    -0.0275    14.4503    14.5061    -0.055
    236   -51.9990      0.000      0.000      0.000     30.000    41.5367     0.0149   -24.9958     0.0002     0.0007    25.0000    10.0000    10.0000    25.0000    25.0000    10.0000    10.0000    25.0000     0.0018    -0.0023    -0.0009    20.7878    41.4530     2.3175     1.4163     1.4163    -0.0311    14.4503    14.5061    -0.055
# Sum of Counts = 323497
# Center of Mass = -36.919416+/-0.094841
# Full Width Half-Maximum = 27.109446+/-0.058217
# 8:47:32 AM  5/24/2023   scan stopped!!
