# scan = 27
# date = 5/24/2023
# time = 12:31:13 AM
# proposal = 9879
# experiment = HB-1A  -Instrument time
# experiment_number = 978
# command = scan s2 -5 -120 0.2 preset mcu 30
# builtin_command = scan s2 -5 -120 0.2 preset mcu 30
# users = Feng Ye, John Carruth, Adam Aczel, Songxue Chi, Jaime Fernandez-Baca, Masaaki Matsuda, Tao Hong, Travis Williams, Wei Tian, Michael Cox
# local_contact = Wei Tian, Adam Aczel
# scan_title = Si powder elastic config, 40' S-A coll, 80' A-D colli, 2nd
# monochromator = PG002
# analyzer = Pg002
# sense = +-+
# collimation = 40-40-40-80
# samplename = Si powdre, Si crystal, FeGa alloy, La2Ni7 crystal, Ba2.8Sr0.2CoSn2O9 crystal
# sampletype = crystal
# samplemosaic = 30.000000
# latticeconstants = 5.431000,5.431000,5.431000,90.000000,90.000000,90.000000
# ubmatrix = 0.130198,0.130198,-0.000000,-0.000000,-0.000000,0.184128,0.130198,-0.130198,-0.000000
# mode = 0
# plane_normal = 0.000000,0.000000,1.000000
# ubconf = UB23May2023_31856PM.ini
# preset_type = normal 
# preset_channel = mcu
# preset_value = 30.000000
# def_x = s2
# def_y = detector
# col_headers = 
#   Pt.         s2       time   detector    monitor        mcu         m2   rad_coll         s1        sgl        sgu   slitb_bt   slitb_lf   slitb_rt   slitb_tp   slita_bt   slita_lf   slita_rt   slita_tp        stl        stu         sz         a1         a2          q          h          k          l         ei         ef          e
      1    -5.0009     34.655   1902.000 213301.000     30.000    41.5367     0.0149   -24.9958     0.0002     0.0007    25.0000    10.0000    10.0000    25.0000    25.0000    10.0000    10.0000    25.0000     0.0018    -0.0024    -0.0010    20.7911    41.4531     0.2307     0.1291     0.1291     0.0803    14.4503    14.5060    -0.055
      2    -5.2004     34.591   1850.000 213301.000     30.000    41.5367     0.0149   -24.9958     0.0002     0.0007    25.0000    10.0000    10.0000    25.0000    25.0000    10.0000    10.0000    25.0000     0.0018    -0.0023    -0.0009    20.7903    41.4531     0.2399     0.1343     0.1343     0.0830    14.4503    14.5060    -0.055
      3    -5.4005     34.567   1627.000 213301.000     30.000    41.5367     0.0149   -24.9958     0.0002     0.0007    25.0000    10.0000    10.0000    25.0000    25.0000    10.0000    10.0000    25.0000     0.0018    -0.0023    -0.0009    20.7900    41.4531     0.2491     0.1397     0.1397     0.0857    14.4503    14.5061    -0.055
      4    -5.5978     34.392   1662.000 213301.000     30.000    41.5367     0.0149   -24.9958     0.0002     0.0007    25.0000    10.0000    10.0000    25.0000    25.0000    10.0000    10.0000    25.0000     0.0018    -0.0024    -0.0009    20.7897    41.4530     0.2582     0.1449     0.1449     0.0884    14.4503    14.5061    -0.055
      5    -5.7981     34.529   1609.000 213301.000     30.000    41.5367     0.0149   -24.9958     0.0002     0.0007    25.0000    10.0000    10.0000    25.0000    25.0000    10.0000    10.0000    25.0000     0.0018    -0.0023    -0.0009    20.7895    41.4531     0.2674     0.1503     0.1503     0.0910    14.4503    14.5061    -0.055
      6    -5.9973     34.649   1545.000 213301.000     30.000    41.5367     0.0149   -24.9958     0.0002     0.0007    25.0000    10.0000    10.0000    25.0000    25.0000    10.0000    10.0000    25.0000     0.0018    -0.0023    -0.0009    20.7893    41.4531     0.2766     0.1556     0.1556     0.0936    14.4503    14.5061    -0.055
      7    -6.1983     34.477   1489.000 213301.000     30.000    41.5367     0.0149   -24.9958     0.0002     0.0007    25.0000    10.0000    10.0000    25.0000    25.0000    10.0000    10.0000    25.0000     0.0018    -0.0023    -0.0009    20.7890    41.4531     0.2859     0.1609     0.1609     0.0962    14.4503    14.5061    -0.055
      8    -6.4014     34.634   1492.000 213301.000     30.000    41.5367     0.0149   -24.9958     0.0002     0.0007    25.0000    10.0000    10.0000    25.0000    25.0000    10.0000    10.0000    25.0000     0.0018    -0.0023    -0.0009    20.7891    41.4530     0.2952     0.1664     0.1664     0.0988    14.4503    14.5061    -0.055
      9    -6.6022     34.611   1330.000 213301.000     30.000    41.5367     0.0149   -24.9958     0.0002     0.0007    25.0000    10.0000    10.0000    25.0000    25.0000    10.0000    10.0000    25.0000     0.0018    -0.0023    -0.0009    20.7890    41.4531     0.3045     0.1717     0.1717     0.1014    14.4503    14.5061    -0.055
     10    -6.7990     34.527   1312.000 213301.000     30.000    41.5367     0.0149   -24.9958     0.0002     0.0007    25.0000    10.0000    10.0000    25.0000    25.0000    10.0000    10.0000    25.0000     0.0018    -0.0023    -0.0009    20.7888    41.4530     0.3135     0.1770     0.1770     0.1038    14.4503    14.5061    -0.055
     11    -6.9999     34.452   1238.000 213301.000     30.000    41.5367     0.0149   -24.9958     0.0002     0.0007    25.0000    10.0000    10.0000    25.0000    25.0000    10.0000    10.0000    25.0000     0.0018    -0.0023    -0.0009    20.7888    41.4530     0.3228     0.1824     0.1824     0.1063    14.4503    14.5061    -0.055
     12    -7.2024     34.474   1202.000 213301.000     30.000    41.5367     0.0149   -24.9958     0.0002     0.0007    25.0000    10.0000    10.0000    25.0000    25.0000    10.0000    10.0000    25.0000     0.0018    -0.0023    -0.0009    20.7888    41.4530     0.3321     0.1878     0.1878     0.1088    14.4503    14.5061    -0.055
     13    -7.4039     34.371   1185.000 213301.000     30.000    41.5367     0.0149   -24.9958     0.0002     0.0007    25.0000    10.0000    10.0000    25.0000    25.0000    10.0000    10.0000    25.0000     0.0018    -0.0023    -0.0009    20.7887    41.4530     0.3414     0.1933     0.1933     0.1112    14.4503    14.5061    -0.055
     14    -7.6012     34.413   1114.000 213301.000     30.000    41.5367     0.0149   -24.9958     0.0002     0.0007    25.0000    10.0000    10.0000    25.0000    25.0000    10.0000    10.0000    25.0000     0.0018    -0.0023    -0.0009    20.7887    41.4530     0.3505     0.1986     0.1986     0.1136    14.4503    14.5061    -0.055
     15    -7.7970     34.401   1092.000 213301.000     30.000    41.5367     0.0149   -24.9958     0.0002     0.0007    25.0000    10.0000    10.0000    25.0000    25.0000    10.0000    10.0000    25.0000     0.0018    -0.0023    -0.0009    20.7886    41.4530     0.3595     0.2038     0.2038     0.1159    14.4503    14.5061    -0.055
     16    -7.9998     34.593   1106.000 213301.000     30.000    41.5367     0.0149   -24.9958     0.0002     0.0007    25.0000    10.0000    10.0000    25.0000    25.0000    10.0000    10.0000    25.0000     0.0018    -0.0023    -0.0009    20.7885    41.4530     0.3688     0.2093     0.2093     0.1183    14.4503    14.5061    -0.055
     17    -8.1971     34.622   1052.000 213301.000     30.000    41.5367     0.0149   -24.9958     0.0002     0.0007    25.0000    10.0000    10.0000    25.0000    25.0000    10.0000    10.0000    25.0000     0.0018    -0.0023    -0.0009    20.7885    41.4530     0.3779     0.2146     0.2146     0.1206    14.4503    14.5061    -0.055
     18    -8.3964     34.640    959.000 213301.000     30.000    41.5367     0.0149   -24.9958     0.0002     0.0007    25.0000    10.0000    10.0000    25.0000    25.0000    10.0000    10.0000    25.0000     0.0018    -0.0023    -0.0009    20.7885    41.4530     0.3871     0.2200     0.2200     0.1229    14.4503    14.5061    -0.055
     19    -8.5998     34.629    950.000 213301.000     30.000    41.5367     0.0149   -24.9958     0.0002     0.0007    25.0000    10.0000    10.0000    25.0000    25.0000    10.0000    10.0000    25.0000     0.0018    -0.0023    -0.0009    20.7884    41.4530     0.3964     0.2255     0.2255     0.1252    14.4503    14.5061    -0.055
     20    -8.7965     34.581    987.000 213301.000     30.000    41.5367     0.0149   -24.9958     0.0002     0.0007    25.0000    10.0000    10.0000    25.0000    25.0000    10.0000    10.0000    25.0000     0.0018    -0.0023    -0.0009    20.7884    41.4530     0.4055     0.2309     0.2309     0.1274    14.4503    14.5061    -0.055
     21    -9.0002     34.317    925.000 213301.000     30.000    41.5367     0.0149   -24.9958     0.0002     0.0007    25.0000    10.0000    10.0000    25.0000    25.0000    10.0000    10.0000    25.0000     0.0018    -0.0023    -0.0010    20.7884    41.4530     0.4148     0.2364     0.2364     0.1297    14.4503    14.5061    -0.055
     22    -9.2003     34.520    919.000 213301.000     30.000    41.5367     0.0149   -24.9958     0.0002     0.0007    25.0000    10.0000    10.0000    25.0000    25.0000    10.0000    10.0000    25.0000     0.0018    -0.0024    -0.0009    20.7883    41.4530     0.4240     0.2418     0.2418     0.1318    14.4503    14.5061    -0.055
     23    -9.3979     34.579    835.000 213301.000     30.000    41.5367     0.0149   -24.9958     0.0002     0.0007    25.0000    10.0000    10.0000    25.0000    25.0000    10.0000    10.0000    25.0000     0.0018    -0.0023    -0.0009    20.7883    41.4530     0.4331     0.2472     0.2472     0.1340    14.4503    14.5061    -0.055
     24    -9.6037     34.464    830.000 213301.000     30.000    41.5367     0.0149   -24.9958     0.0002     0.0007    25.0000    10.0000    10.0000    25.0000    25.0000    10.0000    10.0000    25.0000     0.0018    -0.0023    -0.0009    20.7882    41.4530     0.4426     0.2528     0.2528     0.1362    14.4503    14.5061    -0.055
     25    -9.8008     34.343    846.000 213301.000     30.000    41.5367     0.0149   -24.9958     0.0002     0.0007    25.0000    10.0000    10.0000    25.0000    25.0000    10.0000    10.0000    25.0000     0.0018    -0.0023    -0.0009    20.7882    41.4530     0.4516     0.2582     0.2582     0.1382    14.4503    14.5061    -0.055
     26    -9.9972     34.515    779.000 213301.000     30.000    41.5367     0.0149   -24.9958     0.0002     0.0007    25.0000    10.0000    10.0000    25.0000    25.0000    10.0000    10.0000    25.0000     0.0018    -0.0023    -0.0009    20.7882    41.4530     0.4607     0.2635     0.2635     0.1403    14.4503    14.5061    -0.055
     27   -10.2019     34.585    819.000 213301.000     30.000    41.5367     0.0149   -24.9958     0.0002     0.0007    25.0000    10.0000    10.0000    25.0000    25.0000    10.0000    10.0000    25.0000     0.0018    -0.0024    -0.0009    20.7882    41.4530     0.4701     0.2691     0.2691     0.1424    14.4503    14.5061    -0.055
     28   -10.4009     34.518    816.000 213301.000     30.000    41.5367     0.0149   -24.9958     0.0002     0.0007    25.0000    10.0000    10.0000    25.0000    25.0000    10.0000    10.0000    25.0000     0.0018    -0.0023    -0.0009    20.7881    41.4530     0.4792     0.2745     0.2745     0.1444    14.4503    14.5061    -0.055
     29   -10.5999     34.576    758.000 213301.000     30.000    41.5367     0.0149   -24.9958     0.0002     0.0007    25.0000    10.0000    10.0000    25.0000    25.0000    10.0000    10.0000    25.0000     0.0018    -0.0023    -0.0009    20.7883    41.4530     0.4884     0.2800     0.2800     0.1464    14.4503    14.5061    -0.055
     30   -10.7982     34.549    719.000 213301.000     30.000    41.5367     0.0149   -24.9958     0.0002     0.0007    25.0000    10.0000    10.0000    25.0000    25.0000    10.0000    10.0000    25.0000     0.0018    -0.0023    -0.0009    20.7882    41.4530     0.4975     0.2854     0.2854     0.1483    14.4503    14.5061    -0.055
     31   -10.9998     34.459    730.000 213301.000     30.000    41.5367     0.0149   -24.9958     0.0002     0.0007    25.0000    10.0000    10.0000    25.0000    25.0000    10.0000    10.0000    25.0000     0.0018    -0.0023    -0.0009    20.7882    41.4530     0.5067     0.2909     0.2909     0.1503    14.4503    14.5061    -0.055
     32   -11.1988     34.354    728.000 213301.000     30.000    41.5367     0.0149   -24.9958     0.0002     0.0007    25.0000    10.0000    10.0000    25.0000    25.0000    10.0000    10.0000    25.0000     0.0018    -0.0023    -0.0009    20.7881    41.4530     0.5159     0.2964     0.2964     0.1522    14.4503    14.5061    -0.055
     33   -11.4008     34.473    714.000 213301.000     30.000    41.5367     0.0149   -24.9958     0.0002     0.0007    25.0000    10.0000    10.0000    25.0000    25.0000    10.0000    10.0000    25.0000     0.0018    -0.0023    -0.0009    20.7881    41.4530     0.5251     0.3019     0.3019     0.1541    14.4503    14.5061    -0.055
     34   -11.5975     34.479    676.000 213301.000     30.000    41.5367     0.0149   -24.9958     0.0002     0.0007    25.0000    10.0000    10.0000    25.0000    25.0000    10.0000    10.0000    25.0000     0.0018    -0.0023    -0.0009    20.7881    41.4530     0.5342     0.3073     0.3073     0.1559    14.4503    14.5061    -0.055
     35   -11.8012     34.251    635.000 213301.000     30.000    41.5367     0.0149   -24.9958     0.0002     0.0007    25.0000    10.0000    10.0000    25.0000    25.0000    10.0000    10.0000    25.0000     0.0018    -0.0023    -0.0009    20.7881    41.4530     0.5435     0.3129     0.3129     0.1578    14.4503    14.5061    -0.055
     36   -11.9980     34.589    644.000 213301.000     30.000    41.5367     0.0149   -24.9958     0.0002     0.0007    25.0000    10.0000    10.0000    25.0000    25.0000    10.0000    10.0000    25.0000     0.0018    -0.0023    -0.0010    20.7881    41.4530     0.5525     0.3183     0.3183     0.1596    14.4503    14.5061    -0.055
     37   -12.1989     34.422    629.000 213301.000     30.000    41.5367     0.0149   -24.9958     0.0002     0.0007    25.0000    10.0000    10.0000    25.0000    25.0000    10.0000    10.0000    25.0000     0.0018    -0.0024    -0.0010    20.7881    41.4530     0.5618     0.3238     0.3238     0.1614    14.4503    14.5061    -0.055
     38   -12.4028     34.515    610.000 213301.000     30.000    41.5367     0.0149   -24.9958     0.0002     0.0007    25.0000    10.0000    10.0000    25.0000    25.0000    10.0000    10.0000    25.0000     0.0018    -0.0023    -0.0009    20.7881    41.4530     0.5711     0.3294     0.3294     0.1632    14.4503    14.5061    -0.055
     39   -12.5960     34.585    573.000 213301.000     30.000    41.5367     0.0149   -24.9958     0.0002     0.0007    25.0000    10.0000    10.0000    25.0000    25.0000    10.0000    10.0000    25.0000     0.0018    -0.0024    -0.0009    20.7880    41.4530     0.5800     0.3348     0.3348     0.1648    14.4503    14.5061    -0.055
     40   -12.7991     34.454    599.000 213301.000     30.000    41.5367     0.0149   -24.9958     0.0002     0.0007    25.0000    10.0000    10.0000    25.0000    25.0000    10.0000    10.0000    25.0000     0.0018    -0.0023    -0.0009    20.7880    41.4530     0.5893     0.3404     0.3404     0.1666    14.4503    14.5061    -0.055
     41   -13.0010     34.512    564.000 213301.000     30.000    41.5367     0.0149   -24.9958     0.0002     0.0007    25.0000    10.0000    10.0000    25.0000    25.0000    10.0000    10.0000    25.0000     0.0018    -0.0023    -0.0009    20.7881    41.4530     0.5985     0.3459     0.3459     0.1683    14.4503    14.5061    -0.055
     42   -13.2017     34.493    577.000 213301.000     30.000    41.5367     0.0149   -24.9958     0.0002     0.0007    25.0000    10.0000    10.0000    25.0000    25.0000    10.0000    10.0000    25.0000     0.0018    -0.0023    -0.0009    20.7880    41.4530     0.6077     0.3515     0.3515     0.1699    14.4503    14.5061    -0.055
     43   -13.3970     34.460    545.000 213301.000     30.000    41.5367     0.0149   -24.9958     0.0002     0.0007    25.0000    10.0000    10.0000    25.0000    25.0000    10.0000    10.0000    25.0000     0.0018    -0.0023    -0.0009    20.7881    41.4530     0.6167     0.3569     0.3569     0.1715    14.4503    14.5061    -0.055
     44   -13.5975     34.609    588.000 213301.000     30.000    41.5367     0.0149   -24.9958     0.0002     0.0007    25.0000    10.0000    10.0000    25.0000    25.0000    10.0000    10.0000    25.0000     0.0018    -0.0023    -0.0009    20.7880    41.4530     0.6259     0.3624     0.3624     0.1731    14.4503    14.5061    -0.055
     45   -13.7978     34.346    514.000 213301.000     30.000    41.5367     0.0149   -24.9958     0.0002     0.0007    25.0000    10.0000    10.0000    25.0000    25.0000    10.0000    10.0000    25.0000     0.0018    -0.0023    -0.0009    20.7880    41.4530     0.6350     0.3680     0.3680     0.1747    14.4503    14.5061    -0.055
     46   -13.9989     34.325    546.000 213301.000     30.000    41.5367     0.0149   -24.9958     0.0002     0.0007    25.0000    10.0000    10.0000    25.0000    25.0000    10.0000    10.0000    25.0000     0.0018    -0.0023    -0.0009    20.7880    41.4530     0.6442     0.3735     0.3735     0.1762    14.4503    14.5061    -0.055
     47   -14.2019     34.518    556.000 213301.000     30.000    41.5367     0.0149   -24.9958     0.0002     0.0007    25.0000    10.0000    10.0000    25.0000    25.0000    10.0000    10.0000    25.0000     0.0018    -0.0023    -0.0009    20.7880    41.4529     0.6535     0.3792     0.3792     0.1777    14.4503    14.5061    -0.055
     48   -14.3965     34.533    509.000 213301.000     30.000    41.5367     0.0149   -24.9958     0.0002     0.0007    25.0000    10.0000    10.0000    25.0000    25.0000    10.0000    10.0000    25.0000     0.0018    -0.0023    -0.0010    20.7880    41.4530     0.6624     0.3846     0.3846     0.1792    14.4503    14.5061    -0.055
     49   -14.6010     34.434    497.000 213301.000     30.000    41.5367     0.0149   -24.9958     0.0002     0.0007    25.0000    10.0000    10.0000    25.0000    25.0000    10.0000    10.0000    25.0000     0.0018    -0.0023    -0.0009    20.7880    41.4530     0.6718     0.3902     0.3902     0.1807    14.4503    14.5061    -0.055
     50   -14.8019     34.490    516.000 213301.000     30.000    41.5367     0.0149   -24.9958     0.0002     0.0007    25.0000    10.0000    10.0000    25.0000    25.0000    10.0000    10.0000    25.0000     0.0018    -0.0023    -0.0009    20.7880    41.4530     0.6810     0.3958     0.3958     0.1821    14.4503    14.5061    -0.055
     51   -14.9998     34.289    536.000 213301.000     30.000    41.5367     0.0149   -24.9958     0.0002     0.0007    25.0000    10.0000    10.0000    25.0000    25.0000    10.0000    10.0000    25.0000     0.0018    -0.0023    -0.0009    20.7880    41.4530     0.6901     0.4013     0.4013     0.1835    14.4503    14.5061    -0.055
     52   -15.1977     34.480    510.000 213301.000     30.000    41.5367     0.0149   -24.9958     0.0002     0.0007    25.0000    10.0000    10.0000    25.0000    25.0000    10.0000    10.0000    25.0000     0.0018    -0.0023    -0.0009    20.7880    41.4530     0.6991     0.4068     0.4068     0.1848    14.4503    14.5061    -0.055
     53   -15.3984     34.409    488.000 213301.000     30.000    41.5367     0.0149   -24.9958     0.0002     0.0007    25.0000    10.0000    10.0000    25.0000    25.0000    10.0000    10.0000    25.0000     0.0018    -0.0023    -0.0009    20.7880    41.4530     0.7083     0.4124     0.4124     0.1862    14.4503    14.5061    -0.055
     54   -15.5982     34.473    509.000 213301.000     30.000    41.5367     0.0149   -24.9958     0.0002     0.0007    25.0000    10.0000    10.0000    25.0000    25.0000    10.0000    10.0000    25.0000     0.0018    -0.0023    -0.0009    20.7880    41.4530     0.7174     0.4180     0.4180     0.1875    14.4503    14.5061    -0.055
     55   -15.8014     34.510    513.000 213301.000     30.000    41.5367     0.0149   -24.9958     0.0002     0.0007    25.0000    10.0000    10.0000    25.0000    25.0000    10.0000    10.0000    25.0000     0.0018    -0.0023    -0.0009    20.7880    41.4530     0.7267     0.4236     0.4236     0.1888    14.4503    14.5061    -0.055
     56   -15.9966     34.395    485.000 213301.000     30.000    41.5367     0.0149   -24.9958     0.0002     0.0007    25.0000    10.0000    10.0000    25.0000    25.0000    10.0000    10.0000    25.0000     0.0018    -0.0024    -0.0010    20.7879    41.4530     0.7356     0.4291     0.4291     0.1900    14.4503    14.5061    -0.055
     57   -16.2022     34.447    515.000 213301.000     30.000    41.5367     0.0149   -24.9958     0.0002     0.0007    25.0000    10.0000    10.0000    25.0000    25.0000    10.0000    10.0000    25.0000     0.0018    -0.0024    -0.0009    20.7880    41.4530     0.7450     0.4348     0.4348     0.1913    14.4503    14.5061    -0.055
     58   -16.3965     34.405    493.000 213301.000     30.000    41.5367     0.0149   -24.9958     0.0002     0.0007    25.0000    10.0000    10.0000    25.0000    25.0000    10.0000    10.0000    25.0000     0.0018    -0.0023    -0.0009    20.7880    41.4530     0.7539     0.4402     0.4402     0.1925    14.4503    14.5061    -0.055
     59   -16.5991     34.460    530.000 213301.000     30.000    41.5367     0.0149   -24.9958     0.0002     0.0007    25.0000    10.0000    10.0000    25.0000    25.0000    10.0000    10.0000    25.0000     0.0018    -0.0023    -0.0009    20.7879    41.4530     0.7631     0.4459     0.4459     0.1937    14.4503    14.5061    -0.055
     60   -16.8014     34.588    514.000 213301.000     30.000    41.5367     0.0149   -24.9958     0.0002     0.0007    25.0000    10.0000    10.0000    25.0000    25.0000    10.0000    10.0000    25.0000     0.0018    -0.0023    -0.0009    20.7879    41.4530     0.7724     0.4515     0.4515     0.1948    14.4503    14.5061    -0.055
     61   -17.0034     34.482    491.000 213301.000     30.000    41.5367     0.0149   -24.9958     0.0002     0.0007    25.0000    10.0000    10.0000    25.0000    25.0000    10.0000    10.0000    25.0000     0.0018    -0.0023    -0.0009    20.7879    41.4530     0.7816     0.4572     0.4572     0.1960    14.4503    14.5061    -0.055
     62   -17.1979     34.410    450.000 213301.000     30.000    41.5367     0.0149   -24.9958     0.0002     0.0007    25.0000    10.0000    10.0000    25.0000    25.0000    10.0000    10.0000    25.0000     0.0018    -0.0023    -0.0009    20.7879    41.4530     0.7905     0.4626     0.4626     0.1970    14.4503    14.5061    -0.055
     63   -17.3995     34.444    471.000 213301.000     30.000    41.5367     0.0149   -24.9958     0.0002     0.0007    25.0000    10.0000    10.0000    25.0000    25.0000    10.0000    10.0000    25.0000     0.0018    -0.0023    -0.0009    20.7879    41.4530     0.7997     0.4682     0.4682     0.1981    14.4503    14.5061    -0.055
     64   -17.5978     34.424    443.000 213301.000     30.000    41.5367     0.0149   -24.9958     0.0002     0.0007    25.0000    10.0000    10.0000    25.0000    25.0000    10.0000    10.0000    25.0000     0.0018    -0.0023    -0.0009    20.7879    41.4530     0.8087     0.4738     0.4738     0.1992    14.4503    14.5061    -0.055
     65   -17.8014     34.427    441.000 213301.000     30.000    41.5367     0.0149   -24.9958     0.0002     0.0007    25.0000    10.0000    10.0000    25.0000    25.0000    10.0000    10.0000    25.0000     0.0018    -0.0023    -0.0009    20.7879    41.4530     0.8180     0.4795     0.4795     0.2002    14.4503    14.5061    -0.055
     66   -17.9998     34.589    467.000 213301.000     30.000    41.5367     0.0149   -24.9958     0.0002     0.0007    25.0000    10.0000    10.0000    25.0000    25.0000    10.0000    10.0000    25.0000     0.0018    -0.0023    -0.0009    20.7879    41.4530     0.8270     0.4850     0.4850     0.2012    14.4503    14.5061    -0.055
     67   -18.2023     34.468    498.000 213301.000     30.000    41.5367     0.0149   -24.9958     0.0002     0.0007    25.0000    10.0000    10.0000    25.0000    25.0000    10.0000    10.0000    25.0000     0.0018    -0.0023    -0.0009    20.7879    41.4530     0.8362     0.4907     0.4907     0.2021    14.4503    14.5061    -0.055
     68   -18.4005     34.543    489.000 213301.000     30.000    41.5367     0.0149   -24.9958     0.0002     0.0007    25.0000    10.0000    10.0000    25.0000    25.0000    10.0000    10.0000    25.0000     0.0018    -0.0023    -0.0009    20.7880    41.4530     0.8453     0.4963     0.4963     0.2031    14.4503    14.5061    -0.055
     69   -18.5971     34.461    504.000 213301.000     30.000    41.5367     0.0149   -24.9958     0.0002     0.0007    25.0000    10.0000    10.0000    25.0000    25.0000    10.0000    10.0000    25.0000     0.0018    -0.0023    -0.0009    20.7879    41.4530     0.8542     0.5018     0.5018     0.2039    14.4503    14.5061    -0.055
     70   -18.7996     34.337    491.000 213301.000     30.000    41.5367     0.0149   -24.9958     0.0002     0.0007    25.0000    10.0000    10.0000    25.0000    25.0000    10.0000    10.0000    25.0000     0.0018    -0.0023    -0.0009    20.7880    41.4530     0.8634     0.5075     0.5075     0.2048    14.4503    14.5061    -0.055
     71   -18.9997     34.251    488.000 213301.000     30.000    41.5367     0.0149   -24.9958     0.0002     0.0007    25.0000    10.0000    10.0000    25.0000    25.0000    10.0000    10.0000    25.0000     0.0018    -0.0023    -0.0009    20.7879    41.4530     0.8725     0.5131     0.5131     0.2057    14.4503    14.5061    -0.055
     72   -19.1990     34.472    436.000 213301.000     30.000    41.5367     0.0149   -24.9958     0.0002     0.0007    25.0000    10.0000    10.0000    25.0000    25.0000    10.0000    10.0000    25.0000     0.0018    -0.0023    -0.0009    20.7879    41.4530     0.8816     0.5187     0.5187     0.2065    14.4503    14.5061    -0.055
     73   -19.3993     34.515    435.000 213301.000     30.000    41.5367     0.0149   -24.9958     0.0002     0.0007    25.0000    10.0000    10.0000    25.0000    25.0000    10.0000    10.0000    25.0000     0.0018    -0.0023    -0.0009    20.7879    41.4531     0.8907     0.5243     0.5243     0.2073    14.4503    14.5061    -0.055
     74   -19.6012     34.506    421.000 213301.000     30.000    41.5367     0.0149   -24.9958     0.0002     0.0007    25.0000    10.0000    10.0000    25.0000    25.0000    10.0000    10.0000    25.0000     0.0018    -0.0023    -0.0009    20.7879    41.4530     0.8999     0.5300     0.5300     0.2081    14.4503    14.5061    -0.055
     75   -19.8029     34.587    428.000 213301.000     30.000    41.5367     0.0149   -24.9958     0.0002     0.0007    25.0000    10.0000    10.0000    25.0000    25.0000    10.0000    10.0000    25.0000     0.0018    -0.0023    -0.0009    20.7879    41.4530     0.9091     0.5356     0.5356     0.2088    14.4503    14.5061    -0.055
     76   -19.9992     34.333    436.000 213301.000     30.000    41.5367     0.0149   -24.9958     0.0002     0.0007    25.0000    10.0000    10.0000    25.0000    25.0000    10.0000    10.0000    25.0000     0.0018    -0.0023    -0.0009    20.7879    41.4531     0.9180     0.5412     0.5412     0.2095    14.4503    14.5061    -0.055
     77   -20.1983     34.439    380.000 213301.000     30.000    41.5367     0.0149   -24.9958     0.0002     0.0007    25.0000    10.0000    10.0000    25.0000    25.0000    10.0000    10.0000    25.0000     0.0018    -0.0023    -0.0009    20.7879    41.4531     0.9270     0.5468     0.5468     0.2102    14.4503    14.5061    -0.055
     78   -20.3972     34.358    440.000 213301.000     30.000    41.5367     0.0149   -24.9958     0.0002     0.0007    25.0000    10.0000    10.0000    25.0000    25.0000    10.0000    10.0000    25.0000     0.0018    -0.0023    -0.0009    20.7879    41.4530     0.9361     0.5524     0.5524     0.2108    14.4503    14.5061    -0.055
     79   -20.5981     34.486    428.000 213301.000     30.000    41.5367     0.0149   -24.9958     0.0002     0.0007    25.0000    10.0000    10.0000    25.0000    25.0000    10.0000    10.0000    25.0000     0.0018    -0.0023    -0.0009    20.7879    41.4531     0.9452     0.5580     0.5580     0.2115    14.4503    14.5061    -0.055
     80   -20.7988     34.436    391.000 213301.000     30.000    41.5367     0.0149   -24.9958     0.0002     0.0007    25.0000    10.0000    10.0000    25.0000    25.0000    10.0000    10.0000    25.0000     0.0018    -0.0023    -0.0009    20.7879    41.4531     0.9543     0.5637     0.5637     0.2121    14.4503    14.5061    -0.055
     81   -21.0003     34.604    393.000 213301.000     30.000    41.5367     0.0149   -24.9958     0.0002     0.0007    25.0000    10.0000    10.0000    25.0000    25.0000    10.0000    10.0000    25.0000     0.0018    -0.0023    -0.0009    20.7879    41.4531     0.9634     0.5693     0.5693     0.2126    14.4503    14.5061    -0.055
     82   -21.2011     34.383    386.000 213301.000     30.000    41.5367     0.0149   -24.9958     0.0002     0.0007    25.0000    10.0000    10.0000    25.0000    25.0000    10.0000    10.0000    25.0000     0.0018    -0.0023    -0.0009    20.7879    41.4531     0.9725     0.5750     0.5750     0.2132    14.4503    14.5061    -0.055
     83   -21.4017     34.394    381.000 213301.000     30.000    41.5367     0.0149   -24.9958     0.0002     0.0007    25.0000    10.0000    10.0000    25.0000    25.0000    10.0000    10.0000    25.0000     0.0018    -0.0024    -0.0009    20.7879    41.4531     0.9816     0.5806     0.5806     0.2137    14.4503    14.5061    -0.055
     84   -21.5993     34.612    367.000 213301.000     30.000    41.5367     0.0149   -24.9958     0.0002     0.0007    25.0000    10.0000    10.0000    25.0000    25.0000    10.0000    10.0000    25.0000     0.0018    -0.0023    -0.0009    20.7879    41.4531     0.9906     0.5862     0.5862     0.2142    14.4503    14.5061    -0.055
     85   -21.7988     34.577    382.000 213301.000     30.000    41.5367     0.0149   -24.9958     0.0002     0.0007    25.0000    10.0000    10.0000    25.0000    25.0000    10.0000    10.0000    25.0000     0.0018    -0.0023    -0.0009    20.7879    41.4531     0.9996     0.5918     0.5918     0.2146    14.4503    14.5060    -0.055
     86   -21.9966     34.514    402.000 213301.000     30.000    41.5367     0.0149   -24.9958     0.0002     0.0007    25.0000    10.0000    10.0000    25.0000    25.0000    10.0000    10.0000    25.0000     0.0018    -0.0023    -0.0010    20.7879    41.4531     1.0086     0.5974     0.5974     0.2151    14.4503    14.5060    -0.055
     87   -22.1976     34.503    352.000 213301.000     30.000    41.5367     0.0149   -24.9958     0.0002     0.0007    25.0000    10.0000    10.0000    25.0000    25.0000    10.0000    10.0000    25.0000     0.0018    -0.0023    -0.0009    20.7878    41.4531     1.0177     0.6031     0.6031     0.2155    14.4503    14.5060    -0.055
     88   -22.4003     34.510    356.000 213301.000     30.000    41.5367     0.0149   -24.9958     0.0002     0.0007    25.0000    10.0000    10.0000    25.0000    25.0000    10.0000    10.0000    25.0000     0.0018    -0.0023    -0.0010    20.7879    41.4531     1.0269     0.6088     0.6088     0.2158    14.4503    14.5060    -0.055
     89   -22.6003     34.501    383.000 213301.000     30.000    41.5367     0.0149   -24.9958     0.0002     0.0007    25.0000    10.0000    10.0000    25.0000    25.0000    10.0000    10.0000    25.0000     0.0018    -0.0023    -0.0009    20.7878    41.4531     1.0359     0.6144     0.6144     0.2162    14.4503    14.5060    -0.055
     90   -22.8035     34.310    348.000 213301.000     30.000    41.5367     0.0149   -24.9958     0.0002     0.0007    25.0000    10.0000    10.0000    25.0000    25.0000    10.0000    10.0000    25.0000     0.0018    -0.0023    -0.0009    20.7879    41.4531     1.0451     0.6202     0.6202     0.2165    14.4503    14.5060    -0.055
     91   -22.9998     34.525    355.000 213301.000     30.000    41.5367     0.0149   -24.9958     0.0002     0.0007    25.0000    10.0000    10.0000    25.0000    25.0000    10.0000    10.0000    25.0000     0.0018    -0.0023    -0.0009    20.7878    41.4531     1.0540     0.6257     0.6257     0.2168    14.4503    14.5060    -0.055
     92   -23.2020     34.383    381.000 213301.000     30.000    41.5367     0.0149   -24.9958     0.0002     0.0007    25.0000    10.0000    10.0000    25.0000    25.0000    10.0000    10.0000    25.0000     0.0018    -0.0023    -0.0009    20.7879    41.4531     1.0631     0.6314     0.6314     0.2171    14.4503    14.5060    -0.055
     93   -23.3984     34.454    363.000 213301.000     30.000    41.5367     0.0149   -24.9958     0.0002     0.0007    25.0000    10.0000    10.0000    25.0000    25.0000    10.0000    10.0000    25.0000     0.0018    -0.0023    -0.0009    20.7878    41.4531     1.0720     0.6369     0.6369     0.2173    14.4503    14.5061    -0.055
     94   -23.5962     34.369    311.000 213301.000     30.000    41.5367     0.0149   -24.9958     0.0002     0.0007    25.0000    10.0000    10.0000    25.0000    25.0000    10.0000    10.0000    25.0000     0.0018    -0.0023    -0.0009    20.7878    41.4531     1.0809     0.6425     0.6425     0.2175    14.4503    14.5060    -0.055
     95   -23.7985     34.357    376.000 213301.000     30.000    41.5367     0.0149   -24.9958     0.0002     0.0007    25.0000    10.0000    10.0000    25.0000    25.0000    10.0000    10.0000    25.0000     0.0018    -0.0023    -0.0009    20.7878    41.4531     1.0901     0.6482     0.6482     0.2177    14.4503    14.5060    -0.055
     96   -23.9990     34.385    385.000 213301.000     30.000    41.5367     0.0149   -24.9958     0.0002     0.0007    25.0000    10.0000    10.0000    25.0000    25.0000    10.0000    10.0000    25.0000     0.0018    -0.0023    -0.0009    20.7878    41.4531     1.0991     0.6539     0.6539     0.2178    14.4503    14.5060    -0.055
     97   -24.1990     34.379    358.000 213301.000     30.000    41.5367     0.0149   -24.9958     0.0002     0.0007    25.0000    10.0000    10.0000    25.0000    25.0000    10.0000    10.0000    25.0000     0.0018    -0.0023    -0.0009    20.7878    41.4531     1.1081     0.6595     0.6595     0.2180    14.4503    14.5060    -0.055
     98   -24.4016     34.417    395.000 213301.000     30.000    41.5367     0.0149   -24.9958     0.0002     0.0007    25.0000    10.0000    10.0000    25.0000    25.0000    10.0000    10.0000    25.0000     0.0018    -0.0023    -0.0009    20.7878    41.4531     1.1173     0.6652     0.6652     0.2181    14.4503    14.5060    -0.055
     99   -24.6031     34.448    333.000 213301.000     30.000    41.5367     0.0149   -24.9958     0.0002     0.0007    25.0000    10.0000    10.0000    25.0000    25.0000    10.0000    10.0000    25.0000     0.0018    -0.0023    -0.0009    20.7878    41.4531     1.1264     0.6709     0.6709     0.2181    14.4503    14.5060    -0.055
    100   -24.8023     34.420    335.000 213301.000     30.000    41.5367     0.0149   -24.9958     0.0002     0.0007    25.0000    10.0000    10.0000    25.0000    25.0000    10.0000    10.0000    25.0000     0.0018    -0.0023    -0.0009    20.7878    41.4531     1.1353     0.6766     0.6766     0.2182    14.4503    14.5060    -0.055
    101   -25.0007     34.483    350.000 213301.000     30.000    41.5367     0.0149   -24.9958     0.0002     0.0007    25.0000    10.0000    10.0000    25.0000    25.0000    10.0000    10.0000    25.0000     0.0018    -0.0023    -0.0009    20.7878    41.4531     1.1443     0.6822     0.6822     0.2182    14.4503    14.5060    -0.055
    102   -25.1991     34.337    348.000 213301.000     30.000    41.5367     0.0149   -24.9958     0.0002     0.0007    25.0000    10.0000    10.0000    25.0000    25.0000    10.0000    10.0000    25.0000     0.0018    -0.0023    -0.0009    20.7878    41.4532     1.1532     0.6878     0.6878     0.2182    14.4503    14.5060    -0.055
    103   -25.3983     34.349    312.000 213301.000     30.000    41.5367     0.0149   -24.9958     0.0002     0.0007    25.0000    10.0000    10.0000    25.0000    25.0000    10.0000    10.0000    25.0000     0.0018    -0.0023    -0.0010    20.7878    41.4531     1.1622     0.6934     0.6934     0.2181    14.4503    14.5060    -0.055
    104   -25.6003     34.409    339.000 213301.000     30.000    41.5367     0.0149   -24.9958     0.0002     0.0007    25.0000    10.0000    10.0000    25.0000    25.0000    10.0000    10.0000    25.0000     0.0018    -0.0023    -0.0009    20.7878    41.4531     1.1713     0.6991     0.6991     0.2181    14.4503    14.5060    -0.055
    105   -25.7981     34.443    320.000 213301.000     30.000    41.5367     0.0149   -24.9958     0.0002     0.0007    25.0000    10.0000    10.0000    25.0000    25.0000    10.0000    10.0000    25.0000     0.0018    -0.0023    -0.0009    20.7878    41.4531     1.1802     0.7047     0.7047     0.2180    14.4503    14.5060    -0.055
    106   -26.0003     34.413    339.000 213301.000     30.000    41.5367     0.0149   -24.9958     0.0002     0.0007    25.0000    10.0000    10.0000    25.0000    25.0000    10.0000    10.0000    25.0000     0.0018    -0.0023    -0.0009    20.7878    41.4531     1.1893     0.7104     0.7104     0.2178    14.4503    14.5060    -0.055
    107   -26.2028     34.324    314.000 213301.000     30.000    41.5367     0.0149   -24.9958     0.0002     0.0007    25.0000    10.0000    10.0000    25.0000    25.0000    10.0000    10.0000    25.0000     0.0018    -0.0023    -0.0009    20.7878    41.4531     1.1984     0.7161     0.7161     0.2177    14.4503    14.5060    -0.055
    108   -26.4026     34.491    308.000 213301.000     30.000    41.5367     0.0149   -24.9958     0.0002     0.0007    25.0000    10.0000    10.0000    25.0000    25.0000    10.0000    10.0000    25.0000     0.0018    -0.0023    -0.0009    20.7878    41.4531     1.2073     0.7217     0.7217     0.2175    14.4503    14.5060    -0.055
    109   -26.5982     34.513    329.000 213301.000     30.000    41.5367     0.0149   -24.9958     0.0002     0.0007    25.0000    10.0000    10.0000    25.0000    25.0000    10.0000    10.0000    25.0000     0.0018    -0.0023    -0.0009    20.7878    41.4531     1.2161     0.7272     0.7272     0.2173    14.4503    14.5060    -0.055
    110   -26.7983     34.194    304.000 213301.000     30.000    41.5367     0.0149   -24.9958     0.0002     0.0007    25.0000    10.0000    10.0000    25.0000    25.0000    10.0000    10.0000    25.0000     0.0018    -0.0023    -0.0009    20.7878    41.4531     1.2251     0.7329     0.7329     0.2171    14.4503    14.5060    -0.055
    111   -26.9980     34.398    288.000 213301.000     30.000    41.5367     0.0149   -24.9958     0.0002     0.0007    25.0000    10.0000    10.0000    25.0000    25.0000    10.0000    10.0000    25.0000     0.0018    -0.0023    -0.0010    20.7878    41.4531     1.2341     0.7385     0.7385     0.2168    14.4503    14.5060    -0.055
    112   -27.1982     34.442    346.000 213301.000     30.000    41.5367     0.0149   -24.9958     0.0002     0.0007    25.0000    10.0000    10.0000    25.0000    25.0000    10.0000    10.0000    25.0000     0.0018    -0.0023    -0.0009    20.7878    41.4531     1.2430     0.7442     0.7442     0.2165    14.4503    14.5060    -0.055
    113   -27.3993     34.388    330.000 213301.000     30.000    41.5367     0.0149   -24.9958     0.0002     0.0007    25.0000    10.0000    10.0000    25.0000    25.0000    10.0000    10.0000    25.0000     0.0018    -0.0023    -0.0009    20.7877    41.4531     1.2521     0.7498     0.7498     0.2162    14.4503    14.5060    -0.055
    114   -27.6000     34.370    296.000 213301.000     30.000    41.5367     0.0149   -24.9958     0.0002     0.0007    25.0000    10.0000    10.0000    25.0000    25.0000    10.0000    10.0000    25.0000     0.0018    -0.0023    -0.0009    20.7878    41.4531     1.2610     0.7555     0.7555     0.2158    14.4503    14.5060    -0.055
    115   -27.8024     34.343    325.000 213301.000     30.000    41.5367     0.0149   -24.9958     0.0002     0.0007    25.0000    10.0000    10.0000    25.0000    25.0000    10.0000    10.0000    25.0000     0.0018    -0.0023    -0.0009    20.7877    41.4531     1.2701     0.7612     0.7612     0.2154    14.4503    14.5060    -0.055
    116   -28.0013     34.489    369.000 213301.000     30.000    41.5367     0.0149   -24.9958     0.0002     0.0007    25.0000    10.0000    10.0000    25.0000    25.0000    10.0000    10.0000    25.0000     0.0018    -0.0023    -0.0009    20.7878    41.4531     1.2790     0.7668     0.7668     0.2150    14.4503    14.5060    -0.055
    117   -28.1979     34.398    322.000 213301.000     30.000    41.5367     0.0149   -24.9958     0.0002     0.0007    25.0000    10.0000    10.0000    25.0000    25.0000    10.0000    10.0000    25.0000     0.0018    -0.0023    -0.0010    20.7877    41.4531     1.2878     0.7723     0.7723     0.2146    14.4503    14.5060    -0.055
    118   -28.3981     34.416    298.000 213301.000     30.000    41.5367     0.0149   -24.9958     0.0002     0.0007    25.0000    10.0000    10.0000    25.0000    25.0000    10.0000    10.0000    25.0000     0.0018    -0.0023    -0.0009    20.7878    41.4531     1.2968     0.7780     0.7780     0.2142    14.4503    14.5060    -0.055
    119   -28.5975     34.286    330.000 213301.000     30.000    41.5367     0.0149   -24.9958     0.0002     0.0007    25.0000    10.0000    10.0000    25.0000    25.0000    10.0000    10.0000    25.0000     0.0018    -0.0023    -0.0009    20.7877    41.4531     1.3057     0.7836     0.7836     0.2137    14.4503    14.5060    -0.055
    120   -28.7979     34.401    308.000 213301.000     30.000    41.5367     0.0149   -24.9958     0.0002     0.0007    25.0000    10.0000    10.0000    25.0000    25.0000    10.0000    10.0000    25.0000     0.0018    -0.0023    -0.0010    20.7878    41.4531     1.3146     0.7893     0.7893     0.2132    14.4503    14.5060    -0.055
    121   -29.0006     34.144    349.000 213301.000     30.000    41.5367     0.0149   -24.9958     0.0002     0.0007    25.0000    10.0000    10.0000    25.0000    25.0000    10.0000    10.0000    25.0000     0.0018    -0.0023    -0.0009    20.7877    41.4531     1.3237     0.7950     0.7950     0.2126    14.4503    14.5060    -0.055
    122   -29.2029     34.435    377.000 213301.000     30.000    41.5367     0.0149   -24.9958     0.0002     0.0007    25.0000    10.0000    10.0000    25.0000    25.0000    10.0000    10.0000    25.0000     0.0018    -0.0023    -0.0009    20.7877    41.4531     1.3327     0.8007     0.8007     0.2120    14.4503    14.5061    -0.055
    123   -29.4023     34.454    300.000 213301.000     30.000    41.5367     0.0149   -24.9958     0.0002     0.0007    25.0000    10.0000    10.0000    25.0000    25.0000    10.0000    10.0000    25.0000     0.0018    -0.0023    -0.0009    20.7877    41.4531     1.3416     0.8063     0.8063     0.2114    14.4503    14.5060    -0.055
    124   -29.5994     34.362    282.000 213301.000     30.000    41.5367     0.0149   -24.9958     0.0002     0.0007    25.0000    10.0000    10.0000    25.0000    25.0000    10.0000    10.0000    25.0000     0.0018    -0.0023    -0.0009    20.7877    41.4531     1.3504     0.8118     0.8118     0.2108    14.4503    14.5060    -0.055
    125   -29.7995     34.358    331.000 213301.000     30.000    41.5367     0.0149   -24.9958     0.0002     0.0007    25.0000    10.0000    10.0000    25.0000    25.0000    10.0000    10.0000    25.0000     0.0018    -0.0023    -0.0009    20.7877    41.4531     1.3594     0.8174     0.8174     0.2102    14.4503    14.5061    -0.055
    126   -29.9975     34.195    289.000 213301.000     30.000    41.5367     0.0149   -24.9958     0.0002     0.0007    25.0000    10.0000    10.0000    25.0000    25.0000    10.0000    10.0000    25.0000     0.0018    -0.0023    -0.0009    20.7878    41.4531     1.3682     0.8230     0.8230     0.2095    14.4503    14.5061    -0.055
    127   -30.1978     34.367    312.000 213301.000     30.000    41.5367     0.0149   -24.9958     0.0002     0.0007    25.0000    10.0000    10.0000    25.0000    25.0000    10.0000    10.0000    25.0000     0.0018    -0.0023    -0.0009    20.7877    41.4531     1.3771     0.8286     0.8286     0.2088    14.4503    14.5060    -0.055
    128   -30.3979     34.274    307.000 213301.000     30.000    41.5367     0.0149   -24.9958     0.0002     0.0007    25.0000    10.0000    10.0000    25.0000    25.0000    10.0000    10.0000    25.0000     0.0018    -0.0023    -0.0010    20.7877    41.4531     1.3860     0.8343     0.8343     0.2080    14.4503    14.5060    -0.055
    129   -30.5975     34.358    306.000 213301.000     30.000    41.5367     0.0149   -24.9958     0.0002     0.0007    25.0000    10.0000    10.0000    25.0000    25.0000    10.0000    10.0000    25.0000     0.0018    -0.0023    -0.0009    20.7877    41.4531     1.3949     0.8399     0.8399     0.2073    14.4503    14.5061    -0.055
    130   -30.8007     34.291    329.000 213301.000     30.000    41.5367     0.0149   -24.9958     0.0002     0.0007    25.0000    10.0000    10.0000    25.0000    25.0000    10.0000    10.0000    25.0000     0.0018    -0.0023    -0.0010    20.7877    41.4531     1.4039     0.8456     0.8456     0.2065    14.4503    14.5060    -0.055
    131   -31.0019     34.264    310.000 213301.000     30.000    41.5367     0.0149   -24.9958     0.0002     0.0007    25.0000    10.0000    10.0000    25.0000    25.0000    10.0000    10.0000    25.0000     0.0018    -0.0023    -0.0009    20.7877    41.4531     1.4129     0.8512     0.8512     0.2056    14.4503    14.5061    -0.055
    132   -31.2032     34.379    310.000 213301.000     30.000    41.5367     0.0149   -24.9958     0.0002     0.0007    25.0000    10.0000    10.0000    25.0000    25.0000    10.0000    10.0000    25.0000     0.0018    -0.0023    -0.0009    20.7877    41.4531     1.4218     0.8569     0.8569     0.2048    14.4503    14.5060    -0.055
    133   -31.4006     34.326    287.000 213301.000     30.000    41.5367     0.0149   -24.9958     0.0002     0.0007    25.0000    10.0000    10.0000    25.0000    25.0000    10.0000    10.0000    25.0000     0.0018    -0.0023    -0.0009    20.7877    41.4531     1.4306     0.8624     0.8624     0.2039    14.4503    14.5060    -0.055
    134   -31.6013     34.429    322.000 213301.000     30.000    41.5367     0.0149   -24.9958     0.0002     0.0007    25.0000    10.0000    10.0000    25.0000    25.0000    10.0000    10.0000    25.0000     0.0018    -0.0023    -0.0010    20.7877    41.4531     1.4395     0.8680     0.8680     0.2030    14.4503    14.5061    -0.055
    135   -31.7980     34.407    289.000 213301.000     30.000    41.5367     0.0149   -24.9958     0.0002     0.0007    25.0000    10.0000    10.0000    25.0000    25.0000    10.0000    10.0000    25.0000     0.0018    -0.0023    -0.0009    20.7877    41.4531     1.4482     0.8736     0.8736     0.2021    14.4503    14.5061    -0.055
    136   -31.9974     34.302    285.000 213301.000     30.000    41.5367     0.0149   -24.9958     0.0002     0.0007    25.0000    10.0000    10.0000    25.0000    25.0000    10.0000    10.0000    25.0000     0.0018    -0.0023    -0.0009    20.7877    41.4531     1.4571     0.8791     0.8791     0.2011    14.4503    14.5061    -0.055
    137   -32.1998     34.269    325.000 213301.000     30.000    41.5367     0.0149   -24.9958     0.0002     0.0007    25.0000    10.0000    10.0000    25.0000    25.0000    10.0000    10.0000    25.0000     0.0018    -0.0023    -0.0009    20.7877    41.4531     1.4661     0.8848     0.8848     0.2001    14.4503    14.5060    -0.055
    138   -32.3975     34.213    377.000 213301.000     30.000    41.5367     0.0149   -24.9958     0.0002     0.0007    25.0000    10.0000    10.0000    25.0000    25.0000    10.0000    10.0000    25.0000     0.0018    -0.0023    -0.0009    20.7877    41.4531     1.4748     0.8903     0.8903     0.1991    14.4503    14.5060    -0.055
    139   -32.5998     34.501    416.000 213301.000     30.000    41.5367     0.0149   -24.9958     0.0002     0.0007    25.0000    10.0000    10.0000    25.0000    25.0000    10.0000    10.0000    25.0000     0.0018    -0.0023    -0.0009    20.7877    41.4531     1.4838     0.8960     0.8960     0.1981    14.4503    14.5060    -0.055
    140   -32.8037     34.458    415.000 213301.000     30.000    41.5367     0.0149   -24.9958     0.0002     0.0007    25.0000    10.0000    10.0000    25.0000    25.0000    10.0000    10.0000    25.0000     0.0018    -0.0023    -0.0009    20.7877    41.4531     1.4928     0.9017     0.9017     0.1970    14.4503    14.5061    -0.055
    141   -33.0005     34.259    302.000 213301.000     30.000    41.5367     0.0149   -24.9958     0.0002     0.0007    25.0000    10.0000    10.0000    25.0000    25.0000    10.0000    10.0000    25.0000     0.0018    -0.0024    -0.0009    20.7877    41.4531     1.5015     0.9072     0.9072     0.1959    14.4503    14.5061    -0.055
    142   -33.1975     34.306    313.000 213301.000     30.000    41.5367     0.0149   -24.9958     0.0002     0.0007    25.0000    10.0000    10.0000    25.0000    25.0000    10.0000    10.0000    25.0000     0.0018    -0.0023    -0.0009    20.7877    41.4531     1.5102     0.9127     0.9127     0.1948    14.4503    14.5060    -0.055
    143   -33.3972     34.420    285.000 213301.000     30.000    41.5367     0.0149   -24.9958     0.0002     0.0007    25.0000    10.0000    10.0000    25.0000    25.0000    10.0000    10.0000    25.0000     0.0018    -0.0023    -0.0009    20.7877    41.4531     1.5191     0.9183     0.9183     0.1936    14.4503    14.5060    -0.055
    144   -33.5979     34.245    303.000 213301.000     30.000    41.5367     0.0149   -24.9958     0.0002     0.0007    25.0000    10.0000    10.0000    25.0000    25.0000    10.0000    10.0000    25.0000     0.0018    -0.0023    -0.0009    20.7877    41.4531     1.5279     0.9239     0.9239     0.1925    14.4503    14.5060    -0.055
    145   -33.7993     34.423    262.000 213301.000     30.000    41.5367     0.0149   -24.9958     0.0002     0.0007    25.0000    10.0000    10.0000    25.0000    25.0000    10.0000    10.0000    25.0000     0.0018    -0.0023    -0.0009    20.7877    41.4531     1.5368     0.9295     0.9295     0.1912    14.4503    14.5060    -0.055
    146   -33.9987     34.479    292.000 213301.000     30.000    41.5367     0.0149   -24.9958     0.0002     0.0007    25.0000    10.0000    10.0000    25.0000    25.0000    10.0000    10.0000    25.0000     0.0018    -0.0023    -0.0009    20.7877    41.4531     1.5456     0.9351     0.9351     0.1900    14.4503    14.5060    -0.055
    147   -34.2015     34.402    319.000 213301.000     30.000    41.5367     0.0149   -24.9958     0.0002     0.0007    25.0000    10.0000    10.0000    25.0000    25.0000    10.0000    10.0000    25.0000     0.0018    -0.0023    -0.0010    20.7877    41.4531     1.5546     0.9407     0.9407     0.1887    14.4503    14.5060    -0.055
    148   -34.4023     34.364    301.000 213301.000     30.000    41.5367     0.0149   -24.9958     0.0002     0.0007    25.0000    10.0000    10.0000    25.0000    25.0000    10.0000    10.0000    25.0000     0.0018    -0.0023    -0.0010    20.7877    41.4531     1.5634     0.9463     0.9463     0.1874    14.4503    14.5060    -0.055
    149   -34.6007     34.386    338.000 213301.000     30.000    41.5367     0.0149   -24.9958     0.0002     0.0007    25.0000    10.0000    10.0000    25.0000    25.0000    10.0000    10.0000    25.0000     0.0018    -0.0023    -0.0009    20.7877    41.4531     1.5722     0.9518     0.9518     0.1861    14.4503    14.5060    -0.055
    150   -34.7977     34.462    333.000 213301.000     30.000    41.5367     0.0149   -24.9958     0.0002     0.0007    25.0000    10.0000    10.0000    25.0000    25.0000    10.0000    10.0000    25.0000     0.0018    -0.0024    -0.0009    20.7877    41.4531     1.5808     0.9573     0.9573     0.1848    14.4503    14.5060    -0.055
    151   -34.9986     34.293    297.000 213301.000     30.000    41.5367     0.0149   -24.9958     0.0002     0.0007    25.0000    10.0000    10.0000    25.0000    25.0000    10.0000    10.0000    25.0000     0.0018    -0.0023    -0.0009    20.7877    41.4531     1.5897     0.9629     0.9629     0.1834    14.4503    14.5060    -0.055
    152   -35.1970     34.385    329.000 213301.000     30.000    41.5367     0.0149   -24.9958     0.0002     0.0007    25.0000    10.0000    10.0000    25.0000    25.0000    10.0000    10.0000    25.0000     0.0018    -0.0023    -0.0009    20.7877    41.4531     1.5984     0.9684     0.9684     0.1820    14.4503    14.5060    -0.055
    153   -35.3998     34.474    286.000 213301.000     30.000    41.5367     0.0149   -24.9958     0.0002     0.0007    25.0000    10.0000    10.0000    25.0000    25.0000    10.0000    10.0000    25.0000     0.0018    -0.0023    -0.0009    20.7877    41.4531     1.6073     0.9741     0.9741     0.1806    14.4503    14.5060    -0.055
    154   -35.6017     34.482    277.000 213301.000     30.000    41.5367     0.0149   -24.9958     0.0002     0.0007    25.0000    10.0000    10.0000    25.0000    25.0000    10.0000    10.0000    25.0000     0.0018    -0.0023    -0.0009    20.7877    41.4531     1.6162     0.9797     0.9797     0.1791    14.4503    14.5060    -0.055
    155   -35.8032     34.214    283.000 213301.000     30.000    41.5367     0.0149   -24.9958     0.0002     0.0007    25.0000    10.0000    10.0000    25.0000    25.0000    10.0000    10.0000    25.0000     0.0018    -0.0023    -0.0010    20.7877    41.4531     1.6250     0.9852     0.9852     0.1776    14.4503    14.5060    -0.055
    156   -35.9997     34.229    299.000 213301.000     30.000    41.5367     0.0149   -24.9958     0.0002     0.0007    25.0000    10.0000    10.0000    25.0000    25.0000    10.0000    10.0000    25.0000     0.0018    -0.0023    -0.0009    20.7877    41.4531     1.6336     0.9907     0.9907     0.1761    14.4503    14.5060    -0.055
    157   -36.2031     34.341    290.000 213301.000     30.000    41.5367     0.0149   -24.9958     0.0002     0.0007    25.0000    10.0000    10.0000    25.0000    25.0000    10.0000    10.0000    25.0000     0.0018    -0.0023    -0.0009    20.7877    41.4531     1.6426     0.9963     0.9963     0.1746    14.4503    14.5060    -0.055
    158   -36.4009     34.257    268.000 213301.000     30.000    41.5367     0.0149   -24.9958     0.0002     0.0007    25.0000    10.0000    10.0000    25.0000    25.0000    10.0000    10.0000    25.0000     0.0018    -0.0023    -0.0009    20.7877    41.4531     1.6512     1.0018     1.0018     0.1730    14.4503    14.5060    -0.055
    159   -36.5980     34.285    261.000 213301.000     30.000    41.5367     0.0149   -24.9958     0.0002     0.0007    25.0000    10.0000    10.0000    25.0000    25.0000    10.0000    10.0000    25.0000     0.0018    -0.0023    -0.0009    20.7877    41.4531     1.6599     1.0073     1.0072     0.1715    14.4503    14.5061    -0.055
    160   -36.7976     34.344    261.000 213301.000     30.000    41.5367     0.0149   -24.9958     0.0002     0.0007    25.0000    10.0000    10.0000    25.0000    25.0000    10.0000    10.0000    25.0000     0.0018    -0.0023    -0.0009    20.7877    41.4531     1.6686     1.0128     1.0128     0.1698    14.4503    14.5060    -0.055
    161   -36.9981     34.429    251.000 213301.000     30.000    41.5367     0.0149   -24.9958     0.0002     0.0007    25.0000    10.0000    10.0000    25.0000    25.0000    10.0000    10.0000    25.0000     0.0018    -0.0023    -0.0009    20.7877    41.4531     1.6774     1.0183     1.0183     0.1682    14.4503    14.5061    -0.055
    162   -37.1976     34.428    283.000 213301.000     30.000    41.5367     0.0149   -24.9958     0.0002     0.0007    25.0000    10.0000    10.0000    25.0000    25.0000    10.0000    10.0000    25.0000     0.0018    -0.0023    -0.0009    20.7877    41.4531     1.6861     1.0238     1.0238     0.1665    14.4503    14.5061    -0.055
    163   -37.4030     34.513    279.000 213301.000     30.000    41.5367     0.0149   -24.9958     0.0002     0.0007    25.0000    10.0000    10.0000    25.0000    25.0000    10.0000    10.0000    25.0000     0.0018    -0.0023    -0.0009    20.7877    41.4531     1.6951     1.0295     1.0295     0.1648    14.4503    14.5061    -0.055
    164   -37.6024     34.301    314.000 213301.000     30.000    41.5367     0.0149   -24.9958     0.0002     0.0007    25.0000    10.0000    10.0000    25.0000    25.0000    10.0000    10.0000    25.0000     0.0018    -0.0023    -0.0009    20.7877    41.4531     1.7038     1.0350     1.0350     0.1631    14.4503    14.5061    -0.055
    165   -37.8034     34.186    335.000 213301.000     30.000    41.5367     0.0149   -24.9958     0.0002     0.0007    25.0000    10.0000    10.0000    25.0000    25.0000    10.0000    10.0000    25.0000     0.0018    -0.0023    -0.0009    20.7877    41.4531     1.7126     1.0405     1.0405     0.1613    14.4503    14.5061    -0.055
    166   -38.0014     34.433    330.000 213301.000     30.000    41.5367     0.0149   -24.9958     0.0002     0.0007    25.0000    10.0000    10.0000    25.0000    25.0000    10.0000    10.0000    25.0000     0.0018    -0.0023    -0.0009    20.7877    41.4531     1.7212     1.0460     1.0459     0.1595    14.4503    14.5060    -0.055
    167   -38.1987     34.313    284.000 213301.000     30.000    41.5367     0.0149   -24.9958     0.0002     0.0007    25.0000    10.0000    10.0000    25.0000    25.0000    10.0000    10.0000    25.0000     0.0018    -0.0023    -0.0009    20.7877    41.4531     1.7298     1.0514     1.0514     0.1577    14.4503    14.5061    -0.055
    168   -38.3993     34.192    283.000 213301.000     30.000    41.5367     0.0149   -24.9958     0.0002     0.0007    25.0000    10.0000    10.0000    25.0000    25.0000    10.0000    10.0000    25.0000     0.0018    -0.0023    -0.0009    20.7877    41.4531     1.7386     1.0569     1.0569     0.1559    14.4503    14.5061    -0.055
    169   -38.6009     34.197    261.000 213301.000     30.000    41.5367     0.0149   -24.9958     0.0002     0.0007    25.0000    10.0000    10.0000    25.0000    25.0000    10.0000    10.0000    25.0000     0.0018    -0.0023    -0.0009    20.7877    41.4531     1.7474     1.0624     1.0624     0.1540    14.4503    14.5061    -0.055
    170   -38.7986     34.244    262.000 213301.000     30.000    41.5367     0.0149   -24.9958     0.0002     0.0007    25.0000    10.0000    10.0000    25.0000    25.0000    10.0000    10.0000    25.0000     0.0018    -0.0023    -0.0009    20.7877    41.4531     1.7560     1.0678     1.0678     0.1521    14.4503    14.5061    -0.055
    171   -38.9992     34.451    248.000 213301.000     30.000    41.5367     0.0149   -24.9958     0.0002     0.0007    25.0000    10.0000    10.0000    25.0000    25.0000    10.0000    10.0000    25.0000     0.0018    -0.0023    -0.0009    20.7877    41.4531     1.7647     1.0733     1.0733     0.1502    14.4503    14.5060    -0.055
    172   -39.2018     34.341    269.000 213301.000     30.000    41.5367     0.0149   -24.9958     0.0002     0.0007    25.0000    10.0000    10.0000    25.0000    25.0000    10.0000    10.0000    25.0000     0.0018    -0.0023    -0.0010    20.7877    41.4531     1.7735     1.0789     1.0789     0.1483    14.4503    14.5061    -0.055
    173   -39.3998     34.156    269.000 213301.000     30.000    41.5367     0.0149   -24.9958     0.0002     0.0007    25.0000    10.0000    10.0000    25.0000    25.0000    10.0000    10.0000    25.0000     0.0018    -0.0023    -0.0009    20.7877    41.4531     1.7821     1.0843     1.0843     0.1463    14.4503    14.5060    -0.055
    174   -39.5996     34.170    240.000 213301.000     30.000    41.5367     0.0149   -24.9958     0.0002     0.0007    25.0000    10.0000    10.0000    25.0000    25.0000    10.0000    10.0000    25.0000     0.0018    -0.0023    -0.0009    20.7877    41.4531     1.7908     1.0898     1.0898     0.1443    14.4503    14.5061    -0.055
    175   -39.7969     34.225    252.000 213301.000     30.000    41.5367     0.0149   -24.9958     0.0002     0.0007    25.0000    10.0000    10.0000    25.0000    25.0000    10.0000    10.0000    25.0000     0.0018    -0.0023    -0.0009    20.7877    41.4530     1.7993     1.0951     1.0951     0.1423    14.4503    14.5061    -0.055
    176   -39.9980     34.329    246.000 213301.000     30.000    41.5367     0.0149   -24.9958     0.0002     0.0007    25.0000    10.0000    10.0000    25.0000    25.0000    10.0000    10.0000    25.0000     0.0018    -0.0023    -0.0009    20.7877    41.4531     1.8081     1.1006     1.1006     0.1402    14.4503    14.5061    -0.055
    177   -40.1978     34.405    273.000 213301.000     30.000    41.5367     0.0149   -24.9958     0.0002     0.0007    25.0000    10.0000    10.0000    25.0000    25.0000    10.0000    10.0000    25.0000     0.0018    -0.0023    -0.0009    20.7877    41.4531     1.8167     1.1061     1.1061     0.1382    14.4503    14.5061    -0.055
    178   -40.3981     34.276    259.000 213301.000     30.000    41.5367     0.0149   -24.9958     0.0002     0.0007    25.0000    10.0000    10.0000    25.0000    25.0000    10.0000    10.0000    25.0000     0.0018    -0.0023    -0.0009    20.7877    41.4530     1.8254     1.1115     1.1115     0.1361    14.4503    14.5061    -0.055
    179   -40.6011     34.339    262.000 213301.000     30.000    41.5367     0.0149   -24.9958     0.0002     0.0007    25.0000    10.0000    10.0000    25.0000    25.0000    10.0000    10.0000    25.0000     0.0018    -0.0023    -0.0009    20.7878    41.4530     1.8342     1.1170     1.1170     0.1339    14.4503    14.5061    -0.055
    180   -40.8007     34.226    262.000 213301.000     30.000    41.5367     0.0149   -24.9958     0.0002     0.0007    25.0000    10.0000    10.0000    25.0000    25.0000    10.0000    10.0000    25.0000     0.0018    -0.0023    -0.0009    20.7877    41.4531     1.8428     1.1225     1.1225     0.1317    14.4503    14.5061    -0.055
    181   -41.0021     34.270    275.000 213301.000     30.000    41.5367     0.0149   -24.9958     0.0002     0.0007    25.0000    10.0000    10.0000    25.0000    25.0000    10.0000    10.0000    25.0000     0.0018    -0.0023    -0.0009    20.7877    41.4531     1.8515     1.1279     1.1279     0.1295    14.4503    14.5061    -0.055
    182   -41.2019     34.269    271.000 213301.000     30.000    41.5367     0.0149   -24.9958     0.0002     0.0007    25.0000    10.0000    10.0000    25.0000    25.0000    10.0000    10.0000    25.0000     0.0018    -0.0023    -0.0009    20.7877    41.4530     1.8601     1.1334     1.1334     0.1273    14.4503    14.5061    -0.055
    183   -41.3976     34.262    263.000 213301.000     30.000    41.5367     0.0149   -24.9958     0.0002     0.0007    25.0000    10.0000    10.0000    25.0000    25.0000    10.0000    10.0000    25.0000     0.0018    -0.0023    -0.0010    20.7877    41.4530     1.8686     1.1387     1.1387     0.1251    14.4503    14.5061    -0.055
    184   -41.5971     34.206    274.000 213301.000     30.000    41.5367     0.0149   -24.9958     0.0002     0.0007    25.0000    10.0000    10.0000    25.0000    25.0000    10.0000    10.0000    25.0000     0.0018    -0.0023    -0.0009    20.7877    41.4530     1.8772     1.1441     1.1441     0.1229    14.4503    14.5061    -0.055
    185   -41.7987     34.254    270.000 213301.000     30.000    41.5367     0.0149   -24.9958     0.0002     0.0007    25.0000    10.0000    10.0000    25.0000    25.0000    10.0000    10.0000    25.0000     0.0018    -0.0023    -0.0009    20.7877    41.4530     1.8859     1.1495     1.1495     0.1206    14.4503    14.5061    -0.055
    186   -41.9993     34.351    283.000 213301.000     30.000    41.5367     0.0149   -24.9958     0.0002     0.0007    25.0000    10.0000    10.0000    25.0000    25.0000    10.0000    10.0000    25.0000     0.0018    -0.0023    -0.0009    20.7877    41.4530     1.8945     1.1549     1.1549     0.1182    14.4503    14.5061    -0.055
    187   -42.2017     34.235    276.000 213301.000     30.000    41.5367     0.0149   -24.9958     0.0002     0.0007    25.0000    10.0000    10.0000    25.0000    25.0000    10.0000    10.0000    25.0000     0.0018    -0.0023    -0.0010    20.7877    41.4530     1.9033     1.1604     1.1604     0.1158    14.4503    14.5061    -0.055
    188   -42.4023     34.419    273.000 213301.000     30.000    41.5367     0.0149   -24.9958     0.0002     0.0007    25.0000    10.0000    10.0000    25.0000    25.0000    10.0000    10.0000    25.0000     0.0018    -0.0023    -0.0009    20.7877    41.4531     1.9119     1.1658     1.1658     0.1135    14.4503    14.5061    -0.055
    189   -42.6032     34.376    283.000 213301.000     30.000    41.5367     0.0149   -24.9958     0.0002     0.0007    25.0000    10.0000    10.0000    25.0000    25.0000    10.0000    10.0000    25.0000     0.0018    -0.0023    -0.0010    20.7877    41.4530     1.9205     1.1712     1.1712     0.1111    14.4503    14.5061    -0.055
    190   -42.7999     34.405    276.000 213301.000     30.000    41.5367     0.0149   -24.9958     0.0002     0.0007    25.0000    10.0000    10.0000    25.0000    25.0000    10.0000    10.0000    25.0000     0.0018    -0.0023    -0.0009    20.7877    41.4531     1.9290     1.1765     1.1765     0.1087    14.4503    14.5061    -0.055
    191   -42.9984     34.298    325.000 213301.000     30.000    41.5367     0.0149   -24.9958     0.0002     0.0007    25.0000    10.0000    10.0000    25.0000    25.0000    10.0000    10.0000    25.0000     0.0018    -0.0023    -0.0010    20.7877    41.4530     1.9375     1.1818     1.1818     0.1062    14.4503    14.5061    -0.055
    192   -43.1976     34.264    340.000 213301.000     30.000    41.5367     0.0149   -24.9958     0.0002     0.0007    25.0000    10.0000    10.0000    25.0000    25.0000    10.0000    10.0000    25.0000     0.0018    -0.0023    -0.0009    20.7877    41.4530     1.9460     1.1872     1.1872     0.1038    14.4503    14.5061    -0.055
    193   -43.3980     34.058    408.000 213301.000     30.000    41.5367     0.0149   -24.9958     0.0002     0.0007    25.0000    10.0000    10.0000    25.0000    25.0000    10.0000    10.0000    25.0000     0.0018    -0.0023    -0.0009    20.7877    41.4530     1.9546     1.1925     1.1925     0.1012    14.4503    14.5061    -0.055
    194   -43.5986     34.230    550.000 213301.000     30.000    41.5367     0.0149   -24.9958     0.0002     0.0007    25.0000    10.0000    10.0000    25.0000    25.0000    10.0000    10.0000    25.0000     0.0018    -0.0023    -0.0009    20.7877    41.4531     1.9632     1.1979     1.1979     0.0987    14.4503    14.5061    -0.055
    195   -43.7997     34.222   1683.000 213301.000     30.000    41.5367     0.0149   -24.9958     0.0002     0.0007    25.0000    10.0000    10.0000    25.0000    25.0000    10.0000    10.0000    25.0000     0.0018    -0.0023    -0.0010    20.7877    41.4530     1.9718     1.2033     1.2033     0.0961    14.4503    14.5061    -0.055
    196   -44.0013     34.446   6677.000 213301.000     30.000    41.5367     0.0149   -24.9958     0.0002     0.0007    25.0000    10.0000    10.0000    25.0000    25.0000    10.0000    10.0000    25.0000     0.0018    -0.0023    -0.0010    20.7878    41.4530     1.9805     1.2087     1.2087     0.0935    14.4503    14.5061    -0.055
    197   -44.2030     34.295  21144.000 213301.000     30.000    41.5367     0.0149   -24.9958     0.0002     0.0007    25.0000    10.0000    10.0000    25.0000    25.0000    10.0000    10.0000    25.0000     0.0018    -0.0023    -0.0009    20.7877    41.4530     1.9891     1.2140     1.2140     0.0909    14.4503    14.5061    -0.055
    198   -44.4036     34.233  41862.000 213301.000     30.000    41.5367     0.0149   -24.9958     0.0002     0.0007    25.0000    10.0000    10.0000    25.0000    25.0000    10.0000    10.0000    25.0000     0.0018    -0.0023    -0.0009    20.7877    41.4531     1.9977     1.2194     1.2194     0.0882    14.4503    14.5061    -0.055
    199   -44.6005     34.337  54318.000 213301.000     30.000    41.5367     0.0149   -24.9958     0.0002     0.0007    25.0000    10.0000    10.0000    25.0000    25.0000    10.0000    10.0000    25.0000     0.0018    -0.0023    -0.0010    20.7877    41.4530     2.0061     1.2246     1.2246     0.0856    14.4503    14.5061    -0.055
    200   -44.7978     34.352  47800.000 213301.000     30.000    41.5367     0.0149   -24.9958     0.0002     0.0007    25.0000    10.0000    10.0000    25.0000    25.0000    10.0000    10.0000    25.0000     0.0018    -0.0023    -0.0009    20.7878    41.4531     2.0145     1.2299     1.2299     0.0830    14.4503    14.5061    -0.055
    201   -44.9998     34.350  28541.000 213301.000     30.000    41.5367     0.0149   -24.9958     0.0002     0.0007    25.0000    10.0000    10.0000    25.0000    25.0000    10.0000    10.0000    25.0000     0.0018    -0.0023    -0.0009    20.7878    41.4530     2.0231     1.2352     1.2352     0.0802    14.4503    14.5061    -0.055
    202   -45.1997     34.184  11744.000 213301.000     30.000    41.5367     0.0149   -24.9958     0.0002     0.0007    25.0000    10.0000    10.0000    25.0000    25.0000    10.0000    10.0000    25.0000     0.0018    -0.0023    -0.0009    20.7877    41.4531     2.0316     1.2405     1.2405     0.0775    14.4503    14.5061    -0.055
    203   -45.3988     34.277   3565.000 213301.000     30.000    41.5367     0.0149   -24.9958     0.0002     0.0007    25.0000    10.0000    10.0000    25.0000    25.0000    10.0000    10.0000    25.0000     0.0018    -0.0023    -0.0009    20.7877    41.4531     2.0401     1.2458     1.2458     0.0747    14.4503    14.5061    -0.055
    204   -45.6007     34.221    991.000 213301.000     30.000    41.5367     0.0149   -24.9958     0.0002     0.0007    25.0000    10.0000    10.0000    25.0000    25.0000    10.0000    10.0000    25.0000     0.0018    -0.0023    -0.0009    20.7877    41.4531     2.0487     1.2511     1.2511     0.0719    14.4503    14.5061    -0.055
    205   -45.8011     34.296    405.000 213301.000     30.000    41.5367     0.0149   -24.9958     0.0002     0.0007    25.0000    10.0000    10.0000    25.0000    25.0000    10.0000    10.0000    25.0000     0.0018    -0.0023    -0.0009    20.7877    41.4531     2.0572     1.2564     1.2564     0.0691    14.4503    14.5061    -0.055
    206   -46.0016     34.269    339.000 213301.000     30.000    41.5367     0.0149   -24.9958     0.0002     0.0007    25.0000    10.0000    10.0000    25.0000    25.0000    10.0000    10.0000    25.0000     0.0018    -0.0023    -0.0009    20.7877    41.4530     2.0657     1.2617     1.2617     0.0662    14.4503    14.5061    -0.055
    207   -46.2012     34.308    281.000 213301.000     30.000    41.5367     0.0149   -24.9958     0.0002     0.0007    25.0000    10.0000    10.0000    25.0000    25.0000    10.0000    10.0000    25.0000     0.0018    -0.0023    -0.0009    20.7877    41.4531     2.0742     1.2670     1.2670     0.0633    14.4503    14.5061    -0.055
    208   -46.3970     34.279    280.000 213301.000     30.000    41.5367     0.0149   -24.9958     0.0002     0.0007    25.0000    10.0000    10.0000    25.0000    25.0000    10.0000    10.0000    25.0000     0.0018    -0.0023    -0.0009    20.7878    41.4531     2.0825     1.2721     1.2721     0.0605    14.4503    14.5061    -0.055
    209   -46.5971     34.346    267.000 213301.000     30.000    41.5367     0.0149   -24.9958     0.0002     0.0007    25.0000    10.0000    10.0000    25.0000    25.0000    10.0000    10.0000    25.0000     0.0018    -0.0023    -0.0009    20.7877    41.4531     2.0910     1.2774     1.2774     0.0576    14.4503    14.5061    -0.055
    210   -46.7989     34.266    245.000 213301.000     30.000    41.5367     0.0149   -24.9958     0.0002     0.0007    25.0000    10.0000    10.0000    25.0000    25.0000    10.0000    10.0000    25.0000     0.0018    -0.0023    -0.0009    20.7877    41.4531     2.0995     1.2827     1.2827     0.0546    14.4503    14.5061    -0.055
    211   -46.9987     34.353    237.000 213301.000     30.000    41.5367     0.0149   -24.9958     0.0002     0.0007    25.0000    10.0000    10.0000    25.0000    25.0000    10.0000    10.0000    25.0000     0.0018    -0.0023    -0.0009    20.7878    41.4531     2.1080     1.2879     1.2879     0.0516    14.4503    14.5060    -0.055
    212   -47.1996     34.362    252.000 213301.000     30.000    41.5367     0.0149   -24.9958     0.0002     0.0007    25.0000    10.0000    10.0000    25.0000    25.0000    10.0000    10.0000    25.0000     0.0018    -0.0023    -0.0009    20.7878    41.4531     2.1165     1.2931     1.2931     0.0486    14.4503    14.5061    -0.055
    213   -47.4010     34.382    253.000 213301.000     30.000    41.5367     0.0149   -24.9958     0.0002     0.0007    25.0000    10.0000    10.0000    25.0000    25.0000    10.0000    10.0000    25.0000     0.0018    -0.0023    -0.0009    20.7878    41.4531     2.1250     1.2984     1.2984     0.0456    14.4503    14.5061    -0.055
    214   -47.6017     34.396    222.000 213301.000     30.000    41.5367     0.0149   -24.9958     0.0002     0.0007    25.0000    10.0000    10.0000    25.0000    25.0000    10.0000    10.0000    25.0000     0.0018    -0.0023    -0.0009    20.7878    41.4531     2.1335     1.3036     1.3036     0.0425    14.4503    14.5061    -0.055
    215   -47.7998     34.304    250.000 213301.000     30.000    41.5367     0.0149   -24.9958     0.0002     0.0007    25.0000    10.0000    10.0000    25.0000    25.0000    10.0000    10.0000    25.0000     0.0018    -0.0023    -0.0009    20.7877    41.4531     2.1418     1.3088     1.3088     0.0394    14.4503    14.5061    -0.055
    216   -47.9974     34.251    223.000 213301.000     30.000    41.5367     0.0149   -24.9958     0.0002     0.0007    25.0000    10.0000    10.0000    25.0000    25.0000    10.0000    10.0000    25.0000     0.0018    -0.0023    -0.0009    20.7877    41.4531     2.1502     1.3139     1.3139     0.0364    14.4503    14.5061    -0.055
    217   -48.1994     34.189    251.000 213301.000     30.000    41.5367     0.0149   -24.9958     0.0002     0.0007    25.0000    10.0000    10.0000    25.0000    25.0000    10.0000    10.0000    25.0000     0.0018    -0.0023    -0.0009    20.7877    41.4531     2.1587     1.3192     1.3192     0.0332    14.4503    14.5061    -0.055
    218   -48.4000     34.312    270.000 213301.000     30.000    41.5367     0.0149   -24.9958     0.0002     0.0007    25.0000    10.0000    10.0000    25.0000    25.0000    10.0000    10.0000    25.0000     0.0018    -0.0023    -0.0009    20.7878    41.4531     2.1671     1.3244     1.3244     0.0300    14.4503    14.5061    -0.055
    219   -48.6000     34.222    235.000 213301.000     30.000    41.5367     0.0149   -24.9958     0.0002     0.0007    25.0000    10.0000    10.0000    25.0000    25.0000    10.0000    10.0000    25.0000     0.0018    -0.0023    -0.0009    20.7878    41.4531     2.1755     1.3296     1.3295     0.0268    14.4503    14.5061    -0.055
    220   -48.8008     34.277    229.000 213301.000     30.000    41.5367     0.0149   -24.9958     0.0002     0.0007    25.0000    10.0000    10.0000    25.0000    25.0000    10.0000    10.0000    25.0000     0.0018    -0.0023    -0.0009    20.7878    41.4531     2.1840     1.3347     1.3347     0.0236    14.4503    14.5061    -0.055
    221   -49.0030     34.201    239.000 213301.000     30.000    41.5367     0.0149   -24.9958     0.0002     0.0007    25.0000    10.0000    10.0000    25.0000    25.0000    10.0000    10.0000    25.0000     0.0018    -0.0023    -0.0010    20.7877    41.4531     2.1925     1.3400     1.3400     0.0204    14.4503    14.5061    -0.055
    222   -49.1993     34.302    253.000 213301.000     30.000    41.5367     0.0149   -24.9958     0.0002     0.0007    25.0000    10.0000    10.0000    25.0000    25.0000    10.0000    10.0000    25.0000     0.0018    -0.0023    -0.0010    20.7877    41.4531     2.2007     1.3450     1.3450     0.0172    14.4503    14.5061    -0.055
    223   -49.4012     34.320    261.000 213301.000     30.000    41.5367     0.0149   -24.9958     0.0002     0.0007    25.0000    10.0000    10.0000    25.0000    25.0000    10.0000    10.0000    25.0000     0.0018    -0.0023    -0.0009    20.7878    41.4531     2.2092     1.3502     1.3502     0.0138    14.4503    14.5061    -0.055
    224   -49.5984     34.225    226.000 213301.000     30.000    41.5367     0.0149   -24.9958     0.0002     0.0007    25.0000    10.0000    10.0000    25.0000    25.0000    10.0000    10.0000    25.0000     0.0018    -0.0023    -0.0010    20.7878    41.4531     2.2174     1.3553     1.3553     0.0106    14.4503    14.5061    -0.055
    225   -49.7968     34.209    258.000 213301.000     30.000    41.5367     0.0149   -24.9958     0.0002     0.0007    25.0000    10.0000    10.0000    25.0000    25.0000    10.0000    10.0000    25.0000     0.0018    -0.0023    -0.0009    20.7878    41.4531     2.2257     1.3604     1.3604     0.0073    14.4503    14.5061    -0.055
    226   -49.9983     34.280    213.000 213301.000     30.000    41.5367     0.0149   -24.9958     0.0002     0.0007    25.0000    10.0000    10.0000    25.0000    25.0000    10.0000    10.0000    25.0000     0.0018    -0.0023    -0.0009    20.7878    41.4531     2.2342     1.3655     1.3655     0.0039    14.4503    14.5061    -0.055
    227   -50.1989     34.227    212.000 213301.000     30.000    41.5367     0.0149   -24.9958     0.0002     0.0007    25.0000    10.0000    10.0000    25.0000    25.0000    10.0000    10.0000    25.0000     0.0018    -0.0023    -0.0010    20.7877    41.4531     2.2425     1.3707     1.3706     0.0005    14.4503    14.5061    -0.055
    228   -50.3989     34.181    224.000 213301.000     30.000    41.5367     0.0149   -24.9958     0.0002     0.0007    25.0000    10.0000    10.0000    25.0000    25.0000    10.0000    10.0000    25.0000     0.0018    -0.0023    -0.0009    20.7878    41.4530     2.2509     1.3758     1.3757    -0.0029    14.4503    14.5061    -0.055
    229   -50.6031     34.275    227.000 213301.000     30.000    41.5367     0.0149   -24.9958     0.0002     0.0007    25.0000    10.0000    10.0000    25.0000    25.0000    10.0000    10.0000    25.0000     0.0018    -0.0023    -0.0009    20.7878    41.4530     2.2594     1.3810     1.3809    -0.0064    14.4503    14.5061    -0.055
    230   -50.8007     34.243    232.000 213301.000     30.000    41.5367     0.0149   -24.9958     0.0002     0.0007    25.0000    10.0000    10.0000    25.0000    25.0000    10.0000    10.0000    25.0000     0.0018    -0.0023    -0.0009    20.7878    41.4530     2.2677     1.3860     1.3860    -0.0099    14.4503    14.5061    -0.055
    231   -51.0004     34.183    228.000 213301.000     30.000    41.5367     0.0149   -24.9958     0.0002     0.0007    25.0000    10.0000    10.0000    25.0000    25.0000    10.0000    10.0000    25.0000     0.0018    -0.0023    -0.0010    20.7877    41.4530     2.2760     1.3911     1.3910    -0.0133    14.4503    14.5061    -0.055
    232   -51.2000     34.263    241.000 213301.000     30.000    41.5367     0.0149   -24.9958     0.0002     0.0007    25.0000    10.0000    10.0000    25.0000    25.0000    10.0000    10.0000    25.0000     0.0018    -0.0023    -0.0010    20.7878    41.4530     2.2843     1.3961     1.3961    -0.0169    14.4503    14.5061    -0.055
    233   -51.3987     34.246    225.000 213301.000     30.000    41.5367     0.0149   -24.9958     0.0002     0.0007    25.0000    10.0000    10.0000    25.0000    25.0000    10.0000    10.0000    25.0000     0.0018    -0.0023    -0.0009    20.7878    41.4531     2.2925     1.4011     1.4011    -0.0204    14.4503    14.5061    -0.055
    234   -51.5991     34.347    226.000 213301.000     30.000    41.5367     0.0149   -24.9958     0.0002     0.0007    25.0000    10.0000    10.0000    25.0000    25.0000    10.0000    10.0000    25.0000     0.0018    -0.0023    -0.0009    20.7878    41.4530     2.3009     1.4062     1.4062    -0.0239    14.4503    14.5061    -0.055
    235   -51.7998     34.172    231.000 213301.000     30.000    41.5367     0.0149   -24.9958     0.0002     0.0007    25.0000    10.0000    10.0000    25.0000    25.0000    10.0000    10.0000    25.0000     0.0018    -0.0023    -0.0009    20.7878    41.4531     2.3092     1.4113     1.4113    -0.0275    14.4503    14.5061    -0.055
    236   -51.9996     34.248    238.000 213301.000     30.000    41.5367     0.0149   -24.9958     0.0002     0.0007    25.0000    10.0000    10.0000    25.0000    25.0000    10.0000    10.0000    25.0000     0.0018    -0.0023    -0.0009    20.7878    41.4530     2.3175     1.4163     1.4163    -0.0311    14.4503    14.5061    -0.055
    237   -52.2007     34.205    240.000 213301.000     30.000    41.5367     0.0149   -24.9958     0.0002     0.0007    25.0000    10.0000    10.0000    25.0000    25.0000    10.0000    10.0000    25.0000     0.0018    -0.0023    -0.0009    20.7878    41.4530     2.3258     1.4213     1.4213    -0.0348    14.4503    14.5061    -0.055
    238   -52.4018     34.082    232.000 213301.000     30.000    41.5367     0.0149   -24.9958     0.0002     0.0007    25.0000    10.0000    10.0000    25.0000    25.0000    10.0000    10.0000    25.0000     0.0018    -0.0023    -0.0009    20.7878    41.4530     2.3342     1.4264     1.4264    -0.0385    14.4503    14.5061    -0.055
    239   -52.6006     34.346    232.000 213301.000     30.000    41.5367     0.0149   -24.9958     0.0002     0.0007    25.0000    10.0000    10.0000    25.0000    25.0000    10.0000    10.0000    25.0000     0.0018    -0.0023    -0.0009    20.7877    41.4530     2.3424     1.4314     1.4314    -0.0421    14.4503    14.5061    -0.055
    240   -52.7991     34.174    235.000 213301.000     30.000    41.5367     0.0149   -24.9958     0.0002     0.0007    25.0000    10.0000    10.0000    25.0000    25.0000    10.0000    10.0000    25.0000     0.0018    -0.0023    -0.0009    20.7878    41.4530     2.3506     1.4363     1.4363    -0.0458    14.4503    14.5061    -0.055
    241   -52.9983     34.311    231.000 213301.000     30.000    41.5367     0.0149   -24.9958     0.0002     0.0007    25.0000    10.0000    10.0000    25.0000    25.0000    10.0000    10.0000    25.0000     0.0018    -0.0023    -0.0009    20.7878    41.4530     2.3588     1.4413     1.4413    -0.0496    14.4503    14.5061    -0.055
    242   -53.2003     34.177    232.000 213301.000     30.000    41.5367     0.0149   -24.9958     0.0002     0.0007    25.0000    10.0000    10.0000    25.0000    25.0000    10.0000    10.0000    25.0000     0.0018    -0.0023    -0.0009    20.7878    41.4530     2.3672     1.4463     1.4463    -0.0533    14.4503    14.5061    -0.055
    243   -53.3992     34.144    225.000 213301.000     30.000    41.5367     0.0149   -24.9958     0.0002     0.0007    25.0000    10.0000    10.0000    25.0000    25.0000    10.0000    10.0000    25.0000     0.0018    -0.0023    -0.0009    20.7878    41.4530     2.3754     1.4513     1.4513    -0.0571    14.4503    14.5061    -0.055
    244   -53.5991     34.205    231.000 213301.000     30.000    41.5367     0.0149   -24.9958     0.0002     0.0007    25.0000    10.0000    10.0000    25.0000    25.0000    10.0000    10.0000    25.0000     0.0018    -0.0023    -0.0010    20.7877    41.4530     2.3836     1.4562     1.4562    -0.0609    14.4503    14.5061    -0.055
    245   -53.8000     34.196    243.000 213301.000     30.000    41.5367     0.0149   -24.9958     0.0002     0.0007    25.0000    10.0000    10.0000    25.0000    25.0000    10.0000    10.0000    25.0000     0.0018    -0.0023    -0.0009    20.7878    41.4530     2.3919     1.4612     1.4612    -0.0648    14.4503    14.5061    -0.055
    246   -54.0023     34.186    269.000 213301.000     30.000    41.5367     0.0149   -24.9958     0.0002     0.0007    25.0000    10.0000    10.0000    25.0000    25.0000    10.0000    10.0000    25.0000     0.0018    -0.0023    -0.0009    20.7878    41.4530     2.4002     1.4662     1.4662    -0.0687    14.4503    14.5061    -0.055
    247   -54.2022     34.257    241.000 213301.000     30.000    41.5367     0.0149   -24.9958     0.0002     0.0007    25.0000    10.0000    10.0000    25.0000    25.0000    10.0000    10.0000    25.0000     0.0018    -0.0023    -0.0009    20.7877    41.4530     2.4084     1.4711     1.4711    -0.0726    14.4503    14.5061    -0.055
    248   -54.3978     34.217    251.000 213301.000     30.000    41.5367     0.0149   -24.9958     0.0002     0.0007    25.0000    10.0000    10.0000    25.0000    25.0000    10.0000    10.0000    25.0000     0.0018    -0.0023    -0.0009    20.7878    41.4530     2.4164     1.4759     1.4759    -0.0764    14.4503    14.5061    -0.055
    249   -54.5979     34.082    280.000 213301.000     30.000    41.5367     0.0149   -24.9958     0.0002     0.0007    25.0000    10.0000    10.0000    25.0000    25.0000    10.0000    10.0000    25.0000     0.0018    -0.0023    -0.0009    20.7878    41.4530     2.4246     1.4809     1.4808    -0.0803    14.4503    14.5061    -0.055
    250   -54.7968     34.232    232.000 213301.000     30.000    41.5367     0.0149   -24.9958     0.0002     0.0007    25.0000    10.0000    10.0000    25.0000    25.0000    10.0000    10.0000    25.0000     0.0018    -0.0023    -0.0010    20.7878    41.4530     2.4328     1.4857     1.4857    -0.0842    14.4503    14.5061    -0.055
    251   -54.9987     34.361    227.000 213301.000     30.000    41.5367     0.0149   -24.9958     0.0002     0.0007    25.0000    10.0000    10.0000    25.0000    25.0000    10.0000    10.0000    25.0000     0.0018    -0.0023    -0.0010    20.7878    41.4530     2.4410     1.4907     1.4907    -0.0883    14.4503    14.5061    -0.055
    252   -55.2017     34.399    253.000 213301.000     30.000    41.5367     0.0149   -24.9958     0.0002     0.0007    25.0000    10.0000    10.0000    25.0000    25.0000    10.0000    10.0000    25.0000     0.0018    -0.0023    -0.0010    20.7878    41.4530     2.4493     1.4956     1.4956    -0.0923    14.4503    14.5061    -0.055
    253   -55.4021     34.297    210.000 213301.000     30.000    41.5367     0.0149   -24.9958     0.0002     0.0007    25.0000    10.0000    10.0000    25.0000    25.0000    10.0000    10.0000    25.0000     0.0018    -0.0023    -0.0009    20.7878    41.4530     2.4575     1.5005     1.5005    -0.0964    14.4503    14.5061    -0.055
    254   -55.6005     34.142    220.000 213301.000     30.000    41.5367     0.0149   -24.9958     0.0002     0.0007    25.0000    10.0000    10.0000    25.0000    25.0000    10.0000    10.0000    25.0000     0.0018    -0.0023    -0.0010    20.7878    41.4530     2.4656     1.5053     1.5053    -0.1004    14.4503    14.5061    -0.055
    255   -55.8026     34.450    246.000 213301.000     30.000    41.5367     0.0149   -24.9958     0.0002     0.0007    25.0000    10.0000    10.0000    25.0000    25.0000    10.0000    10.0000    25.0000     0.0018    -0.0023    -0.0009    20.7878    41.4530     2.4739     1.5102     1.5102    -0.1045    14.4503    14.5061    -0.055
    256   -56.0029     34.149    232.000 213301.000     30.000    41.5367     0.0149   -24.9958     0.0002     0.0007    25.0000    10.0000    10.0000    25.0000    25.0000    10.0000    10.0000    25.0000     0.0018    -0.0023    -0.0009    20.7878    41.4530     2.4820     1.5151     1.5151    -0.1086    14.4503    14.5061    -0.055
    257   -56.1977     34.246    234.000 213301.000     30.000    41.5367     0.0149   -24.9958     0.0002     0.0007    25.0000    10.0000    10.0000    25.0000    25.0000    10.0000    10.0000    25.0000     0.0018    -0.0023    -0.0010    20.7878    41.4530     2.4900     1.5198     1.5198    -0.1126    14.4503    14.5061    -0.055
    258   -56.3982     34.283    244.000 213301.000     30.000    41.5367     0.0149   -24.9958     0.0002     0.0007    25.0000    10.0000    10.0000    25.0000    25.0000    10.0000    10.0000    25.0000     0.0018    -0.0023    -0.0009    20.7878    41.4530     2.4981     1.5246     1.5246    -0.1168    14.4503    14.5061    -0.055
    259   -56.5972     34.322    234.000 213301.000     30.000    41.5367     0.0149   -24.9958     0.0002     0.0007    25.0000    10.0000    10.0000    25.0000    25.0000    10.0000    10.0000    25.0000     0.0018    -0.0023    -0.0009    20.7878    41.4530     2.5062     1.5294     1.5294    -0.1209    14.4503    14.5061    -0.055
    260   -56.7979     34.175    234.000 213301.000     30.000    41.5367     0.0149   -24.9958     0.0002     0.0007    25.0000    10.0000    10.0000    25.0000    25.0000    10.0000    10.0000    25.0000     0.0018    -0.0023    -0.0009    20.7878    41.4530     2.5144     1.5342     1.5342    -0.1251    14.4503    14.5061    -0.055
    261   -56.9995     34.199    239.000 213301.000     30.000    41.5367     0.0149   -24.9958     0.0002     0.0007    25.0000    10.0000    10.0000    25.0000    25.0000    10.0000    10.0000    25.0000     0.0018    -0.0023    -0.0010    20.7878    41.4531     2.5225     1.5391     1.5391    -0.1294    14.4503    14.5061    -0.055
    262   -57.2030     34.167    225.000 213301.000     30.000    41.5367     0.0149   -24.9958     0.0002     0.0007    25.0000    10.0000    10.0000    25.0000    25.0000    10.0000    10.0000    25.0000     0.0018    -0.0023    -0.0009    20.7878    41.4530     2.5308     1.5439     1.5439    -0.1337    14.4503    14.5061    -0.055
    263   -57.4002     34.356    212.000 213301.000     30.000    41.5367     0.0149   -24.9958     0.0002     0.0007    25.0000    10.0000    10.0000    25.0000    25.0000    10.0000    10.0000    25.0000     0.0018    -0.0023    -0.0009    20.7878    41.4530     2.5388     1.5486     1.5486    -0.1379    14.4503    14.5061    -0.055
    264   -57.6007     34.202    258.000 213301.000     30.000    41.5367     0.0149   -24.9958     0.0002     0.0007    25.0000    10.0000    10.0000    25.0000    25.0000    10.0000    10.0000    25.0000     0.0018    -0.0023    -0.0009    20.7877    41.4530     2.5469     1.5534     1.5534    -0.1422    14.4503    14.5061    -0.055
    265   -57.7990     34.187    249.000 213301.000     30.000    41.5367     0.0149   -24.9958     0.0002     0.0007    25.0000    10.0000    10.0000    25.0000    25.0000    10.0000    10.0000    25.0000     0.0018    -0.0023    -0.0009    20.7878    41.4530     2.5549     1.5581     1.5581    -0.1465    14.4503    14.5061    -0.055
    266   -57.9982     34.104    239.000 213301.000     30.000    41.5367     0.0149   -24.9958     0.0002     0.0007    25.0000    10.0000    10.0000    25.0000    25.0000    10.0000    10.0000    25.0000     0.0018    -0.0023    -0.0010    20.7878    41.4531     2.5629     1.5628     1.5628    -0.1508    14.4503    14.5061    -0.055
    267   -58.1987     34.124    245.000 213301.000     30.000    41.5367     0.0149   -24.9958     0.0002     0.0007    25.0000    10.0000    10.0000    25.0000    25.0000    10.0000    10.0000    25.0000     0.0018    -0.0023    -0.0009    20.7878    41.4530     2.5710     1.5676     1.5676    -0.1552    14.4503    14.5061    -0.055
    268   -58.3998     34.309    235.000 213301.000     30.000    41.5367     0.0149   -24.9958     0.0002     0.0007    25.0000    10.0000    10.0000    25.0000    25.0000    10.0000    10.0000    25.0000     0.0018    -0.0023    -0.0009    20.7878    41.4530     2.5791     1.5723     1.5723    -0.1596    14.4503    14.5061    -0.055
    269   -58.5997     34.232    225.000 213301.000     30.000    41.5367     0.0149   -24.9958     0.0002     0.0007    25.0000    10.0000    10.0000    25.0000    25.0000    10.0000    10.0000    25.0000     0.0018    -0.0023    -0.0010    20.7878    41.4530     2.5872     1.5770     1.5770    -0.1640    14.4503    14.5061    -0.055
    270   -58.8005     34.318    227.000 213301.000     30.000    41.5367     0.0149   -24.9958     0.0002     0.0007    25.0000    10.0000    10.0000    25.0000    25.0000    10.0000    10.0000    25.0000     0.0018    -0.0023    -0.0009    20.7878    41.4531     2.5953     1.5818     1.5817    -0.1684    14.4503    14.5061    -0.055
    271   -59.0015     34.311    210.000 213301.000     30.000    41.5367     0.0149   -24.9958     0.0002     0.0007    25.0000    10.0000    10.0000    25.0000    25.0000    10.0000    10.0000    25.0000     0.0018    -0.0023    -0.0010    20.7878    41.4530     2.6033     1.5865     1.5864    -0.1729    14.4503    14.5061    -0.055
    272   -59.2015     34.074    209.000 213301.000     30.000    41.5367     0.0149   -24.9958     0.0002     0.0007    25.0000    10.0000    10.0000    25.0000    25.0000    10.0000    10.0000    25.0000     0.0018    -0.0023    -0.0010    20.7878    41.4530     2.6114     1.5911     1.5911    -0.1774    14.4503    14.5061    -0.055
    273   -59.3973     34.193    192.000 213301.000     30.000    41.5367     0.0149   -24.9958     0.0002     0.0007    25.0000    10.0000    10.0000    25.0000    25.0000    10.0000    10.0000    25.0000     0.0018    -0.0023    -0.0009    20.7878    41.4530     2.6192     1.5957     1.5957    -0.1818    14.4503    14.5061    -0.055
    274   -59.6000     34.230    197.000 213301.000     30.000    41.5367     0.0149   -24.9958     0.0002     0.0007    25.0000    10.0000    10.0000    25.0000    25.0000    10.0000    10.0000    25.0000     0.0018    -0.0023    -0.0009    20.7878    41.4530     2.6273     1.6004     1.6004    -0.1864    14.4503    14.5061    -0.055
    275   -59.7982     34.144    196.000 213301.000     30.000    41.5367     0.0149   -24.9958     0.0002     0.0007    25.0000    10.0000    10.0000    25.0000    25.0000    10.0000    10.0000    25.0000     0.0018    -0.0023    -0.0010    20.7878    41.4530     2.6353     1.6050     1.6050    -0.1909    14.4503    14.5061    -0.055
    276   -59.9980     34.182    268.000 213301.000     30.000    41.5367     0.0149   -24.9958     0.0002     0.0007    25.0000    10.0000    10.0000    25.0000    25.0000    10.0000    10.0000    25.0000     0.0018    -0.0023    -0.0010    20.7878    41.4530     2.6432     1.6096     1.6096    -0.1955    14.4503    14.5061    -0.055
    277   -60.1986     34.175    296.000 213301.000     30.000    41.5367     0.0149   -24.9958     0.0002     0.0007    25.0000    10.0000    10.0000    25.0000    25.0000    10.0000    10.0000    25.0000     0.0018    -0.0023    -0.0009    20.7877    41.4530     2.6512     1.6143     1.6143    -0.2001    14.4503    14.5061    -0.055
    278   -60.4009     34.216    408.000 213301.000     30.000    41.5367     0.0149   -24.9958     0.0002     0.0007    25.0000    10.0000    10.0000    25.0000    25.0000    10.0000    10.0000    25.0000     0.0018    -0.0023    -0.0009    20.7878    41.4530     2.6593     1.6189     1.6189    -0.2047    14.4503    14.5061    -0.055
    279   -60.6020     34.346    726.000 213301.000     30.000    41.5367     0.0149   -24.9958     0.0002     0.0007    25.0000    10.0000    10.0000    25.0000    25.0000    10.0000    10.0000    25.0000     0.0018    -0.0023    -0.0009    20.7877    41.4530     2.6673     1.6236     1.6235    -0.2094    14.4503    14.5061    -0.055
    280   -60.8016     34.070   1054.000 213301.000     30.000    41.5367     0.0149   -24.9958     0.0002     0.0007    25.0000    10.0000    10.0000    25.0000    25.0000    10.0000    10.0000    25.0000     0.0018    -0.0023    -0.0009    20.7877    41.4530     2.6753     1.6281     1.6281    -0.2140    14.4503    14.5061    -0.055
    281   -60.9982     34.185   1291.000 213301.000     30.000    41.5367     0.0149   -24.9958     0.0002     0.0007    25.0000    10.0000    10.0000    25.0000    25.0000    10.0000    10.0000    25.0000     0.0018    -0.0023    -0.0009    20.7877    41.4530     2.6831     1.6326     1.6326    -0.2186    14.4503    14.5061    -0.055
    282   -61.1987     34.183   1387.000 213301.000     30.000    41.5367     0.0149   -24.9958     0.0002     0.0007    25.0000    10.0000    10.0000    25.0000    25.0000    10.0000    10.0000    25.0000     0.0018    -0.0023    -0.0009    20.7877    41.4530     2.6911     1.6372     1.6372    -0.2234    14.4503    14.5061    -0.055
    283   -61.3982     34.172   1241.000 213301.000     30.000    41.5367     0.0149   -24.9958     0.0002     0.0007    25.0000    10.0000    10.0000    25.0000    25.0000    10.0000    10.0000    25.0000     0.0018    -0.0023    -0.0009    20.7877    41.4530     2.6990     1.6417     1.6417    -0.2281    14.4503    14.5061    -0.055
    284   -61.5996     34.414    995.000 213301.000     30.000    41.5367     0.0149   -24.9958     0.0002     0.0007    25.0000    10.0000    10.0000    25.0000    25.0000    10.0000    10.0000    25.0000     0.0018    -0.0023    -0.0009    20.7877    41.4530     2.7070     1.6463     1.6463    -0.2329    14.4503    14.5061    -0.055
    285   -61.8011     34.296    660.000 213301.000     30.000    41.5367     0.0149   -24.9958     0.0002     0.0007    25.0000    10.0000    10.0000    25.0000    25.0000    10.0000    10.0000    25.0000     0.0018    -0.0023    -0.0009    20.7878    41.4530     2.7150     1.6509     1.6508    -0.2377    14.4503    14.5061    -0.055
    286   -62.0027     34.255    475.000 213301.000     30.000    41.5367     0.0149   -24.9958     0.0002     0.0007    25.0000    10.0000    10.0000    25.0000    25.0000    10.0000    10.0000    25.0000     0.0018    -0.0023    -0.0009    20.7877    41.4530     2.7229     1.6554     1.6554    -0.2425    14.4503    14.5061    -0.055
    287   -62.2013     34.158    361.000 213301.000     30.000    41.5367     0.0149   -24.9958     0.0002     0.0007    25.0000    10.0000    10.0000    25.0000    25.0000    10.0000    10.0000    25.0000     0.0018    -0.0023    -0.0009    20.7877    41.4530     2.7308     1.6599     1.6599    -0.2473    14.4503    14.5061    -0.055
    288   -62.4010     34.258    263.000 213301.000     30.000    41.5367     0.0149   -24.9958     0.0002     0.0007    25.0000    10.0000    10.0000    25.0000    25.0000    10.0000    10.0000    25.0000     0.0018    -0.0023    -0.0009    20.7877    41.4530     2.7387     1.6644     1.6643    -0.2521    14.4503    14.5061    -0.055
    289   -62.6013     34.336    238.000 213301.000     30.000    41.5367     0.0149   -24.9958     0.0002     0.0007    25.0000    10.0000    10.0000    25.0000    25.0000    10.0000    10.0000    25.0000     0.0018    -0.0023    -0.0009    20.7877    41.4530     2.7466     1.6688     1.6688    -0.2570    14.4503    14.5061    -0.055
    290   -62.7988     34.233    229.000 213301.000     30.000    41.5367     0.0149   -24.9958     0.0002     0.0007    25.0000    10.0000    10.0000    25.0000    25.0000    10.0000    10.0000    25.0000     0.0018    -0.0023    -0.0009    20.7877    41.4530     2.7543     1.6733     1.6732    -0.2618    14.4503    14.5061    -0.055
    291   -62.9960     34.219    229.000 213301.000     30.000    41.5367     0.0149   -24.9958     0.0002     0.0007    25.0000    10.0000    10.0000    25.0000    25.0000    10.0000    10.0000    25.0000     0.0018    -0.0023    -0.0009    20.7877    41.4530     2.7621     1.6776     1.6776    -0.2666    14.4503    14.5061    -0.055
    292   -63.1980     34.156    230.000 213301.000     30.000    41.5367     0.0149   -24.9958     0.0002     0.0007    25.0000    10.0000    10.0000    25.0000    25.0000    10.0000    10.0000    25.0000     0.0018    -0.0023    -0.0009    20.7878    41.4530     2.7700     1.6821     1.6821    -0.2716    14.4503    14.5061    -0.055
    293   -63.3979     34.261    253.000 213301.000     30.000    41.5367     0.0149   -24.9958     0.0002     0.0007    25.0000    10.0000    10.0000    25.0000    25.0000    10.0000    10.0000    25.0000     0.0018    -0.0023    -0.0009    20.7877    41.4530     2.7779     1.6866     1.6865    -0.2766    14.4503    14.5061    -0.055
    294   -63.5998     34.299    275.000 213301.000     30.000    41.5367     0.0149   -24.9958     0.0002     0.0007    25.0000    10.0000    10.0000    25.0000    25.0000    10.0000    10.0000    25.0000     0.0018    -0.0023    -0.0009    20.7877    41.4530     2.7858     1.6910     1.6910    -0.2816    14.4503    14.5061    -0.055
    295   -63.8028     34.249    317.000 213301.000     30.000    41.5367     0.0149   -24.9958     0.0002     0.0007    25.0000    10.0000    10.0000    25.0000    25.0000    10.0000    10.0000    25.0000     0.0018    -0.0023    -0.0009    20.7877    41.4530     2.7938     1.6955     1.6955    -0.2866    14.4503    14.5061    -0.055
    296   -64.0032     34.195    332.000 213301.000     30.000    41.5367     0.0149   -24.9958     0.0002     0.0007    25.0000    10.0000    10.0000    25.0000    25.0000    10.0000    10.0000    25.0000     0.0018    -0.0023    -0.0009    20.7877    41.4530     2.8016     1.6999     1.6999    -0.2917    14.4503    14.5061    -0.055
    297   -64.2015     34.248    330.000 213301.000     30.000    41.5367     0.0149   -24.9958     0.0002     0.0007    25.0000    10.0000    10.0000    25.0000    25.0000    10.0000    10.0000    25.0000     0.0018    -0.0023    -0.0010    20.7877    41.4530     2.8094     1.7042     1.7042    -0.2967    14.4503    14.5061    -0.055
    298   -64.3981     34.121    300.000 213301.000     30.000    41.5367     0.0149   -24.9958     0.0002     0.0007    25.0000    10.0000    10.0000    25.0000    25.0000    10.0000    10.0000    25.0000     0.0018    -0.0023    -0.0009    20.7877    41.4530     2.8170     1.7085     1.7085    -0.3016    14.4503    14.5061    -0.055
    299   -64.5980     34.218    299.000 213301.000     30.000    41.5367     0.0149   -24.9958     0.0002     0.0007    25.0000    10.0000    10.0000    25.0000    25.0000    10.0000    10.0000    25.0000     0.0018    -0.0023    -0.0009    20.7877    41.4530     2.8249     1.7129     1.7129    -0.3067    14.4503    14.5061    -0.055
    300   -64.8000     34.062    356.000 213301.000     30.000    41.5367     0.0149   -24.9958     0.0002     0.0007    25.0000    10.0000    10.0000    25.0000    25.0000    10.0000    10.0000    25.0000     0.0018    -0.0023    -0.0009    20.7877    41.4530     2.8327     1.7173     1.7173    -0.3118    14.4503    14.5061    -0.055
    301   -64.9985     34.179    291.000 213301.000     30.000    41.5367     0.0149   -24.9958     0.0002     0.0007    25.0000    10.0000    10.0000    25.0000    25.0000    10.0000    10.0000    25.0000     0.0018    -0.0023    -0.0010    20.7877    41.4530     2.8405     1.7216     1.7216    -0.3169    14.4503    14.5061    -0.055
    302   -65.1988     34.135    236.000 213301.000     30.000    41.5367     0.0149   -24.9958     0.0002     0.0007    25.0000    10.0000    10.0000    25.0000    25.0000    10.0000    10.0000    25.0000     0.0018    -0.0023    -0.0009    20.7877    41.4530     2.8482     1.7259     1.7259    -0.3221    14.4503    14.5061    -0.055
    303   -65.4013     34.080    231.000 213301.000     30.000    41.5367     0.0149   -24.9958     0.0002     0.0007    25.0000    10.0000    10.0000    25.0000    25.0000    10.0000    10.0000    25.0000     0.0018    -0.0023    -0.0009    20.7877    41.4530     2.8561     1.7303     1.7302    -0.3273    14.4503    14.5061    -0.055
    304   -65.6023     34.042    206.000 213301.000     30.000    41.5367     0.0149   -24.9958     0.0002     0.0007    25.0000    10.0000    10.0000    25.0000    25.0000    10.0000    10.0000    25.0000     0.0018    -0.0023    -0.0009    20.7877    41.4530     2.8639     1.7346     1.7346    -0.3325    14.4503    14.5061    -0.055
    305   -65.7996     34.215    212.000 213301.000     30.000    41.5367     0.0149   -24.9958     0.0002     0.0007    25.0000    10.0000    10.0000    25.0000    25.0000    10.0000    10.0000    25.0000     0.0018    -0.0024    -0.0009    20.7877    41.4530     2.8716     1.7388     1.7388    -0.3377    14.4503    14.5061    -0.055
    306   -65.9976     34.142    217.000 213301.000     30.000    41.5367     0.0149   -24.9958     0.0002     0.0007    25.0000    10.0000    10.0000    25.0000    25.0000    10.0000    10.0000    25.0000     0.0018    -0.0023    -0.0009    20.7877    41.4530     2.8792     1.7430     1.7430    -0.3428    14.4503    14.5061    -0.055
    307   -66.1966     34.228    252.000 213301.000     30.000    41.5367     0.0149   -24.9958     0.0002     0.0007    25.0000    10.0000    10.0000    25.0000    25.0000    10.0000    10.0000    25.0000     0.0018    -0.0023    -0.0009    20.7877    41.4530     2.8869     1.7472     1.7472    -0.3481    14.4503    14.5061    -0.055
    308   -66.3986     34.159    244.000 213301.000     30.000    41.5367     0.0149   -24.9958     0.0002     0.0007    25.0000    10.0000    10.0000    25.0000    25.0000    10.0000    10.0000    25.0000     0.0018    -0.0023    -0.0010    20.7877    41.4530     2.8947     1.7515     1.7515    -0.3534    14.4503    14.5061    -0.055
    309   -66.5978     34.170    285.000 213301.000     30.000    41.5367     0.0149   -24.9958     0.0002     0.0007    25.0000    10.0000    10.0000    25.0000    25.0000    10.0000    10.0000    25.0000     0.0018    -0.0023    -0.0009    20.7876    41.4530     2.9024     1.7557     1.7557    -0.3586    14.4503    14.5061    -0.055
    310   -66.7989     34.104    306.000 213301.000     30.000    41.5367     0.0149   -24.9958     0.0002     0.0007    25.0000    10.0000    10.0000    25.0000    25.0000    10.0000    10.0000    25.0000     0.0018    -0.0023    -0.0009    20.7877    41.4530     2.9102     1.7600     1.7600    -0.3640    14.4503    14.5061    -0.055
    311   -67.0010     34.144    306.000 213301.000     30.000    41.5367     0.0149   -24.9958     0.0002     0.0007    25.0000    10.0000    10.0000    25.0000    25.0000    10.0000    10.0000    25.0000     0.0018    -0.0023    -0.0010    20.7877    41.4530     2.9179     1.7642     1.7642    -0.3694    14.4503    14.5061    -0.055
    312   -67.2024     34.293    295.000 213301.000     30.000    41.5367     0.0149   -24.9958     0.0002     0.0007    25.0000    10.0000    10.0000    25.0000    25.0000    10.0000    10.0000    25.0000     0.0018    -0.0023    -0.0009    20.7876    41.4530     2.9257     1.7684     1.7684    -0.3748    14.4503    14.5061    -0.055
    313   -67.4002     34.277    290.000 213301.000     30.000    41.5367     0.0149   -24.9958     0.0002     0.0007    25.0000    10.0000    10.0000    25.0000    25.0000    10.0000    10.0000    25.0000     0.0018    -0.0023    -0.0009    20.7876    41.4530     2.9333     1.7726     1.7726    -0.3801    14.4503    14.5061    -0.055
    314   -67.5977     34.063    254.000 213301.000     30.000    41.5367     0.0149   -24.9958     0.0002     0.0007    25.0000    10.0000    10.0000    25.0000    25.0000    10.0000    10.0000    25.0000     0.0018    -0.0023    -0.0010    20.7876    41.4530     2.9408     1.7767     1.7767    -0.3854    14.4503    14.5061    -0.055
    315   -67.7969     34.225    243.000 213301.000     30.000    41.5367     0.0149   -24.9958     0.0002     0.0007    25.0000    10.0000    10.0000    25.0000    25.0000    10.0000    10.0000    25.0000     0.0018    -0.0023    -0.0009    20.7876    41.4530     2.9485     1.7808     1.7808    -0.3908    14.4503    14.5061    -0.055
    316   -67.9977     34.119    243.000 213301.000     30.000    41.5367     0.0149   -24.9958     0.0002     0.0007    25.0000    10.0000    10.0000    25.0000    25.0000    10.0000    10.0000    25.0000     0.0018    -0.0023    -0.0009    20.7876    41.4530     2.9562     1.7850     1.7849    -0.3963    14.4503    14.5061    -0.055
    317   -68.1991     34.224    230.000 213301.000     30.000    41.5367     0.0149   -24.9958     0.0002     0.0007    25.0000    10.0000    10.0000    25.0000    25.0000    10.0000    10.0000    25.0000     0.0018    -0.0023    -0.0009    20.7876    41.4530     2.9639     1.7891     1.7891    -0.4017    14.4503    14.5061    -0.055
    318   -68.4014     34.161    243.000 213301.000     30.000    41.5367     0.0149   -24.9958     0.0002     0.0007    25.0000    10.0000    10.0000    25.0000    25.0000    10.0000    10.0000    25.0000     0.0018    -0.0023    -0.0009    20.7876    41.4530     2.9716     1.7933     1.7933    -0.4073    14.4503    14.5061    -0.055
    319   -68.6019     34.260    261.000 213301.000     30.000    41.5367     0.0149   -24.9958     0.0002     0.0007    25.0000    10.0000    10.0000    25.0000    25.0000    10.0000    10.0000    25.0000     0.0018    -0.0023    -0.0009    20.7876    41.4530     2.9792     1.7974     1.7974    -0.4128    14.4503    14.5061    -0.055
    320   -68.8038     34.161    250.000 213301.000     30.000    41.5367     0.0149   -24.9958     0.0002     0.0007    25.0000    10.0000    10.0000    25.0000    25.0000    10.0000    10.0000    25.0000     0.0018    -0.0023    -0.0009    20.7876    41.4530     2.9869     1.8015     1.8015    -0.4184    14.4503    14.5061    -0.055
    321   -69.0030     34.162    258.000 213301.000     30.000    41.5367     0.0149   -24.9958     0.0002     0.0007    25.0000    10.0000    10.0000    25.0000    25.0000    10.0000    10.0000    25.0000     0.0018    -0.0023    -0.0009    20.7876    41.4530     2.9945     1.8055     1.8055    -0.4239    14.4503    14.5061    -0.055
    322   -69.1979     34.193    311.000 213301.000     30.000    41.5367     0.0149   -24.9958     0.0002     0.0007    25.0000    10.0000    10.0000    25.0000    25.0000    10.0000    10.0000    25.0000     0.0018    -0.0023    -0.0010    20.7876    41.4530     3.0019     1.8095     1.8095    -0.4293    14.4503    14.5061    -0.055
    323   -69.3993     34.202    338.000 213301.000     30.000    41.5367     0.0149   -24.9958     0.0002     0.0007    25.0000    10.0000    10.0000    25.0000    25.0000    10.0000    10.0000    25.0000     0.0018    -0.0023    -0.0009    20.7876    41.4530     3.0095     1.8136     1.8135    -0.4349    14.4503    14.5061    -0.055
    324   -69.5978     34.156    339.000 213301.000     30.000    41.5367     0.0149   -24.9958     0.0002     0.0007    25.0000    10.0000    10.0000    25.0000    25.0000    10.0000    10.0000    25.0000     0.0018    -0.0023    -0.0009    20.7876    41.4530     3.0171     1.8176     1.8175    -0.4405    14.4503    14.5061    -0.055
    325   -69.7978     34.325    322.000 213301.000     30.000    41.5367     0.0149   -24.9958     0.0002     0.0007    25.0000    10.0000    10.0000    25.0000    25.0000    10.0000    10.0000    25.0000     0.0018    -0.0023    -0.0009    20.7876    41.4530     3.0246     1.8216     1.8216    -0.4461    14.4503    14.5061    -0.055
    326   -69.9982     34.310    383.000 213301.000     30.000    41.5367     0.0149   -24.9958     0.0002     0.0007    25.0000    10.0000    10.0000    25.0000    25.0000    10.0000    10.0000    25.0000     0.0018    -0.0023    -0.0009    20.7875    41.4530     3.0322     1.8256     1.8256    -0.4517    14.4503    14.5061    -0.055
    327   -70.2025     34.254    524.000 213301.000     30.000    41.5367     0.0149   -24.9958     0.0002     0.0007    25.0000    10.0000    10.0000    25.0000    25.0000    10.0000    10.0000    25.0000     0.0018    -0.0023    -0.0009    20.7876    41.4530     3.0399     1.8296     1.8296    -0.4575    14.4503    14.5061    -0.055
    328   -70.4029     34.148    665.000 213301.000     30.000    41.5367     0.0149   -24.9958     0.0002     0.0007    25.0000    10.0000    10.0000    25.0000    25.0000    10.0000    10.0000    25.0000     0.0018    -0.0023    -0.0009    20.7876    41.4530     3.0475     1.8336     1.8336    -0.4632    14.4503    14.5061    -0.055
    329   -70.6031     34.147    917.000 213301.000     30.000    41.5367     0.0149   -24.9958     0.0002     0.0007    25.0000    10.0000    10.0000    25.0000    25.0000    10.0000    10.0000    25.0000     0.0018    -0.0023    -0.0009    20.7876    41.4530     3.0550     1.8376     1.8376    -0.4689    14.4503    14.5061    -0.055
    330   -70.8019     34.216   1452.000 213301.000     30.000    41.5367     0.0149   -24.9958     0.0002     0.0007    25.0000    10.0000    10.0000    25.0000    25.0000    10.0000    10.0000    25.0000     0.0018    -0.0023    -0.0009    20.7876    41.4530     3.0625     1.8415     1.8415    -0.4746    14.4503    14.5061    -0.055
    331   -70.9991     34.291   3341.000 213301.000     30.000    41.5367     0.0149   -24.9958     0.0002     0.0007    25.0000    10.0000    10.0000    25.0000    25.0000    10.0000    10.0000    25.0000     0.0018    -0.0023    -0.0009    20.7876    41.4530     3.0699     1.8454     1.8454    -0.4802    14.4503    14.5061    -0.055
    332   -71.2007     34.157   6484.000 213301.000     30.000    41.5367     0.0149   -24.9958     0.0002     0.0007    25.0000    10.0000    10.0000    25.0000    25.0000    10.0000    10.0000    25.0000     0.0018    -0.0023    -0.0009    20.7875    41.4530     3.0775     1.8493     1.8493    -0.4860    14.4503    14.5061    -0.055
    333   -71.4005     34.117  10737.000 213301.000     30.000    41.5367     0.0149   -24.9958     0.0002     0.0007    25.0000    10.0000    10.0000    25.0000    25.0000    10.0000    10.0000    25.0000     0.0018    -0.0023    -0.0010    20.7876    41.4530     3.0850     1.8532     1.8532    -0.4918    14.4503    14.5061    -0.055
    334   -71.6004     34.051  14800.000 213301.000     30.000    41.5367     0.0149   -24.9958     0.0002     0.0007    25.0000    10.0000    10.0000    25.0000    25.0000    10.0000    10.0000    25.0000     0.0018    -0.0023    -0.0009    20.7876    41.4530     3.0925     1.8571     1.8571    -0.4976    14.4503    14.5061    -0.055
    335   -71.8006     34.134  17320.000 213301.000     30.000    41.5367     0.0149   -24.9958     0.0002     0.0007    25.0000    10.0000    10.0000    25.0000    25.0000    10.0000    10.0000    25.0000     0.0018    -0.0023    -0.0009    20.7876    41.4530     3.1000     1.8610     1.8610    -0.5034    14.4503    14.5061    -0.055
    336   -72.0020     34.197  17745.000 213301.000     30.000    41.5367     0.0149   -24.9958     0.0002     0.0007    25.0000    10.0000    10.0000    25.0000    25.0000    10.0000    10.0000    25.0000     0.0018    -0.0023    -0.0010    20.7876    41.4530     3.1075     1.8649     1.8648    -0.5093    14.4503    14.5061    -0.055
    337   -72.2033     34.187  15752.000 213301.000     30.000    41.5367     0.0149   -24.9958     0.0002     0.0007    25.0000    10.0000    10.0000    25.0000    25.0000    10.0000    10.0000    25.0000     0.0018    -0.0023    -0.0009    20.7876    41.4530     3.1150     1.8687     1.8687    -0.5151    14.4503    14.5061    -0.055
    338   -72.3995     34.191  12876.000 213301.000     30.000    41.5367     0.0149   -24.9958     0.0002     0.0007    25.0000    10.0000    10.0000    25.0000    25.0000    10.0000    10.0000    25.0000     0.0018    -0.0023    -0.0009    20.7875    41.4530     3.1223     1.8725     1.8725    -0.5209    14.4503    14.5061    -0.055
    339   -72.5985     34.081   9441.000 213301.000     30.000    41.5367     0.0149   -24.9958     0.0002     0.0007    25.0000    10.0000    10.0000    25.0000    25.0000    10.0000    10.0000    25.0000     0.0018    -0.0023    -0.0009    20.7875    41.4530     3.1297     1.8763     1.8763    -0.5268    14.4503    14.5061    -0.055
    340   -72.7978     34.115   6072.000 213301.000     30.000    41.5367     0.0149   -24.9958     0.0002     0.0007    25.0000    10.0000    10.0000    25.0000    25.0000    10.0000    10.0000    25.0000     0.0018    -0.0023    -0.0009    20.7875    41.4530     3.1371     1.8801     1.8800    -0.5326    14.4503    14.5061    -0.055
    341   -72.9988     34.015   3360.000 213301.000     30.000    41.5367     0.0149   -24.9958     0.0002     0.0007    25.0000    10.0000    10.0000    25.0000    25.0000    10.0000    10.0000    25.0000     0.0018    -0.0023    -0.0009    20.7875    41.4530     3.1446     1.8839     1.8838    -0.5386    14.4503    14.5061    -0.055
    342   -73.1980     34.067   1516.000 213301.000     30.000    41.5367     0.0149   -24.9958     0.0002     0.0007    25.0000    10.0000    10.0000    25.0000    25.0000    10.0000    10.0000    25.0000     0.0018    -0.0023    -0.0009    20.7875    41.4530     3.1519     1.8876     1.8876    -0.5445    14.4503    14.5061    -0.055
    343   -73.3998     34.057    773.000 213301.000     30.000    41.5367     0.0149   -24.9958     0.0002     0.0007    25.0000    10.0000    10.0000    25.0000    25.0000    10.0000    10.0000    25.0000     0.0018    -0.0023    -0.0009    20.7876    41.4530     3.1594     1.8914     1.8914    -0.5505    14.4503    14.5061    -0.055
    344   -73.6011     34.203    489.000 213301.000     30.000    41.5367     0.0149   -24.9958     0.0002     0.0007    25.0000    10.0000    10.0000    25.0000    25.0000    10.0000    10.0000    25.0000     0.0018    -0.0023    -0.0009    20.7876    41.4530     3.1669     1.8952     1.8952    -0.5565    14.4503    14.5061    -0.055
    345   -73.8026     34.297    391.000 213301.000     30.000    41.5367     0.0149   -24.9958     0.0002     0.0007    25.0000    10.0000    10.0000    25.0000    25.0000    10.0000    10.0000    25.0000     0.0018    -0.0023    -0.0009    20.7876    41.4530     3.1743     1.8989     1.8989    -0.5626    14.4503    14.5061    -0.055
    346   -74.0000     34.102    354.000 213301.000     30.000    41.5367     0.0149   -24.9958     0.0002     0.0007    25.0000    10.0000    10.0000    25.0000    25.0000    10.0000    10.0000    25.0000     0.0018    -0.0023    -0.0009    20.7876    41.4530     3.1816     1.9026     1.9026    -0.5685    14.4503    14.5061    -0.055
    347   -74.1980     34.069    329.000 213301.000     30.000    41.5367     0.0149   -24.9958     0.0002     0.0007    25.0000    10.0000    10.0000    25.0000    25.0000    10.0000    10.0000    25.0000     0.0018    -0.0023    -0.0009    20.7876    41.4530     3.1889     1.9062     1.9062    -0.5745    14.4503    14.5061    -0.055
    348   -74.3966     34.116    341.000 213301.000     30.000    41.5367     0.0149   -24.9958     0.0002     0.0007    25.0000    10.0000    10.0000    25.0000    25.0000    10.0000    10.0000    25.0000     0.0018    -0.0023    -0.0009    20.7876    41.4530     3.1962     1.9099     1.9099    -0.5805    14.4503    14.5061    -0.055
    349   -74.5984     34.182    315.000 213301.000     30.000    41.5367     0.0149   -24.9958     0.0002     0.0007    25.0000    10.0000    10.0000    25.0000    25.0000    10.0000    10.0000    25.0000     0.0018    -0.0023    -0.0009    20.7876    41.4530     3.2036     1.9136     1.9136    -0.5866    14.4503    14.5061    -0.055
    350   -74.7992     34.309    346.000 213301.000     30.000    41.5367     0.0149   -24.9958     0.0002     0.0007    25.0000    10.0000    10.0000    25.0000    25.0000    10.0000    10.0000    25.0000     0.0018    -0.0023    -0.0009    20.7876    41.4530     3.2109     1.9173     1.9172    -0.5927    14.4503    14.5061    -0.055
    351   -75.0023     34.292    452.000 213301.000     30.000    41.5367     0.0149   -24.9958     0.0002     0.0007    25.0000    10.0000    10.0000    25.0000    25.0000    10.0000    10.0000    25.0000     0.0018    -0.0023    -0.0009    20.7875    41.4530     3.2184     1.9210     1.9209    -0.5990    14.4503    14.5061    -0.055
    352   -75.2034     34.159    980.000 213301.000     30.000    41.5367     0.0149   -24.9958     0.0002     0.0007    25.0000    10.0000    10.0000    25.0000    25.0000    10.0000    10.0000    25.0000     0.0018    -0.0023    -0.0010    20.7876    41.4530     3.2257     1.9246     1.9246    -0.6051    14.4503    14.5061    -0.055
    353   -75.4007     34.162   2858.000 213301.000     30.000    41.5367     0.0149   -24.9958     0.0002     0.0007    25.0000    10.0000    10.0000    25.0000    25.0000    10.0000    10.0000    25.0000     0.0018    -0.0023    -0.0010    20.7876    41.4530     3.2329     1.9282     1.9281    -0.6112    14.4503    14.5061    -0.055
    354   -75.6019     34.150   7139.000 213301.000     30.000    41.5367     0.0149   -24.9958     0.0002     0.0007    25.0000    10.0000    10.0000    25.0000    25.0000    10.0000    10.0000    25.0000     0.0018    -0.0023    -0.0009    20.7876    41.4530     3.2403     1.9318     1.9317    -0.6174    14.4503    14.5061    -0.055
    355   -75.8004     34.147  14229.000 213301.000     30.000    41.5367     0.0149   -24.9958     0.0002     0.0007    25.0000    10.0000    10.0000    25.0000    25.0000    10.0000    10.0000    25.0000     0.0018    -0.0023    -0.0009    20.7876    41.4530     3.2475     1.9353     1.9353    -0.6235    14.4503    14.5061    -0.055
    356   -75.9964     34.134  22226.000 213301.000     30.000    41.5367     0.0149   -24.9958     0.0002     0.0007    25.0000    10.0000    10.0000    25.0000    25.0000    10.0000    10.0000    25.0000     0.0018    -0.0023    -0.0009    20.7876    41.4530     3.2546     1.9388     1.9388    -0.6296    14.4503    14.5061    -0.055
    357   -76.1972     34.295  29543.000 213301.000     30.000    41.5367     0.0149   -24.9958     0.0002     0.0007    25.0000    10.0000    10.0000    25.0000    25.0000    10.0000    10.0000    25.0000     0.0018    -0.0023    -0.0009    20.7876    41.4530     3.2619     1.9424     1.9423    -0.6358    14.4503    14.5061    -0.055
    358   -76.3995     34.185  35276.000 213301.000     30.000    41.5367     0.0149   -24.9958     0.0002     0.0007    25.0000    10.0000    10.0000    25.0000    25.0000    10.0000    10.0000    25.0000     0.0018    -0.0023    -0.0009    20.7875    41.4530     3.2693     1.9459     1.9459    -0.6421    14.4503    14.5061    -0.055
    359   -76.5985     33.950  36626.000 213301.000     30.000    41.5367     0.0149   -24.9958     0.0002     0.0007    25.0000    10.0000    10.0000    25.0000    25.0000    10.0000    10.0000    25.0000     0.0018    -0.0023    -0.0009    20.7875    41.4530     3.2765     1.9494     1.9494    -0.6483    14.4503    14.5061    -0.055
    360   -76.7991     33.985  33801.000 213301.000     30.000    41.5367     0.0149   -24.9958     0.0002     0.0007    25.0000    10.0000    10.0000    25.0000    25.0000    10.0000    10.0000    25.0000     0.0018    -0.0023    -0.0009    20.7875    41.4530     3.2837     1.9529     1.9529    -0.6546    14.4503    14.5061    -0.055
    361   -76.9988     34.021  28926.000 213301.000     30.000    41.5367     0.0149   -24.9958     0.0002     0.0007    25.0000    10.0000    10.0000    25.0000    25.0000    10.0000    10.0000    25.0000     0.0018    -0.0023    -0.0009    20.7875    41.4530     3.2910     1.9564     1.9564    -0.6609    14.4503    14.5061    -0.055
    362   -77.1996     34.128  22232.000 213301.000     30.000    41.5367     0.0149   -24.9958     0.0002     0.0007    25.0000    10.0000    10.0000    25.0000    25.0000    10.0000    10.0000    25.0000     0.0018    -0.0023    -0.0009    20.7875    41.4530     3.2982     1.9599     1.9599    -0.6672    14.4503    14.5061    -0.055
    363   -77.3993     34.233  15964.000 213301.000     30.000    41.5367     0.0149   -24.9958     0.0002     0.0007    25.0000    10.0000    10.0000    25.0000    25.0000    10.0000    10.0000    25.0000     0.0018    -0.0023    -0.0009    20.7876    41.4530     3.3054     1.9633     1.9633    -0.6735    14.4503    14.5061    -0.055
    364   -77.5979     34.118   9390.000 213301.000     30.000    41.5367     0.0149   -24.9958     0.0002     0.0007    25.0000    10.0000    10.0000    25.0000    25.0000    10.0000    10.0000    25.0000     0.0018    -0.0023    -0.0009    20.7875    41.4530     3.3126     1.9668     1.9667    -0.6798    14.4503    14.5061    -0.055
    365   -77.8015     34.241   4615.000 213301.000     30.000    41.5367     0.0149   -24.9958     0.0002     0.0007    25.0000    10.0000    10.0000    25.0000    25.0000    10.0000    10.0000    25.0000     0.0018    -0.0023    -0.0009    20.7875    41.4530     3.3199     1.9702     1.9702    -0.6863    14.4503    14.5061    -0.055
    366   -77.9994     34.065   1856.000 213301.000     30.000    41.5367     0.0149   -24.9958     0.0002     0.0007    25.0000    10.0000    10.0000    25.0000    25.0000    10.0000    10.0000    25.0000     0.0018    -0.0023    -0.0009    20.7875    41.4530     3.3270     1.9736     1.9736    -0.6926    14.4503    14.5061    -0.055
    367   -78.1986     34.239    790.000 213301.000     30.000    41.5367     0.0149   -24.9958     0.0002     0.0007    25.0000    10.0000    10.0000    25.0000    25.0000    10.0000    10.0000    25.0000     0.0018    -0.0023    -0.0009    20.7875    41.4530     3.3341     1.9770     1.9770    -0.6989    14.4503    14.5061    -0.055
    368   -78.4006     34.128    444.000 213301.000     30.000    41.5367     0.0149   -24.9958     0.0002     0.0007    25.0000    10.0000    10.0000    25.0000    25.0000    10.0000    10.0000    25.0000     0.0018    -0.0023    -0.0009    20.7875    41.4530     3.3413     1.9804     1.9804    -0.7054    14.4503    14.5061    -0.055
    369   -78.6043     34.318    350.000 213301.000     30.000    41.5367     0.0149   -24.9958     0.0002     0.0007    25.0000    10.0000    10.0000    25.0000    25.0000    10.0000    10.0000    25.0000     0.0018    -0.0023    -0.0009    20.7875    41.4530     3.3486     1.9838     1.9838    -0.7119    14.4503    14.5061    -0.055
    370   -78.8008     34.079    297.000 213301.000     30.000    41.5367     0.0149   -24.9958     0.0002     0.0007    25.0000    10.0000    10.0000    25.0000    25.0000    10.0000    10.0000    25.0000     0.0018    -0.0023    -0.0009    20.7875    41.4530     3.3556     1.9871     1.9871    -0.7183    14.4503    14.5061    -0.055
    371   -78.9983     34.236    329.000 213301.000     30.000    41.5367     0.0149   -24.9958     0.0002     0.0007    25.0000    10.0000    10.0000    25.0000    25.0000    10.0000    10.0000    25.0000     0.0018    -0.0023    -0.0009    20.7875    41.4530     3.3627     1.9904     1.9904    -0.7246    14.4503    14.5061    -0.055
    372   -79.1973     34.135    335.000 213301.000     30.000    41.5367     0.0149   -24.9958     0.0002     0.0007    25.0000    10.0000    10.0000    25.0000    25.0000    10.0000    10.0000    25.0000     0.0018    -0.0023    -0.0010    20.7875    41.4530     3.3697     1.9937     1.9936    -0.7311    14.4503    14.5061    -0.055
    373   -79.3995     34.078    353.000 213301.000     30.000    41.5367     0.0149   -24.9958     0.0002     0.0007    25.0000    10.0000    10.0000    25.0000    25.0000    10.0000    10.0000    25.0000     0.0018    -0.0023    -0.0009    20.7875    41.4530     3.3769     1.9970     1.9970    -0.7376    14.4503    14.5061    -0.055
    374   -79.5985     34.187    313.000 213301.000     30.000    41.5367     0.0149   -24.9958     0.0002     0.0007    25.0000    10.0000    10.0000    25.0000    25.0000    10.0000    10.0000    25.0000     0.0018    -0.0023    -0.0009    20.7875    41.4530     3.3840     2.0003     2.0002    -0.7441    14.4503    14.5061    -0.055
    375   -79.7993     34.170    253.000 213301.000     30.000    41.5367     0.0149   -24.9958     0.0002     0.0007    25.0000    10.0000    10.0000    25.0000    25.0000    10.0000    10.0000    25.0000     0.0018    -0.0023    -0.0009    20.7874    41.4530     3.3911     2.0035     2.0035    -0.7506    14.4503    14.5061    -0.055
    376   -79.9986     34.058    202.000 213301.000     30.000    41.5367     0.0149   -24.9958     0.0002     0.0007    25.0000    10.0000    10.0000    25.0000    25.0000    10.0000    10.0000    25.0000     0.0018    -0.0023    -0.0009    20.7874    41.4530     3.3981     2.0068     2.0067    -0.7571    14.4503    14.5061    -0.055
    377   -80.2025     34.209    212.000 213301.000     30.000    41.5367     0.0149   -24.9958     0.0002     0.0007    25.0000    10.0000    10.0000    25.0000    25.0000    10.0000    10.0000    25.0000     0.0018    -0.0023    -0.0009    20.7875    41.4530     3.4053     2.0101     2.0100    -0.7638    14.4503    14.5061    -0.055
    378   -80.4018     34.024    230.000 213301.000     30.000    41.5367     0.0149   -24.9958     0.0002     0.0007    25.0000    10.0000    10.0000    25.0000    25.0000    10.0000    10.0000    25.0000     0.0018    -0.0023    -0.0009    20.7876    41.4530     3.4124     2.0133     2.0132    -0.7703    14.4503    14.5061    -0.055
    379   -80.5966     34.004    226.000 213301.000     30.000    41.5367     0.0149   -24.9958     0.0002     0.0007    25.0000    10.0000    10.0000    25.0000    25.0000    10.0000    10.0000    25.0000     0.0018    -0.0023    -0.0009    20.7875    41.4530     3.4192     2.0164     2.0164    -0.7768    14.4503    14.5061    -0.055
    380   -80.7968     34.023    213.000 213301.000     30.000    41.5367     0.0149   -24.9958     0.0002     0.0007    25.0000    10.0000    10.0000    25.0000    25.0000    10.0000    10.0000    25.0000     0.0018    -0.0023    -0.0009    20.7875    41.4530     3.4263     2.0196     2.0195    -0.7834    14.4503    14.5061    -0.055
    381   -80.9981     34.112    208.000 213301.000     30.000    41.5367     0.0149   -24.9958     0.0002     0.0007    25.0000    10.0000    10.0000    25.0000    25.0000    10.0000    10.0000    25.0000     0.0018    -0.0023    -0.0009    20.7875    41.4530     3.4333     2.0228     2.0227    -0.7900    14.4503    14.5061    -0.055
    382   -81.1983     34.111    225.000 213301.000     30.000    41.5367     0.0149   -24.9958     0.0002     0.0007    25.0000    10.0000    10.0000    25.0000    25.0000    10.0000    10.0000    25.0000     0.0018    -0.0023    -0.0009    20.7875    41.4530     3.4403     2.0259     2.0259    -0.7966    14.4503    14.5061    -0.055
    383   -81.3984     34.128    177.000 213301.000     30.000    41.5367     0.0149   -24.9958     0.0002     0.0007    25.0000    10.0000    10.0000    25.0000    25.0000    10.0000    10.0000    25.0000     0.0018    -0.0023    -0.0010    20.7876    41.4530     3.4474     2.0290     2.0290    -0.8033    14.4503    14.5061    -0.055
    384   -81.6039     34.072    213.000 213301.000     30.000    41.5367     0.0149   -24.9958     0.0002     0.0007    25.0000    10.0000    10.0000    25.0000    25.0000    10.0000    10.0000    25.0000     0.0018    -0.0023    -0.0010    20.7875    41.4530     3.4545     2.0322     2.0322    -0.8101    14.4503    14.5061    -0.055
    385   -81.8030     34.010    213.000 213301.000     30.000    41.5367     0.0149   -24.9958     0.0002     0.0007    25.0000    10.0000    10.0000    25.0000    25.0000    10.0000    10.0000    25.0000     0.0018    -0.0023    -0.0010    20.7875    41.4530     3.4615     2.0353     2.0353    -0.8168    14.4503    14.5061    -0.055
    386   -82.0045     34.033    176.000 213301.000     30.000    41.5367     0.0149   -24.9958     0.0002     0.0007    25.0000    10.0000    10.0000    25.0000    25.0000    10.0000    10.0000    25.0000     0.0018    -0.0023    -0.0009    20.7875    41.4530     3.4685     2.0384     2.0384    -0.8235    14.4503    14.5061    -0.055
    387   -82.1995     34.159    190.000 213301.000     30.000    41.5367     0.0149   -24.9958     0.0002     0.0007    25.0000    10.0000    10.0000    25.0000    25.0000    10.0000    10.0000    25.0000     0.0018    -0.0023    -0.0009    20.7874    41.4530     3.4753     2.0414     2.0414    -0.8300    14.4503    14.5061    -0.055
    388   -82.3985     34.060    187.000 213301.000     30.000    41.5367     0.0149   -24.9958     0.0002     0.0007    25.0000    10.0000    10.0000    25.0000    25.0000    10.0000    10.0000    25.0000     0.0018    -0.0023    -0.0009    20.7874    41.4530     3.4822     2.0444     2.0444    -0.8367    14.4503    14.5061    -0.055
    389   -82.5965     34.030    222.000 213301.000     30.000    41.5367     0.0149   -24.9958     0.0002     0.0007    25.0000    10.0000    10.0000    25.0000    25.0000    10.0000    10.0000    25.0000     0.0018    -0.0023    -0.0009    20.7874    41.4530     3.4891     2.0475     2.0474    -0.8434    14.4503    14.5061    -0.055
    390   -82.7994     34.091    209.000 213301.000     30.000    41.5367     0.0149   -24.9958     0.0002     0.0007    25.0000    10.0000    10.0000    25.0000    25.0000    10.0000    10.0000    25.0000     0.0018    -0.0023    -0.0009    20.7876    41.4530     3.4961     2.0505     2.0505    -0.8502    14.4503    14.5061    -0.055
    391   -82.9995     34.165    196.000 213301.000     30.000    41.5367     0.0149   -24.9958     0.0002     0.0007    25.0000    10.0000    10.0000    25.0000    25.0000    10.0000    10.0000    25.0000     0.0018    -0.0023    -0.0009    20.7874    41.4530     3.5030     2.0535     2.0535    -0.8570    14.4503    14.5061    -0.055
    392   -83.1992     34.143    198.000 213301.000     30.000    41.5367     0.0149   -24.9958     0.0002     0.0007    25.0000    10.0000    10.0000    25.0000    25.0000    10.0000    10.0000    25.0000     0.0018    -0.0023    -0.0009    20.7875    41.4530     3.5099     2.0565     2.0565    -0.8638    14.4503    14.5061    -0.055
    393   -83.4042     34.128    185.000 213301.000     30.000    41.5367     0.0149   -24.9958     0.0002     0.0007    25.0000    10.0000    10.0000    25.0000    25.0000    10.0000    10.0000    25.0000     0.0018    -0.0023    -0.0009    20.7875    41.4530     3.5170     2.0595     2.0595    -0.8707    14.4503    14.5061    -0.055
    394   -83.6022     33.951    197.000 213301.000     30.000    41.5367     0.0149   -24.9958     0.0002     0.0007    25.0000    10.0000    10.0000    25.0000    25.0000    10.0000    10.0000    25.0000     0.0018    -0.0023    -0.0010    20.7875    41.4530     3.5238     2.0625     2.0624    -0.8775    14.4503    14.5061    -0.055
    395   -83.8028     34.213    178.000 213301.000     30.000    41.5367     0.0149   -24.9958     0.0002     0.0007    25.0000    10.0000    10.0000    25.0000    25.0000    10.0000    10.0000    25.0000     0.0018    -0.0023    -0.0009    20.7875    41.4530     3.5307     2.0654     2.0654    -0.8843    14.4503    14.5061    -0.055
    396   -83.9995     34.108    157.000 213301.000     30.000    41.5367     0.0149   -24.9958     0.0002     0.0007    25.0000    10.0000    10.0000    25.0000    25.0000    10.0000    10.0000    25.0000     0.0018    -0.0023    -0.0009    20.7875    41.4530     3.5374     2.0683     2.0682    -0.8910    14.4503    14.5061    -0.055
    397   -84.1974     34.067    178.000 213301.000     30.000    41.5367     0.0149   -24.9958     0.0002     0.0007    25.0000    10.0000    10.0000    25.0000    25.0000    10.0000    10.0000    25.0000     0.0018    -0.0023    -0.0010    20.7874    41.4530     3.5442     2.0711     2.0711    -0.8978    14.4503    14.5061    -0.055
    398   -84.3999     34.054    174.000 213301.000     30.000    41.5367     0.0149   -24.9958     0.0002     0.0007    25.0000    10.0000    10.0000    25.0000    25.0000    10.0000    10.0000    25.0000     0.0018    -0.0023    -0.0009    20.7874    41.4530     3.5511     2.0740     2.0740    -0.9048    14.4503    14.5061    -0.055
    399   -84.5980     34.091    202.000 213301.000     30.000    41.5367     0.0149   -24.9958     0.0002     0.0007    25.0000    10.0000    10.0000    25.0000    25.0000    10.0000    10.0000    25.0000     0.0018    -0.0023    -0.0009    20.7874    41.4530     3.5579     2.0769     2.0769    -0.9116    14.4503    14.5061    -0.055
    400   -84.7981     34.014    159.000 213301.000     30.000    41.5367     0.0149   -24.9958     0.0002     0.0007    25.0000    10.0000    10.0000    25.0000    25.0000    10.0000    10.0000    25.0000     0.0018    -0.0023    -0.0009    20.7875    41.4530     3.5647     2.0797     2.0797    -0.9185    14.4503    14.5061    -0.055
    401   -85.0034     34.182    179.000 213301.000     30.000    41.5367     0.0149   -24.9958     0.0002     0.0007    25.0000    10.0000    10.0000    25.0000    25.0000    10.0000    10.0000    25.0000     0.0018    -0.0023    -0.0010    20.7875    41.4530     3.5717     2.0826     2.0826    -0.9256    14.4503    14.5061    -0.055
    402   -85.2029     34.209    164.000 213301.000     30.000    41.5367     0.0149   -24.9958     0.0002     0.0007    25.0000    10.0000    10.0000    25.0000    25.0000    10.0000    10.0000    25.0000     0.0018    -0.0023    -0.0009    20.7875    41.4530     3.5785     2.0854     2.0854    -0.9325    14.4503    14.5061    -0.055
    403   -85.3999     33.953    169.000 213301.000     30.000    41.5367     0.0149   -24.9958     0.0002     0.0007    25.0000    10.0000    10.0000    25.0000    25.0000    10.0000    10.0000    25.0000     0.0018    -0.0023    -0.0009    20.7874    41.4530     3.5852     2.0882     2.0882    -0.9393    14.4503    14.5061    -0.055
    404   -85.5995     34.152    183.000 213301.000     30.000    41.5367     0.0149   -24.9958     0.0002     0.0007    25.0000    10.0000    10.0000    25.0000    25.0000    10.0000    10.0000    25.0000     0.0018    -0.0023    -0.0009    20.7874    41.4530     3.5919     2.0910     2.0909    -0.9462    14.4503    14.5061    -0.055
    405   -85.7998     34.020    171.000 213301.000     30.000    41.5367     0.0149   -24.9958     0.0002     0.0007    25.0000    10.0000    10.0000    25.0000    25.0000    10.0000    10.0000    25.0000     0.0018    -0.0023    -0.0009    20.7875    41.4530     3.5987     2.0937     2.0937    -0.9532    14.4503    14.5061    -0.055
    406   -85.9985     34.171    159.000 213301.000     30.000    41.5367     0.0149   -24.9958     0.0002     0.0007    25.0000    10.0000    10.0000    25.0000    25.0000    10.0000    10.0000    25.0000     0.0018    -0.0023    -0.0009    20.7874    41.4530     3.6054     2.0965     2.0964    -0.9601    14.4503    14.5061    -0.055
    407   -86.1993     34.152    160.000 213301.000     30.000    41.5367     0.0149   -24.9958     0.0002     0.0007    25.0000    10.0000    10.0000    25.0000    25.0000    10.0000    10.0000    25.0000     0.0018    -0.0023    -0.0009    20.7874    41.4530     3.6122     2.0992     2.0992    -0.9672    14.4503    14.5061    -0.055
    408   -86.3979     34.020    177.000 213301.000     30.000    41.5367     0.0149   -24.9958     0.0002     0.0007    25.0000    10.0000    10.0000    25.0000    25.0000    10.0000    10.0000    25.0000     0.0018    -0.0023    -0.0009    20.7874    41.4530     3.6189     2.1019     2.1019    -0.9741    14.4503    14.5061    -0.055
    409   -86.6024     34.059    170.000 213301.000     30.000    41.5367     0.0149   -24.9958     0.0002     0.0007    25.0000    10.0000    10.0000    25.0000    25.0000    10.0000    10.0000    25.0000     0.0018    -0.0023    -0.0009    20.7874    41.4530     3.6257     2.1047     2.1046    -0.9813    14.4503    14.5061    -0.055
    410   -86.8005     34.019    152.000 213301.000     30.000    41.5367     0.0149   -24.9958     0.0002     0.0007    25.0000    10.0000    10.0000    25.0000    25.0000    10.0000    10.0000    25.0000     0.0018    -0.0023    -0.0010    20.7874    41.4530     3.6324     2.1073     2.1073    -0.9883    14.4503    14.5061    -0.055
    411   -87.0026     34.045    155.000 213301.000     30.000    41.5367     0.0149   -24.9958     0.0002     0.0007    25.0000    10.0000    10.0000    25.0000    25.0000    10.0000    10.0000    25.0000     0.0018    -0.0023    -0.0009    20.7874    41.4530     3.6392     2.1100     2.1100    -0.9954    14.4503    14.5061    -0.055
    412   -87.1972     34.024    162.000 213301.000     30.000    41.5367     0.0149   -24.9958     0.0002     0.0007    25.0000    10.0000    10.0000    25.0000    25.0000    10.0000    10.0000    25.0000     0.0018    -0.0023    -0.0009    20.7874    41.4530     3.6457     2.1126     2.1125    -1.0022    14.4503    14.5061    -0.055
    413   -87.3962     33.984    176.000 213301.000     30.000    41.5367     0.0149   -24.9958     0.0002     0.0007    25.0000    10.0000    10.0000    25.0000    25.0000    10.0000    10.0000    25.0000     0.0018    -0.0023    -0.0009    20.7874    41.4530     3.6523     2.1152     2.1151    -1.0093    14.4503    14.5061    -0.055
    414   -87.5981     33.988    166.000 213301.000     30.000    41.5367     0.0149   -24.9958     0.0002     0.0007    25.0000    10.0000    10.0000    25.0000    25.0000    10.0000    10.0000    25.0000     0.0018    -0.0023    -0.0009    20.7874    41.4530     3.6590     2.1178     2.1178    -1.0164    14.4503    14.5061    -0.055
    415   -87.7996     34.021    165.000 213301.000     30.000    41.5367     0.0149   -24.9958     0.0002     0.0007    25.0000    10.0000    10.0000    25.0000    25.0000    10.0000    10.0000    25.0000     0.0018    -0.0023    -0.0010    20.7874    41.4531     3.6657     2.1204     2.1204    -1.0236    14.4503    14.5061    -0.055
    416   -88.0011     34.077    166.000 213301.000     30.000    41.5367     0.0149   -24.9958     0.0002     0.0007    25.0000    10.0000    10.0000    25.0000    25.0000    10.0000    10.0000    25.0000     0.0018    -0.0023    -0.0009    20.7874    41.4531     3.6724     2.1230     2.1230    -1.0307    14.4503    14.5061    -0.055
    417   -88.2021     34.112    170.000 213301.000     30.000    41.5367     0.0149   -24.9958     0.0002     0.0007    25.0000    10.0000    10.0000    25.0000    25.0000    10.0000    10.0000    25.0000     0.0018    -0.0023    -0.0010    20.7874    41.4530     3.6791     2.1256     2.1255    -1.0379    14.4503    14.5061    -0.055
    418   -88.4006     34.054    169.000 213301.000     30.000    41.5367     0.0149   -24.9958     0.0002     0.0007    25.0000    10.0000    10.0000    25.0000    25.0000    10.0000    10.0000    25.0000     0.0018    -0.0023    -0.0010    20.7874    41.4530     3.6857     2.1281     2.1280    -1.0450    14.4503    14.5061    -0.055
    419   -88.6024     34.102    154.000 213301.000     30.000    41.5367     0.0149   -24.9958     0.0002     0.0007    25.0000    10.0000    10.0000    25.0000    25.0000    10.0000    10.0000    25.0000     0.0018    -0.0023    -0.0009    20.7875    41.4530     3.6923     2.1306     2.1306    -1.0522    14.4503    14.5061    -0.055
    420   -88.8001     34.027    190.000 213301.000     30.000    41.5367     0.0149   -24.9958     0.0002     0.0007    25.0000    10.0000    10.0000    25.0000    25.0000    10.0000    10.0000    25.0000     0.0018    -0.0023    -0.0010    20.7874    41.4531     3.6989     2.1331     2.1331    -1.0592    14.4503    14.5061    -0.055
    421   -88.9983     33.976    171.000 213301.000     30.000    41.5367     0.0149   -24.9958     0.0002     0.0007    25.0000    10.0000    10.0000    25.0000    25.0000    10.0000    10.0000    25.0000     0.0018    -0.0023    -0.0009    20.7874    41.4530     3.7054     2.1356     2.1355    -1.0663    14.4503    14.5061    -0.055
    422   -89.2001     33.987    195.000 213301.000     30.000    41.5367     0.0149   -24.9958     0.0002     0.0007    25.0000    10.0000    10.0000    25.0000    25.0000    10.0000    10.0000    25.0000     0.0018    -0.0023    -0.0009    20.7874    41.4531     3.7120     2.1380     2.1380    -1.0736    14.4503    14.5061    -0.055
    423   -89.3992     34.098    191.000 213301.000     30.000    41.5367     0.0149   -24.9958     0.0002     0.0007    25.0000    10.0000    10.0000    25.0000    25.0000    10.0000    10.0000    25.0000     0.0018    -0.0023    -0.0009    20.7874    41.4530     3.7186     2.1405     2.1404    -1.0807    14.4503    14.5061    -0.055
    424   -89.5986     34.141    171.000 213301.000     30.000    41.5367     0.0149   -24.9958     0.0002     0.0007    25.0000    10.0000    10.0000    25.0000    25.0000    10.0000    10.0000    25.0000     0.0018    -0.0023    -0.0010    20.7875    41.4530     3.7251     2.1429     2.1429    -1.0879    14.4503    14.5061    -0.055
    425   -89.7983     34.097    175.000 213301.000     30.000    41.5367     0.0149   -24.9958     0.0002     0.0007    25.0000    10.0000    10.0000    25.0000    25.0000    10.0000    10.0000    25.0000     0.0018    -0.0023    -0.0009    20.7875    41.4530     3.7316     2.1453     2.1453    -1.0951    14.4503    14.5061    -0.055
    426   -90.0040     34.155    179.000 213301.000     30.000    41.5367     0.0149   -24.9958     0.0002     0.0007    25.0000    10.0000    10.0000    25.0000    25.0000    10.0000    10.0000    25.0000     0.0018    -0.0023    -0.0009    20.7875    41.4530     3.7383     2.1478     2.1477    -1.1026    14.4503    14.5061    -0.055
    427   -90.2036     34.191    183.000 213301.000     30.000    41.5367     0.0149   -24.9958     0.0002     0.0007    25.0000    10.0000    10.0000    25.0000    25.0000    10.0000    10.0000    25.0000     0.0018    -0.0023    -0.0009    20.7875    41.4530     3.7449     2.1501     2.1501    -1.1098    14.4503    14.5061    -0.055
    428   -90.4021     34.089    186.000 213301.000     30.000    41.5367     0.0149   -24.9958     0.0002     0.0007    25.0000    10.0000    10.0000    25.0000    25.0000    10.0000    10.0000    25.0000     0.0018    -0.0023    -0.0009    20.7875    41.4530     3.7513     2.1525     2.1525    -1.1170    14.4503    14.5061    -0.055
    429   -90.5985     34.032    211.000 213301.000     30.000    41.5367     0.0149   -24.9958     0.0002     0.0007    25.0000    10.0000    10.0000    25.0000    25.0000    10.0000    10.0000    25.0000     0.0018    -0.0023    -0.0010    20.7874    41.4530     3.7577     2.1548     2.1548    -1.1241    14.4503    14.5061    -0.055
    430   -90.8005     34.146    219.000 213301.000     30.000    41.5367     0.0149   -24.9958     0.0002     0.0007    25.0000    10.0000    10.0000    25.0000    25.0000    10.0000    10.0000    25.0000     0.0018    -0.0023    -0.0009    20.7874    41.4530     3.7642     2.1571     2.1571    -1.1315    14.4503    14.5061    -0.055
    431   -90.9980     34.131    241.000 213301.000     30.000    41.5367     0.0149   -24.9958     0.0002     0.0007    25.0000    10.0000    10.0000    25.0000    25.0000    10.0000    10.0000    25.0000     0.0018    -0.0023    -0.0010    20.7874    41.4530     3.7706     2.1594     2.1594    -1.1387    14.4503    14.5061    -0.055
    432   -91.1984     34.046    385.000 213301.000     30.000    41.5367     0.0149   -24.9958     0.0002     0.0007    25.0000    10.0000    10.0000    25.0000    25.0000    10.0000    10.0000    25.0000     0.0018    -0.0023    -0.0010    20.7874    41.4530     3.7771     2.1617     2.1617    -1.1460    14.4503    14.5061    -0.055
    433   -91.4006     34.074    770.000 213301.000     30.000    41.5367     0.0149   -24.9958     0.0002     0.0007    25.0000    10.0000    10.0000    25.0000    25.0000    10.0000    10.0000    25.0000     0.0018    -0.0023    -0.0009    20.7875    41.4530     3.7836     2.1640     2.1640    -1.1534    14.4503    14.5061    -0.055
    434   -91.6019     34.102   2070.000 213301.000     30.000    41.5367     0.0149   -24.9958     0.0002     0.0007    25.0000    10.0000    10.0000    25.0000    25.0000    10.0000    10.0000    25.0000     0.0018    -0.0023    -0.0009    20.7874    41.4530     3.7901     2.1663     2.1662    -1.1608    14.4503    14.5061    -0.055
    435   -91.8033     33.807   4336.000 213301.000     30.000    41.5367     0.0149   -24.9958     0.0002     0.0007    25.0000    10.0000    10.0000    25.0000    25.0000    10.0000    10.0000    25.0000     0.0018    -0.0023    -0.0009    20.7874    41.4530     3.7966     2.1685     2.1685    -1.1681    14.4503    14.5061    -0.055
    436   -91.9965     33.878   7762.000 213301.000     30.000    41.5367     0.0149   -24.9958     0.0002     0.0007    25.0000    10.0000    10.0000    25.0000    25.0000    10.0000    10.0000    25.0000     0.0018    -0.0023    -0.0010    20.7875    41.4530     3.8028     2.1706     2.1706    -1.1752    14.4503    14.5061    -0.055
    437   -92.1972     34.040  11213.000 213301.000     30.000    41.5367     0.0149   -24.9958     0.0002     0.0007    25.0000    10.0000    10.0000    25.0000    25.0000    10.0000    10.0000    25.0000     0.0018    -0.0023    -0.0009    20.7875    41.4530     3.8092     2.1728     2.1728    -1.1826    14.4503    14.5061    -0.055
    438   -92.3996     34.126  14526.000 213301.000     30.000    41.5367     0.0149   -24.9958     0.0002     0.0007    25.0000    10.0000    10.0000    25.0000    25.0000    10.0000    10.0000    25.0000     0.0018    -0.0023    -0.0009    20.7874    41.4530     3.8157     2.1751     2.1750    -1.1901    14.4503    14.5061    -0.055
    439   -92.5989     34.043  17196.000 213301.000     30.000    41.5367     0.0149   -24.9958     0.0002     0.0007    25.0000    10.0000    10.0000    25.0000    25.0000    10.0000    10.0000    25.0000     0.0018    -0.0023    -0.0009    20.7874    41.4530     3.8220     2.1772     2.1772    -1.1974    14.4503    14.5061    -0.055
    440   -92.7982     34.212  20076.000 213301.000     30.000    41.5367     0.0149   -24.9958     0.0002     0.0007    25.0000    10.0000    10.0000    25.0000    25.0000    10.0000    10.0000    25.0000     0.0018    -0.0023    -0.0009    20.7874    41.4530     3.8284     2.1793     2.1793    -1.2048    14.4503    14.5061    -0.055
    441   -92.9979     33.931  21706.000 213301.000     30.000    41.5367     0.0149   -24.9958     0.0002     0.0007    25.0000    10.0000    10.0000    25.0000    25.0000    10.0000    10.0000    25.0000     0.0018    -0.0023    -0.0009    20.7875    41.4530     3.8347     2.1815     2.1814    -1.2122    14.4503    14.5061    -0.055
    442   -93.2009     33.936  21587.000 213301.000     30.000    41.5367     0.0149   -24.9958     0.0002     0.0007    25.0000    10.0000    10.0000    25.0000    25.0000    10.0000    10.0000    25.0000     0.0018    -0.0023    -0.0009    20.7875    41.4530     3.8412     2.1836     2.1836    -1.2197    14.4503    14.5061    -0.055
    443   -93.4018     33.972  20813.000 213301.000     30.000    41.5367     0.0149   -24.9958     0.0002     0.0007    25.0000    10.0000    10.0000    25.0000    25.0000    10.0000    10.0000    25.0000     0.0018    -0.0023    -0.0009    20.7874    41.4530     3.8475     2.1857     2.1857    -1.2271    14.4503    14.5061    -0.055
    444   -93.5998     33.972  18441.000 213301.000     30.000    41.5367     0.0149   -24.9958     0.0002     0.0007    25.0000    10.0000    10.0000    25.0000    25.0000    10.0000    10.0000    25.0000     0.0018    -0.0023    -0.0009    20.7874    41.4530     3.8538     2.1877     2.1877    -1.2345    14.4503    14.5061    -0.055
    445   -93.7985     33.995  16395.000 213301.000     30.000    41.5367     0.0149   -24.9958     0.0002     0.0007    25.0000    10.0000    10.0000    25.0000    25.0000    10.0000    10.0000    25.0000     0.0018    -0.0023    -0.0010    20.7874    41.4530     3.8601     2.1898     2.1897    -1.2419    14.4503    14.5061    -0.055
    446   -93.9960     34.149  14164.000 213301.000     30.000    41.5367     0.0149   -24.9958     0.0002     0.0007    25.0000    10.0000    10.0000    25.0000    25.0000    10.0000    10.0000    25.0000     0.0018    -0.0023    -0.0009    20.7874    41.4530     3.8663     2.1918     2.1917    -1.2492    14.4503    14.5061    -0.055
    447   -94.1989     33.939  11083.000 213301.000     30.000    41.5367     0.0149   -24.9958     0.0002     0.0007    25.0000    10.0000    10.0000    25.0000    25.0000    10.0000    10.0000    25.0000     0.0018    -0.0023    -0.0010    20.7874    41.4530     3.8727     2.1938     2.1938    -1.2568    14.4503    14.5061    -0.055
    448   -94.4001     33.984   8366.000 213301.000     30.000    41.5367     0.0149   -24.9958     0.0002     0.0007    25.0000    10.0000    10.0000    25.0000    25.0000    10.0000    10.0000    25.0000     0.0018    -0.0023    -0.0009    20.7873    41.4530     3.8790     2.1958     2.1958    -1.2643    14.4503    14.5061    -0.055
    449   -94.6004     34.074   5667.000 213301.000     30.000    41.5367     0.0149   -24.9958     0.0002     0.0007    25.0000    10.0000    10.0000    25.0000    25.0000    10.0000    10.0000    25.0000     0.0018    -0.0023    -0.0009    20.7874    41.4530     3.8852     2.1978     2.1978    -1.2718    14.4503    14.5061    -0.055
    450   -94.8036     34.023   3295.000 213301.000     30.000    41.5367     0.0149   -24.9958     0.0002     0.0007    25.0000    10.0000    10.0000    25.0000    25.0000    10.0000    10.0000    25.0000     0.0018    -0.0023    -0.0010    20.7874    41.4530     3.8916     2.1998     2.1998    -1.2794    14.4503    14.5061    -0.055
    451   -95.0034     34.013   1563.000 213301.000     30.000    41.5367     0.0149   -24.9958     0.0002     0.0007    25.0000    10.0000    10.0000    25.0000    25.0000    10.0000    10.0000    25.0000     0.0018    -0.0023    -0.0010    20.7873    41.4530     3.8978     2.2017     2.2017    -1.2869    14.4503    14.5061    -0.055
    452   -95.2036     33.840    745.000 213301.000     30.000    41.5367     0.0149   -24.9958     0.0002     0.0007    25.0000    10.0000    10.0000    25.0000    25.0000    10.0000    10.0000    25.0000     0.0018    -0.0023    -0.0010    20.7873    41.4530     3.9041     2.2037     2.2036    -1.2944    14.4503    14.5061    -0.055
    453   -95.3997     33.981    350.000 213301.000     30.000    41.5367     0.0149   -24.9958     0.0002     0.0007    25.0000    10.0000    10.0000    25.0000    25.0000    10.0000    10.0000    25.0000     0.0018    -0.0023    -0.0009    20.7873    41.4530     3.9101     2.2055     2.2055    -1.3018    14.4503    14.5061    -0.055
    454   -95.5987     33.963    244.000 213301.000     30.000    41.5367     0.0149   -24.9958     0.0002     0.0007    25.0000    10.0000    10.0000    25.0000    25.0000    10.0000    10.0000    25.0000     0.0018    -0.0023    -0.0009    20.7873    41.4530     3.9163     2.2074     2.2074    -1.3093    14.4503    14.5061    -0.055
    455   -95.7971     34.111    203.000 213301.000     30.000    41.5367     0.0149   -24.9958     0.0002     0.0007    25.0000    10.0000    10.0000    25.0000    25.0000    10.0000    10.0000    25.0000     0.0018    -0.0023    -0.0009    20.7873    41.4530     3.9225     2.2093     2.2092    -1.3167    14.4503    14.5061    -0.055
    456   -95.9990     34.145    207.000 213301.000     30.000    41.5367     0.0149   -24.9958     0.0002     0.0007    25.0000    10.0000    10.0000    25.0000    25.0000    10.0000    10.0000    25.0000     0.0018    -0.0023    -0.0009    20.7875    41.4530     3.9287     2.2111     2.2111    -1.3244    14.4503    14.5061    -0.055
    457   -96.1990     34.034    184.000 213301.000     30.000    41.5367     0.0149   -24.9958     0.0002     0.0007    25.0000    10.0000    10.0000    25.0000    25.0000    10.0000    10.0000    25.0000     0.0018    -0.0023    -0.0009    20.7874    41.4530     3.9349     2.2129     2.2129    -1.3319    14.4503    14.5061    -0.055
    458   -96.4014     34.099    172.000 213301.000     30.000    41.5367     0.0149   -24.9958     0.0002     0.0007    25.0000    10.0000    10.0000    25.0000    25.0000    10.0000    10.0000    25.0000     0.0018    -0.0023    -0.0009    20.7874    41.4530     3.9411     2.2148     2.2147    -1.3396    14.4503    14.5061    -0.055
    459   -96.6041     34.008    214.000 213301.000     30.000    41.5367     0.0149   -24.9958     0.0002     0.0007    25.0000    10.0000    10.0000    25.0000    25.0000    10.0000    10.0000    25.0000     0.0018    -0.0023    -0.0009    20.7874    41.4530     3.9473     2.2166     2.2166    -1.3472    14.4503    14.5061    -0.055
    460   -96.8048     33.988    173.000 213301.000     30.000    41.5367     0.0149   -24.9958     0.0002     0.0007    25.0000    10.0000    10.0000    25.0000    25.0000    10.0000    10.0000    25.0000     0.0018    -0.0023    -0.0009    20.7874    41.4530     3.9535     2.2184     2.2183    -1.3548    14.4503    14.5061    -0.055
    461   -97.0020     34.077    177.000 213301.000     30.000    41.5367     0.0149   -24.9958     0.0002     0.0007    25.0000    10.0000    10.0000    25.0000    25.0000    10.0000    10.0000    25.0000     0.0018    -0.0023    -0.0009    20.7875    41.4530     3.9595     2.2201     2.2201    -1.3623    14.4503    14.5061    -0.055
    462   -97.1973     34.119    195.000 213301.000     30.000    41.5367     0.0149   -24.9958     0.0002     0.0007    25.0000    10.0000    10.0000    25.0000    25.0000    10.0000    10.0000    25.0000     0.0018    -0.0023    -0.0009    20.7874    41.4530     3.9655     2.2218     2.2218    -1.3697    14.4503    14.5061    -0.055
    463   -97.3981     33.909    185.000 213301.000     30.000    41.5367     0.0149   -24.9958     0.0002     0.0007    25.0000    10.0000    10.0000    25.0000    25.0000    10.0000    10.0000    25.0000     0.0018    -0.0023    -0.0010    20.7873    41.4530     3.9716     2.2235     2.2235    -1.3774    14.4503    14.5061    -0.055
    464   -97.6003     33.981    177.000 213301.000     30.000    41.5367     0.0149   -24.9958     0.0002     0.0007    25.0000    10.0000    10.0000    25.0000    25.0000    10.0000    10.0000    25.0000     0.0018    -0.0023    -0.0010    20.7873    41.4530     3.9778     2.2252     2.2252    -1.3851    14.4503    14.5061    -0.055
    465   -97.7988     34.207    185.000 213301.000     30.000    41.5367     0.0149   -24.9958     0.0002     0.0007    25.0000    10.0000    10.0000    25.0000    25.0000    10.0000    10.0000    25.0000     0.0018    -0.0023    -0.0009    20.7873    41.4530     3.9838     2.2269     2.2269    -1.3926    14.4503    14.5061    -0.055
    466   -97.9990     34.035    166.000 213301.000     30.000    41.5367     0.0149   -24.9958     0.0002     0.0007    25.0000    10.0000    10.0000    25.0000    25.0000    10.0000    10.0000    25.0000     0.0018    -0.0023    -0.0010    20.7873    41.4530     3.9898     2.2286     2.2285    -1.4003    14.4503    14.5061    -0.055
    467   -98.2022     34.060    177.000 213301.000     30.000    41.5367     0.0149   -24.9958     0.0002     0.0007    25.0000    10.0000    10.0000    25.0000    25.0000    10.0000    10.0000    25.0000     0.0018    -0.0023    -0.0009    20.7873    41.4530     3.9960     2.2302     2.2302    -1.4080    14.4503    14.5061    -0.055
    468   -98.4027     33.954    177.000 213301.000     30.000    41.5367     0.0149   -24.9958     0.0002     0.0007    25.0000    10.0000    10.0000    25.0000    25.0000    10.0000    10.0000    25.0000     0.0018    -0.0023    -0.0009    20.7873    41.4530     4.0020     2.2319     2.2318    -1.4157    14.4503    14.5061    -0.055
    469   -98.5983     34.015    199.000 213301.000     30.000    41.5367     0.0149   -24.9958     0.0002     0.0007    25.0000    10.0000    10.0000    25.0000    25.0000    10.0000    10.0000    25.0000     0.0018    -0.0023    -0.0009    20.7873    41.4530     4.0079     2.2334     2.2334    -1.4232    14.4503    14.5061    -0.055
    470   -98.7986     33.902    155.000 213301.000     30.000    41.5367     0.0149   -24.9958     0.0002     0.0007    25.0000    10.0000    10.0000    25.0000    25.0000    10.0000    10.0000    25.0000     0.0018    -0.0023    -0.0009    20.7872    41.4530     4.0140     2.2350     2.2350    -1.4309    14.4503    14.5061    -0.055
    471   -98.9971     34.047    140.000 213301.000     30.000    41.5367     0.0149   -24.9958     0.0002     0.0007    25.0000    10.0000    10.0000    25.0000    25.0000    10.0000    10.0000    25.0000     0.0018    -0.0023    -0.0009    20.7873    41.4530     4.0199     2.2366     2.2365    -1.4385    14.4503    14.5061    -0.055
    472   -99.1984     33.990    149.000 213301.000     30.000    41.5367     0.0149   -24.9958     0.0002     0.0007    25.0000    10.0000    10.0000    25.0000    25.0000    10.0000    10.0000    25.0000     0.0018    -0.0023    -0.0009    20.7873    41.4530     4.0259     2.2381     2.2381    -1.4462    14.4503    14.5061    -0.055
    473   -99.3988     33.980    172.000 213301.000     30.000    41.5367     0.0149   -24.9958     0.0002     0.0007    25.0000    10.0000    10.0000    25.0000    25.0000    10.0000    10.0000    25.0000     0.0018    -0.0023    -0.0009    20.7872    41.4530     4.0319     2.2396     2.2396    -1.4539    14.4503    14.5061    -0.055
    474   -99.5987     34.064    154.000 213301.000     30.000    41.5367     0.0149   -24.9958     0.0002     0.0007    25.0000    10.0000    10.0000    25.0000    25.0000    10.0000    10.0000    25.0000     0.0018    -0.0023    -0.0009    20.7872    41.4530     4.0379     2.2412     2.2411    -1.4616    14.4503    14.5061    -0.055
    475   -99.8011     34.081    149.000 213301.000     30.000    41.5367     0.0149   -24.9958     0.0002     0.0007    25.0000    10.0000    10.0000    25.0000    25.0000    10.0000    10.0000    25.0000     0.0018    -0.0023    -0.0009    20.7872    41.4530     4.0439     2.2427     2.2426    -1.4694    14.4503    14.5061    -0.055
    476  -100.0027     34.137    182.000 213301.000     30.000    41.5367     0.0149   -24.9958     0.0002     0.0007    25.0000    10.0000    10.0000    25.0000    25.0000    10.0000    10.0000    25.0000     0.0018    -0.0023    -0.0009    20.7872    41.4530     4.0499     2.2441     2.2441    -1.4772    14.4503    14.5061    -0.055
    477  -100.1985     34.032    170.000 213301.000     30.000    41.5367     0.0149   -24.9958     0.0002     0.0007    25.0000    10.0000    10.0000    25.0000    25.0000    10.0000    10.0000    25.0000     0.0018    -0.0023    -0.0009    20.7871    41.4530     4.0557     2.2456     2.2455    -1.4847    14.4503    14.5061    -0.055
    478  -100.3991     34.166    165.000 213301.000     30.000    41.5367     0.0149   -24.9958     0.0002     0.0007    25.0000    10.0000    10.0000    25.0000    25.0000    10.0000    10.0000    25.0000     0.0018    -0.0023    -0.0009    20.7871    41.4530     4.0616     2.2470     2.2470    -1.4925    14.4503    14.5061    -0.055
    479  -100.5993     34.016    148.000 213301.000     30.000    41.5367     0.0149   -24.9958     0.0002     0.0007    25.0000    10.0000    10.0000    25.0000    25.0000    10.0000    10.0000    25.0000     0.0018    -0.0023    -0.0009    20.7870    41.4529     4.0675     2.2484     2.2484    -1.5002    14.4503    14.5061    -0.055
    480  -100.8002     34.207    150.000 213301.000     30.000    41.5367     0.0149   -24.9958     0.0002     0.0007    25.0000    10.0000    10.0000    25.0000    25.0000    10.0000    10.0000    25.0000     0.0018    -0.0023    -0.0009    20.7870    41.4529     4.0734     2.2498     2.2498    -1.5080    14.4503    14.5061    -0.055
    481  -101.0004     34.012    156.000 213301.000     30.000    41.5367     0.0149   -24.9958     0.0002     0.0007    25.0000    10.0000    10.0000    25.0000    25.0000    10.0000    10.0000    25.0000     0.0018    -0.0023    -0.0009    20.7870    41.4529     4.0793     2.2512     2.2512    -1.5157    14.4503    14.5062    -0.055
    482  -101.2014     33.893    148.000 213301.000     30.000    41.5367     0.0149   -24.9958     0.0002     0.0007    25.0000    10.0000    10.0000    25.0000    25.0000    10.0000    10.0000    25.0000     0.0018    -0.0023    -0.0009    20.7870    41.4529     4.0852     2.2526     2.2525    -1.5235    14.4503    14.5061    -0.055
    483  -101.4030     34.194    157.000 213301.000     30.000    41.5367     0.0149   -24.9958     0.0002     0.0007    25.0000    10.0000    10.0000    25.0000    25.0000    10.0000    10.0000    25.0000     0.0018    -0.0023    -0.0009    20.7869    41.4529     4.0911     2.2539     2.2539    -1.5313    14.4503    14.5062    -0.055
    484  -101.5976     34.125    141.000 213301.000     30.000    41.5367     0.0149   -24.9958     0.0002     0.0007    25.0000    10.0000    10.0000    25.0000    25.0000    10.0000    10.0000    25.0000     0.0018    -0.0023    -0.0009    20.7868    41.4530     4.0968     2.2552     2.2551    -1.5389    14.4503    14.5061    -0.055
    485  -101.7999     34.042    149.000 213301.000     30.000    41.5367     0.0149   -24.9958     0.0002     0.0007    25.0000    10.0000    10.0000    25.0000    25.0000    10.0000    10.0000    25.0000     0.0018    -0.0023    -0.0010    20.7868    41.4530     4.1027     2.2565     2.2565    -1.5467    14.4503    14.5061    -0.055
    486  -101.9970     34.062    139.000 213301.000     30.000    41.5367     0.0149   -24.9958     0.0002     0.0007    25.0000    10.0000    10.0000    25.0000    25.0000    10.0000    10.0000    25.0000     0.0018    -0.0023    -0.0010    20.7867    41.4530     4.1084     2.2578     2.2577    -1.5544    14.4503    14.5061    -0.055
    487  -102.1999     34.029    142.000 213301.000     30.000    41.5367     0.0149   -24.9958     0.0002     0.0007    25.0000    10.0000    10.0000    25.0000    25.0000    10.0000    10.0000    25.0000     0.0018    -0.0023    -0.0010    20.7873    41.4530     4.1143     2.2590     2.2590    -1.5623    14.4503    14.5061    -0.055
    488  -102.3965     34.018    173.000 213301.000     30.000    41.5367     0.0149   -24.9958     0.0002     0.0007    25.0000    10.0000    10.0000    25.0000    25.0000    10.0000    10.0000    25.0000     0.0018    -0.0023    -0.0010    20.7873    41.4529     4.1200     2.2603     2.2602    -1.5699    14.4503    14.5062    -0.055
    489  -102.5987     34.035    146.000 213301.000     30.000    41.5367     0.0149   -24.9958     0.0002     0.0007    25.0000    10.0000    10.0000    25.0000    25.0000    10.0000    10.0000    25.0000     0.0018    -0.0023    -0.0010    20.7872    41.4530     4.1258     2.2615     2.2614    -1.5778    14.4503    14.5061    -0.055
    490  -102.7990     33.973    147.000 213301.000     30.000    41.5367     0.0149   -24.9958     0.0002     0.0007    25.0000    10.0000    10.0000    25.0000    25.0000    10.0000    10.0000    25.0000     0.0018    -0.0023    -0.0009    20.7874    41.4529     4.1316     2.2627     2.2627    -1.5856    14.4503    14.5061    -0.055
    491  -103.0035     33.970    164.000 213301.000     30.000    41.5367     0.0149   -24.9958     0.0002     0.0007    25.0000    10.0000    10.0000    25.0000    25.0000    10.0000    10.0000    25.0000     0.0018    -0.0023    -0.0009    20.7874    41.4529     4.1375     2.2639     2.2639    -1.5936    14.4503    14.5062    -0.055
    492  -103.2026     33.960    156.000 213301.000     30.000    41.5367     0.0149   -24.9958     0.0002     0.0007    25.0000    10.0000    10.0000    25.0000    25.0000    10.0000    10.0000    25.0000     0.0018    -0.0023    -0.0009    20.7873    41.4530     4.1432     2.2651     2.2650    -1.6014    14.4503    14.5061    -0.055
    493  -103.4023     34.094    142.000 213301.000     30.000    41.5367     0.0149   -24.9958     0.0002     0.0007    25.0000    10.0000    10.0000    25.0000    25.0000    10.0000    10.0000    25.0000     0.0018    -0.0023    -0.0009    20.7873    41.4530     4.1489     2.2662     2.2662    -1.6092    14.4503    14.5061    -0.055
    494  -103.6016     33.883    152.000 213301.000     30.000    41.5367     0.0149   -24.9958     0.0002     0.0007    25.0000    10.0000    10.0000    25.0000    25.0000    10.0000    10.0000    25.0000     0.0018    -0.0023    -0.0009    20.7872    41.4530     4.1546     2.2673     2.2673    -1.6170    14.4503    14.5061    -0.055
    495  -103.7989     34.077    180.000 213301.000     30.000    41.5367     0.0149   -24.9958     0.0002     0.0007    25.0000    10.0000    10.0000    25.0000    25.0000    10.0000    10.0000    25.0000     0.0018    -0.0023    -0.0009    20.7874    41.4530     4.1602     2.2684     2.2684    -1.6247    14.4503    14.5061    -0.055
    496  -103.9983     33.956    162.000 213301.000     30.000    41.5367     0.0149   -24.9958     0.0002     0.0007    25.0000    10.0000    10.0000    25.0000    25.0000    10.0000    10.0000    25.0000     0.0018    -0.0023    -0.0009    20.7873    41.4530     4.1659     2.2695     2.2695    -1.6325    14.4503    14.5061    -0.055
    497  -104.2010     34.076    172.000 213301.000     30.000    41.5367     0.0149   -24.9958     0.0002     0.0007    25.0000    10.0000    10.0000    25.0000    25.0000    10.0000    10.0000    25.0000     0.0018    -0.0023    -0.0009    20.7874    41.4529     4.1716     2.2706     2.2705    -1.6405    14.4503    14.5061    -0.055
    498  -104.3982     34.149    168.000 213301.000     30.000    41.5367     0.0149   -24.9958     0.0002     0.0007    25.0000    10.0000    10.0000    25.0000    25.0000    10.0000    10.0000    25.0000     0.0018    -0.0023    -0.0009    20.7874    41.4530     4.1772     2.2716     2.2716    -1.6482    14.4503    14.5061    -0.055
    499  -104.6010     34.240    178.000 213301.000     30.000    41.5367     0.0149   -24.9958     0.0002     0.0007    25.0000    10.0000    10.0000    25.0000    25.0000    10.0000    10.0000    25.0000     0.0018    -0.0023    -0.0009    20.7873    41.4530     4.1829     2.2727     2.2726    -1.6562    14.4503    14.5061    -0.055
    500  -104.8034     33.924    166.000 213301.000     30.000    41.5367     0.0149   -24.9958     0.0002     0.0007    25.0000    10.0000    10.0000    25.0000    25.0000    10.0000    10.0000    25.0000     0.0018    -0.0023    -0.0009    20.7873    41.4530     4.1886     2.2737     2.2736    -1.6641    14.4503    14.5061    -0.055
    501  -105.0015     33.851    195.000 213301.000     30.000    41.5367     0.0149   -24.9958     0.0002     0.0007    25.0000    10.0000    10.0000    25.0000    25.0000    10.0000    10.0000    25.0000     0.0018    -0.0023    -0.0009    20.7874    41.4530     4.1942     2.2747     2.2746    -1.6719    14.4503    14.5061    -0.055
    502  -105.1981     33.995    199.000 213301.000     30.000    41.5367     0.0149   -24.9958     0.0002     0.0007    25.0000    10.0000    10.0000    25.0000    25.0000    10.0000    10.0000    25.0000     0.0018    -0.0023    -0.0009    20.7874    41.4530     4.1997     2.2756     2.2756    -1.6796    14.4503    14.5061    -0.055
    503  -105.3982     34.095    184.000 213301.000     30.000    41.5367     0.0149   -24.9958     0.0002     0.0007    25.0000    10.0000    10.0000    25.0000    25.0000    10.0000    10.0000    25.0000     0.0018    -0.0023    -0.0009    20.7874    41.4530     4.2053     2.2766     2.2765    -1.6875    14.4503    14.5061    -0.055
    504  -105.5967     34.113    173.000 213301.000     30.000    41.5367     0.0149   -24.9958     0.0002     0.0007    25.0000    10.0000    10.0000    25.0000    25.0000    10.0000    10.0000    25.0000     0.0018    -0.0023    -0.0009    20.7873    41.4530     4.2109     2.2775     2.2774    -1.6953    14.4503    14.5061    -0.055
    505  -105.7992     33.893    185.000 213301.000     30.000    41.5367     0.0149   -24.9958     0.0002     0.0007    25.0000    10.0000    10.0000    25.0000    25.0000    10.0000    10.0000    25.0000     0.0018    -0.0023    -0.0009    20.7873    41.4530     4.2165     2.2784     2.2784    -1.7033    14.4503    14.5061    -0.055
    506  -105.9990     34.022    192.000 213301.000     30.000    41.5367     0.0149   -24.9958     0.0002     0.0007    25.0000    10.0000    10.0000    25.0000    25.0000    10.0000    10.0000    25.0000     0.0018    -0.0023    -0.0010    20.7873    41.4530     4.2221     2.2793     2.2793    -1.7112    14.4503    14.5061    -0.055
    507  -106.2000     34.080    161.000 213301.000     30.000    41.5367     0.0149   -24.9958     0.0002     0.0007    25.0000    10.0000    10.0000    25.0000    25.0000    10.0000    10.0000    25.0000     0.0018    -0.0023    -0.0009    20.7872    41.4530     4.2276     2.2802     2.2801    -1.7191    14.4503    14.5061    -0.055
    508  -106.4043     33.949    193.000 213301.000     30.000    41.5367     0.0149   -24.9958     0.0002     0.0007    25.0000    10.0000    10.0000    25.0000    25.0000    10.0000    10.0000    25.0000     0.0018    -0.0023    -0.0009    20.7873    41.4530     4.2333     2.2811     2.2810    -1.7272    14.4503    14.5061    -0.055
    509  -106.6015     33.895    187.000 213301.000     30.000    41.5367     0.0149   -24.9958     0.0002     0.0007    25.0000    10.0000    10.0000    25.0000    25.0000    10.0000    10.0000    25.0000     0.0018    -0.0023    -0.0009    20.7873    41.4530     4.2387     2.2819     2.2818    -1.7349    14.4503    14.5061    -0.055
    510  -106.7981     34.037    192.000 213301.000     30.000    41.5367     0.0149   -24.9958     0.0002     0.0007    25.0000    10.0000    10.0000    25.0000    25.0000    10.0000    10.0000    25.0000     0.0018    -0.0023    -0.0009    20.7873    41.4530     4.2441     2.2827     2.2826    -1.7427    14.4503    14.5061    -0.055
    511  -106.9995     34.085    170.000 213301.000     30.000    41.5367     0.0149   -24.9958     0.0002     0.0007    25.0000    10.0000    10.0000    25.0000    25.0000    10.0000    10.0000    25.0000     0.0018    -0.0023    -0.0009    20.7872    41.4530     4.2497     2.2835     2.2834    -1.7507    14.4503    14.5061    -0.055
    512  -107.1981     34.077    170.000 213301.000     30.000    41.5367     0.0149   -24.9958     0.0002     0.0007    25.0000    10.0000    10.0000    25.0000    25.0000    10.0000    10.0000    25.0000     0.0018    -0.0023    -0.0009    20.7871    41.4530     4.2551     2.2842     2.2842    -1.7585    14.4503    14.5061    -0.055
    513  -107.4013     34.091    171.000 213301.000     30.000    41.5367     0.0149   -24.9958     0.0002     0.0007    25.0000    10.0000    10.0000    25.0000    25.0000    10.0000    10.0000    25.0000     0.0018    -0.0023    -0.0009    20.7873    41.4530     4.2607     2.2850     2.2850    -1.7666    14.4503    14.5061    -0.055
    514  -107.6002     34.016    201.000 213301.000     30.000    41.5367     0.0149   -24.9958     0.0002     0.0007    25.0000    10.0000    10.0000    25.0000    25.0000    10.0000    10.0000    25.0000     0.0018    -0.0023    -0.0009    20.7872    41.4530     4.2661     2.2857     2.2857    -1.7744    14.4503    14.5061    -0.055
    515  -107.8016     34.015    219.000 213301.000     30.000    41.5367     0.0149   -24.9958     0.0002     0.0007    25.0000    10.0000    10.0000    25.0000    25.0000    10.0000    10.0000    25.0000     0.0018    -0.0023    -0.0009    20.7873    41.4530     4.2716     2.2865     2.2864    -1.7824    14.4503    14.5061    -0.055
    516  -107.9960     34.057    225.000 213301.000     30.000    41.5367     0.0149   -24.9958     0.0002     0.0007    25.0000    10.0000    10.0000    25.0000    25.0000    10.0000    10.0000    25.0000     0.0018    -0.0023    -0.0009    20.7872    41.4530     4.2769     2.2871     2.2871    -1.7901    14.4503    14.5061    -0.055
    517  -108.2001     33.832    231.000 213301.000     30.000    41.5367     0.0149   -24.9958     0.0002     0.0007    25.0000    10.0000    10.0000    25.0000    25.0000    10.0000    10.0000    25.0000     0.0018    -0.0023    -0.0009    20.7873    41.4530     4.2824     2.2878     2.2878    -1.7982    14.4503    14.5061    -0.055
    518  -108.4031     33.817    222.000 213301.000     30.000    41.5367     0.0149   -24.9958     0.0002     0.0007    25.0000    10.0000    10.0000    25.0000    25.0000    10.0000    10.0000    25.0000     0.0018    -0.0023    -0.0009    20.7873    41.4530     4.2879     2.2885     2.2885    -1.8062    14.4503    14.5061    -0.055
    519  -108.5983     33.993    211.000 213301.000     30.000    41.5367     0.0149   -24.9958     0.0002     0.0007    25.0000    10.0000    10.0000    25.0000    25.0000    10.0000    10.0000    25.0000     0.0018    -0.0023    -0.0009    20.7872    41.4530     4.2931     2.2891     2.2891    -1.8140    14.4503    14.5061    -0.055
    520  -108.7975     34.015    267.000 213301.000     30.000    41.5367     0.0149   -24.9958     0.0002     0.0007    25.0000    10.0000    10.0000    25.0000    25.0000    10.0000    10.0000    25.0000     0.0018    -0.0023    -0.0009    20.7874    41.4530     4.2985     2.2897     2.2897    -1.8219    14.4503    14.5061    -0.055
    521  -108.9976     33.959    279.000 213301.000     30.000    41.5367     0.0149   -24.9958     0.0002     0.0007    25.0000    10.0000    10.0000    25.0000    25.0000    10.0000    10.0000    25.0000     0.0018    -0.0023    -0.0009    20.7873    41.4530     4.3039     2.2903     2.2903    -1.8298    14.4503    14.5061    -0.055
    522  -109.2003     33.866    316.000 213301.000     30.000    41.5367     0.0149   -24.9958     0.0002     0.0007    25.0000    10.0000    10.0000    25.0000    25.0000    10.0000    10.0000    25.0000     0.0018    -0.0023    -0.0009    20.7873    41.4530     4.3093     2.2909     2.2909    -1.8379    14.4503    14.5061    -0.055
    523  -109.3991     34.085    506.000 213301.000     30.000    41.5367     0.0149   -24.9958     0.0002     0.0007    25.0000    10.0000    10.0000    25.0000    25.0000    10.0000    10.0000    25.0000     0.0018    -0.0023    -0.0009    20.7873    41.4530     4.3146     2.2915     2.2914    -1.8458    14.4503    14.5061    -0.055
    524  -109.6046     34.065    852.000 213301.000     30.000    41.5367     0.0149   -24.9958     0.0002     0.0007    25.0000    10.0000    10.0000    25.0000    25.0000    10.0000    10.0000    25.0000     0.0018    -0.0023    -0.0009    20.7873    41.4530     4.3201     2.2920     2.2920    -1.8539    14.4503    14.5061    -0.055
    525  -109.8002     33.925   1406.000 213301.000     30.000    41.5367     0.0149   -24.9958     0.0002     0.0007    25.0000    10.0000    10.0000    25.0000    25.0000    10.0000    10.0000    25.0000     0.0018    -0.0023    -0.0009    20.7873    41.4530     4.3253     2.2926     2.2925    -1.8617    14.4503    14.5061    -0.055
    526  -110.0006     33.878   2534.000 213301.000     30.000    41.5367     0.0149   -24.9958     0.0002     0.0007    25.0000    10.0000    10.0000    25.0000    25.0000    10.0000    10.0000    25.0000     0.0018    -0.0023    -0.0009    20.7873    41.4530     4.3306     2.2931     2.2930    -1.8697    14.4503    14.5061    -0.055
    527  -110.1996     34.098   4495.000 213301.000     30.000    41.5367     0.0149   -24.9958     0.0002     0.0007    25.0000    10.0000    10.0000    25.0000    25.0000    10.0000    10.0000    25.0000     0.0018    -0.0023    -0.0009    20.7872    41.4530     4.3358     2.2935     2.2935    -1.8776    14.4503    14.5061    -0.055
    528  -110.3998     33.982   6791.000 213301.000     30.000    41.5367     0.0149   -24.9958     0.0002     0.0007    25.0000    10.0000    10.0000    25.0000    25.0000    10.0000    10.0000    25.0000     0.0018    -0.0023    -0.0010    20.7872    41.4530     4.3411     2.2940     2.2940    -1.8856    14.4503    14.5061    -0.055
    529  -110.6003     34.012   9283.000 213301.000     30.000    41.5367     0.0149   -24.9958     0.0002     0.0007    25.0000    10.0000    10.0000    25.0000    25.0000    10.0000    10.0000    25.0000     0.0018    -0.0023    -0.0010    20.7872    41.4530     4.3464     2.2944     2.2944    -1.8935    14.4503    14.5061    -0.055
    530  -110.7997     34.106  11408.000 213301.000     30.000    41.5367     0.0149   -24.9958     0.0002     0.0007    25.0000    10.0000    10.0000    25.0000    25.0000    10.0000    10.0000    25.0000     0.0018    -0.0023    -0.0009    20.7872    41.4530     4.3516     2.2949     2.2948    -1.9015    14.4503    14.5061    -0.055
    531  -110.9986     33.962  13858.000 213301.000     30.000    41.5367     0.0149   -24.9958     0.0002     0.0007    25.0000    10.0000    10.0000    25.0000    25.0000    10.0000    10.0000    25.0000     0.0018    -0.0023    -0.0010    20.7872    41.4530     4.3568     2.2953     2.2952    -1.9094    14.4503    14.5061    -0.055
    532  -111.2008     33.937  15785.000 213301.000     30.000    41.5367     0.0149   -24.9958     0.0002     0.0007    25.0000    10.0000    10.0000    25.0000    25.0000    10.0000    10.0000    25.0000     0.0018    -0.0023    -0.0009    20.7872    41.4530     4.3621     2.2957     2.2956    -1.9174    14.4503    14.5061    -0.055
    533  -111.4038     34.107  17944.000 213301.000     30.000    41.5367     0.0149   -24.9958     0.0002     0.0007    25.0000    10.0000    10.0000    25.0000    25.0000    10.0000    10.0000    25.0000     0.0018    -0.0023    -0.0009    20.7872    41.4530     4.3674     2.2960     2.2960    -1.9255    14.4503    14.5061    -0.055
    534  -111.6021     34.064  19315.000 213301.000     30.000    41.5367     0.0149   -24.9958     0.0002     0.0007    25.0000    10.0000    10.0000    25.0000    25.0000    10.0000    10.0000    25.0000     0.0018    -0.0023    -0.0009    20.7872    41.4530     4.3725     2.2964     2.2963    -1.9334    14.4503    14.5061    -0.055
    535  -111.7994     33.894  20476.000 213301.000     30.000    41.5367     0.0149   -24.9958     0.0002     0.0007    25.0000    10.0000    10.0000    25.0000    25.0000    10.0000    10.0000    25.0000     0.0018    -0.0023    -0.0009    20.7872    41.4530     4.3776     2.2967     2.2966    -1.9413    14.4503    14.5061    -0.055
    536  -111.9964     34.157  21456.000 213301.000     30.000    41.5367     0.0149   -24.9958     0.0002     0.0007    25.0000    10.0000    10.0000    25.0000    25.0000    10.0000    10.0000    25.0000     0.0018    -0.0023    -0.0009    20.7872    41.4530     4.3827     2.2970     2.2969    -1.9491    14.4503    14.5061    -0.055
    537  -112.1976     34.003  21586.000 213301.000     30.000    41.5367     0.0149   -24.9958     0.0002     0.0007    25.0000    10.0000    10.0000    25.0000    25.0000    10.0000    10.0000    25.0000     0.0018    -0.0023    -0.0009    20.7872    41.4530     4.3879     2.2973     2.2972    -1.9572    14.4503    14.5061    -0.055
    538  -112.3993     33.900  21183.000 213301.000     30.000    41.5367     0.0149   -24.9958     0.0002     0.0007    25.0000    10.0000    10.0000    25.0000    25.0000    10.0000    10.0000    25.0000     0.0018    -0.0023    -0.0010    20.7872    41.4530     4.3931     2.2975     2.2975    -1.9652    14.4503    14.5061    -0.055
    539  -112.5985     33.947  20461.000 213301.000     30.000    41.5367     0.0149   -24.9958     0.0002     0.0007    25.0000    10.0000    10.0000    25.0000    25.0000    10.0000    10.0000    25.0000     0.0018    -0.0023    -0.0009    20.7872    41.4530     4.3982     2.2978     2.2977    -1.9731    14.4503    14.5061    -0.055
    540  -112.8009     33.967  19201.000 213301.000     30.000    41.5367     0.0149   -24.9958     0.0002     0.0007    25.0000    10.0000    10.0000    25.0000    25.0000    10.0000    10.0000    25.0000     0.0018    -0.0023    -0.0009    20.7872    41.4530     4.4034     2.2980     2.2980    -1.9812    14.4503    14.5061    -0.055
    541  -113.0019     34.124  18010.000 213301.000     30.000    41.5367     0.0149   -24.9958     0.0002     0.0007    25.0000    10.0000    10.0000    25.0000    25.0000    10.0000    10.0000    25.0000     0.0018    -0.0023    -0.0009    20.7871    41.4530     4.4085     2.2982     2.2982    -1.9892    14.4503    14.5061    -0.055
    542  -113.2000     33.804  16093.000 213301.000     30.000    41.5367     0.0149   -24.9958     0.0002     0.0007    25.0000    10.0000    10.0000    25.0000    25.0000    10.0000    10.0000    25.0000     0.0018    -0.0023    -0.0009    20.7871    41.4530     4.4135     2.2984     2.2984    -1.9971    14.4503    14.5061    -0.055
    543  -113.3991     33.931  14676.000 213301.000     30.000    41.5367     0.0149   -24.9958     0.0002     0.0007    25.0000    10.0000    10.0000    25.0000    25.0000    10.0000    10.0000    25.0000     0.0018    -0.0023    -0.0009    20.7871    41.4530     4.4186     2.2986     2.2985    -2.0051    14.4503    14.5061    -0.055
    544  -113.5977     34.049  12576.000 213301.000     30.000    41.5367     0.0149   -24.9958     0.0002     0.0007    25.0000    10.0000    10.0000    25.0000    25.0000    10.0000    10.0000    25.0000     0.0018    -0.0023    -0.0009    20.7871    41.4530     4.4236     2.2987     2.2987    -2.0130    14.4503    14.5061    -0.055
    545  -113.7966     34.125  10895.000 213301.000     30.000    41.5367     0.0149   -24.9958     0.0002     0.0007    25.0000    10.0000    10.0000    25.0000    25.0000    10.0000    10.0000    25.0000     0.0018    -0.0023    -0.0009    20.7871    41.4530     4.4286     2.2988     2.2988    -2.0209    14.4503    14.5061    -0.055
    546  -113.9994     33.987   8978.000 213301.000     30.000    41.5367     0.0149   -24.9958     0.0002     0.0007    25.0000    10.0000    10.0000    25.0000    25.0000    10.0000    10.0000    25.0000     0.0018    -0.0023    -0.0009    20.7871    41.4530     4.4337     2.2990     2.2989    -2.0290    14.4503    14.5061    -0.055
    547  -114.2002     33.946   7137.000 213301.000     30.000    41.5367     0.0149   -24.9958     0.0002     0.0007    25.0000    10.0000    10.0000    25.0000    25.0000    10.0000    10.0000    25.0000     0.0018    -0.0023    -0.0009    20.7870    41.4530     4.4388     2.2990     2.2990    -2.0371    14.4503    14.5061    -0.055
    548  -114.4033     34.152   5359.000 213301.000     30.000    41.5367     0.0149   -24.9958     0.0002     0.0007    25.0000    10.0000    10.0000    25.0000    25.0000    10.0000    10.0000    25.0000     0.0018    -0.0023    -0.0009    20.7872    41.4530     4.4439     2.2991     2.2991    -2.0452    14.4503    14.5061    -0.055
    549  -114.5954     34.128   3832.000 213301.000     30.000    41.5367     0.0149   -24.9958     0.0002     0.0007    25.0000    10.0000    10.0000    25.0000    25.0000    10.0000    10.0000    25.0000     0.0018    -0.0023    -0.0009    20.7871    41.4530     4.4486     2.2992     2.2991    -2.0528    14.4503    14.5061    -0.055
    550  -114.8028     34.002   2604.000 213301.000     30.000    41.5367     0.0149   -24.9958     0.0002     0.0007    25.0000    10.0000    10.0000    25.0000    25.0000    10.0000    10.0000    25.0000     0.0018    -0.0023    -0.0009    20.7871    41.4530     4.4538     2.2992     2.2991    -2.0611    14.4503    14.5061    -0.055
    551  -115.0012     33.904   1757.000 213301.000     30.000    41.5367     0.0149   -24.9958     0.0002     0.0007    25.0000    10.0000    10.0000    25.0000    25.0000    10.0000    10.0000    25.0000     0.0018    -0.0023    -0.0009    20.7871    41.4530     4.4587     2.2992     2.2992    -2.0690    14.4503    14.5061    -0.055
    552  -115.1975     33.807   1139.000 213301.000     30.000    41.5367     0.0149   -24.9958     0.0002     0.0007    25.0000    10.0000    10.0000    25.0000    25.0000    10.0000    10.0000    25.0000     0.0018    -0.0023    -0.0010    20.7870    41.4530     4.4636     2.2992     2.2991    -2.0769    14.4503    14.5061    -0.055
    553  -115.3965     33.975    713.000 213301.000     30.000    41.5367     0.0149   -24.9958     0.0002     0.0007    25.0000    10.0000    10.0000    25.0000    25.0000    10.0000    10.0000    25.0000     0.0018    -0.0023    -0.0009    20.7870    41.4530     4.4685     2.2992     2.2991    -2.0848    14.4503    14.5061    -0.055
    554  -115.5995     33.996    489.000 213301.000     30.000    41.5367     0.0149   -24.9958     0.0002     0.0007    25.0000    10.0000    10.0000    25.0000    25.0000    10.0000    10.0000    25.0000     0.0018    -0.0023    -0.0009    20.7869    41.4530     4.4735     2.2991     2.2991    -2.0929    14.4503    14.5061    -0.055
    555  -115.7975     33.920    402.000 213301.000     30.000    41.5367     0.0149   -24.9958     0.0002     0.0007    25.0000    10.0000    10.0000    25.0000    25.0000    10.0000    10.0000    25.0000     0.0018    -0.0023    -0.0009    20.7869    41.4530     4.4784     2.2990     2.2990    -2.1008    14.4503    14.5061    -0.055
    556  -116.0010     33.989    344.000 213301.000     30.000    41.5367     0.0149   -24.9958     0.0002     0.0007    25.0000    10.0000    10.0000    25.0000    25.0000    10.0000    10.0000    25.0000     0.0018    -0.0023    -0.0009    20.7868    41.4530     4.4833     2.2990     2.2989    -2.1089    14.4503    14.5061    -0.055
    557  -116.2029     33.988    330.000 213301.000     30.000    41.5367     0.0149   -24.9958     0.0002     0.0007    25.0000    10.0000    10.0000    25.0000    25.0000    10.0000    10.0000    25.0000     0.0018    -0.0023    -0.0009    20.7870    41.4530     4.4883     2.2988     2.2988    -2.1170    14.4503    14.5061    -0.055
    558  -116.3978     33.843    285.000 213301.000     30.000    41.5367     0.0149   -24.9958     0.0002     0.0007    25.0000    10.0000    10.0000    25.0000    25.0000    10.0000    10.0000    25.0000     0.0018    -0.0023    -0.0009    20.7870    41.4530     4.4930     2.2987     2.2987    -2.1248    14.4503    14.5061    -0.055
    559  -116.6014     34.067    244.000 213301.000     30.000    41.5367     0.0149   -24.9958     0.0002     0.0007    25.0000    10.0000    10.0000    25.0000    25.0000    10.0000    10.0000    25.0000     0.0018    -0.0023    -0.0009    20.7870    41.4530     4.4980     2.2986     2.2985    -2.1329    14.4503    14.5061    -0.055
    560  -116.8004     33.913    216.000 213301.000     30.000    41.5367     0.0149   -24.9958     0.0002     0.0007    25.0000    10.0000    10.0000    25.0000    25.0000    10.0000    10.0000    25.0000     0.0018    -0.0023    -0.0009    20.7870    41.4530     4.5028     2.2984     2.2983    -2.1408    14.4503    14.5061    -0.055
    561  -116.9995     33.983    210.000 213301.000     30.000    41.5367     0.0149   -24.9958     0.0002     0.0007    25.0000    10.0000    10.0000    25.0000    25.0000    10.0000    10.0000    25.0000     0.0018    -0.0023    -0.0010    20.7871    41.4530     4.5076     2.2982     2.2982    -2.1488    14.4503    14.5061    -0.055
    562  -117.1998     34.026    227.000 213301.000     30.000    41.5367     0.0149   -24.9958     0.0002     0.0007    25.0000    10.0000    10.0000    25.0000    25.0000    10.0000    10.0000    25.0000     0.0018    -0.0023    -0.0009    20.7871    41.4530     4.5124     2.2980     2.2980    -2.1568    14.4503    14.5061    -0.055
    563  -117.3979     34.027    232.000 213301.000     30.000    41.5367     0.0149   -24.9958     0.0002     0.0007    25.0000    10.0000    10.0000    25.0000    25.0000    10.0000    10.0000    25.0000     0.0018    -0.0023    -0.0009    20.7870    41.4530     4.5172     2.2978     2.2977    -2.1647    14.4503    14.5061    -0.055
    564  -117.5992     33.975    199.000 213301.000     30.000    41.5367     0.0149   -24.9958     0.0002     0.0007    25.0000    10.0000    10.0000    25.0000    25.0000    10.0000    10.0000    25.0000     0.0018    -0.0023    -0.0010    20.7871    41.4530     4.5220     2.2975     2.2975    -2.1727    14.4503    14.5061    -0.055
    565  -117.8017     33.895    203.000 213301.000     30.000    41.5367     0.0149   -24.9958     0.0002     0.0007    25.0000    10.0000    10.0000    25.0000    25.0000    10.0000    10.0000    25.0000     0.0018    -0.0023    -0.0009    20.7870    41.4530     4.5268     2.2973     2.2972    -2.1808    14.4503    14.5061    -0.055
    566  -118.0014     34.053    191.000 213301.000     30.000    41.5367     0.0149   -24.9958     0.0002     0.0007    25.0000    10.0000    10.0000    25.0000    25.0000    10.0000    10.0000    25.0000     0.0018    -0.0023    -0.0009    20.7871    41.4530     4.5316     2.2970     2.2969    -2.1887    14.4503    14.5061    -0.055
    567  -118.2009     34.027    206.000 213301.000     30.000    41.5367     0.0149   -24.9958     0.0002     0.0007    25.0000    10.0000    10.0000    25.0000    25.0000    10.0000    10.0000    25.0000     0.0018    -0.0023    -0.0009    20.7870    41.4530     4.5363     2.2967     2.2966    -2.1967    14.4503    14.5061    -0.055
    568  -118.3984     33.956    180.000 213301.000     30.000    41.5367     0.0149   -24.9958     0.0002     0.0007    25.0000    10.0000    10.0000    25.0000    25.0000    10.0000    10.0000    25.0000     0.0018    -0.0023    -0.0010    20.7869    41.4530     4.5410     2.2964     2.2963    -2.2045    14.4503    14.5061    -0.055
    569  -118.6005     34.031    200.000 213301.000     30.000    41.5367     0.0149   -24.9958     0.0002     0.0007    25.0000    10.0000    10.0000    25.0000    25.0000    10.0000    10.0000    25.0000     0.0018    -0.0023    -0.0009    20.7869    41.4530     4.5457     2.2960     2.2959    -2.2126    14.4503    14.5061    -0.055
    570  -118.7980     34.155    233.000 213301.000     30.000    41.5367     0.0149   -24.9958     0.0002     0.0007    25.0000    10.0000    10.0000    25.0000    25.0000    10.0000    10.0000    25.0000     0.0018    -0.0023    -0.0009    20.7869    41.4530     4.5504     2.2956     2.2956    -2.2205    14.4503    14.5061    -0.055
    571  -118.9979     34.039    269.000 213301.000     30.000    41.5367     0.0149   -24.9958     0.0002     0.0007    25.0000    10.0000    10.0000    25.0000    25.0000    10.0000    10.0000    25.0000     0.0018    -0.0023    -0.0009    20.7868    41.4530     4.5551     2.2953     2.2952    -2.2284    14.4503    14.5061    -0.055
    572  -119.1979     33.739    402.000 213301.000     30.000    41.5367     0.0149   -24.9958     0.0002     0.0007    25.0000    10.0000    10.0000    25.0000    25.0000    10.0000    10.0000    25.0000     0.0018    -0.0023    -0.0009    20.7869    41.4530     4.5597     2.2949     2.2948    -2.2364    14.4503    14.5061    -0.055
    573  -119.4000     33.879    565.000 213301.000     30.000    41.5367     0.0149   -24.9958     0.0002     0.0007    25.0000    10.0000    10.0000    25.0000    25.0000    10.0000    10.0000    25.0000     0.0018    -0.0023    -0.0009    20.7868    41.4530     4.5645     2.2944     2.2944    -2.2444    14.4503    14.5061    -0.055
    574  -119.6018     33.984    810.000 213301.000     30.000    41.5367     0.0149   -24.9958     0.0002     0.0007    25.0000    10.0000    10.0000    25.0000    25.0000    10.0000    10.0000    25.0000     0.0018    -0.0023    -0.0009    20.7867    41.4530     4.5691     2.2940     2.2939    -2.2525    14.4503    14.5061    -0.055
    575  -119.7996     34.021   1286.000 213301.000     30.000    41.5367     0.0149   -24.9958     0.0002     0.0007    25.0000    10.0000    10.0000    25.0000    25.0000    10.0000    10.0000    25.0000     0.0018    -0.0023    -0.0010    20.7868    41.4530     4.5737     2.2935     2.2935    -2.2603    14.4503    14.5061    -0.055
    576  -119.9979     34.033   1910.000 213301.000     30.000    41.5367     0.0149   -24.9958     0.0002     0.0007    25.0000    10.0000    10.0000    25.0000    25.0000    10.0000    10.0000    25.0000     0.0018    -0.0023    -0.0009    20.7868    41.4530     4.5783     2.2930     2.2930    -2.2682    14.4503    14.5061    -0.055
# Sum of Counts = 1335530
# Center of Mass = -78.514594+/-0.099199
# Full Width Half-Maximum = 57.030887+/-0.051381
# 6:21:55 AM  5/24/2023   scan completed.
