# scan = 423
# date = 8/16/2024
# time = 10:07:35 PM
# proposal = 32912
# experiment = Quantum Phase Transition in Transverse Field Ising Ferromagnet HoV6Sn6
# experiment_number = 1031
# command = scan mag_i 0 5.5 0.05 preset time 10
# builtin_command = scan mag_i 0 5.5 0.05 preset time 10
# users = Aashish Sapkota, Benjamin Ueland, Fei Li, Rob McQueeney, Tianxiong Han
# local_contact = Wei Tian, Bing Li
# scan_title = HoV6Sn6, field dependence of (@h) 0.00001 0.000572), T = 0.27306 K
# monochromator = PG002
# analyzer = Pg002
# sense = +-+
# collimation = 40-40-40-80
# samplename = HoV6Sn6
# sampletype = crystal
# samplemosaic = 30.000000
# latticeconstants = 5.520013,5.520013,9.152013,90.000000,90.000000,120.000000
# ubmatrix = 0.015667,0.005926,0.108953,0.208596,0.104928,-0.008180,-0.000560,0.180868,0.001176
# mode = 0
# plane_normal = -0.010528,0.003477,0.999939
# ubconf = UB12Aug2024_54830PM.ini
# preset_type = normal 
# preset_channel = time
# preset_value = 10.000000
# def_x = mag_i
# def_y = detector
# col_headers = 
#   Pt.      mag_i       time   detector    monitor        mcu         m2         s1         s2        sgl        sgu   slitb_bt   slitb_lf   slitb_rt   slitb_tp   slita_bt   slita_lf   slita_rt   slita_tp        stl        stu         a1         a2          q          h          k          l         ei         ef          e        vti       temp     temp_2         lt         ht      1kpot  sorb_temp       sorb  sample_ht persistent_field
      1    -0.0000     10.000   1877.000 397589.000     16.790    41.5367  -115.5534   -59.6975     0.6032     0.1990    22.0000     7.0000     8.0000    22.0000    23.0000     3.0000     7.0000    23.0000    -3.0005     0.0010    20.7694    41.5442     2.6285     1.9998     0.0000     0.0006    14.4503    14.4453     0.0050     1.6740     1.0000     0.0000     0.3064     0.3129     1.7112     7.9983     8.0000     0.0000     0.000
      2     0.0501     10.000   1903.000 398126.000     16.813    41.5367  -115.5534   -59.6975     0.6032     0.1990    22.0000     7.0000     8.0000    22.0000    23.0000     3.0000     7.0000    23.0000    -3.0005     0.0010    20.7694    41.5442     2.6285     1.9998     0.0000     0.0006    14.4503    14.4453     0.0050     1.6739     1.0000     0.0000     0.2996     0.3073     1.7102     7.9980     8.0000     0.0000     0.050
      3     0.1001     10.000   1856.000 397656.000     16.793    41.5367  -115.5534   -59.6975     0.6032     0.1990    22.0000     7.0000     8.0000    22.0000    23.0000     3.0000     7.0000    23.0000    -3.0005     0.0010    20.7694    41.5442     2.6285     1.9998     0.0000     0.0006    14.4503    14.4453     0.0050     1.6745     1.0000     0.0000     0.2948     0.3035     1.7104     7.9970     8.0000     0.0000     0.100
      4     0.1500     10.000   1952.000 398138.000     16.814    41.5367  -115.5534   -59.6975     0.6032     0.1990    22.0000     7.0000     8.0000    22.0000    23.0000     3.0000     7.0000    23.0000    -3.0005     0.0010    20.7694    41.5442     2.6285     1.9998     0.0000     0.0006    14.4503    14.4453     0.0050     1.6744     1.0000     0.0000     0.2899     0.3001     1.7104     7.9985     8.0000     0.0000     0.150
      5     0.2001     10.000   1864.000 398107.000     16.812    41.5367  -115.5534   -59.6975     0.6032     0.1990    22.0000     7.0000     8.0000    22.0000    23.0000     3.0000     7.0000    23.0000    -3.0005     0.0010    20.7694    41.5442     2.6285     1.9998     0.0000     0.0006    14.4503    14.4453     0.0050     1.6734     1.0000     0.0000     0.2876     0.2995     1.7108     8.0000     8.0000     0.0000     0.200
      6     0.2501     10.000   1822.000 395980.000     16.722    41.5367  -115.5534   -59.6975     0.6032     0.1990    22.0000     7.0000     8.0000    22.0000    23.0000     3.0000     7.0000    23.0000    -3.0005     0.0010    20.7694    41.5442     2.6285     1.9998     0.0000     0.0006    14.4503    14.4453     0.0050     1.6731     1.0000     0.0000     0.2857     0.2993     1.7127     7.9994     8.0000     0.0000     0.250
      7     0.3001     10.000   1885.000 396751.000     16.755    41.5367  -115.5534   -59.6975     0.6032     0.1990    22.0000     7.0000     8.0000    22.0000    23.0000     3.0000     7.0000    23.0000    -3.0005     0.0010    20.7694    41.5442     2.6285     1.9998     0.0000     0.0006    14.4503    14.4453     0.0050     1.6727     1.0000     0.0000     0.2841     0.2996     1.7124     7.9991     8.0000     0.0000     0.300
      8     0.3500     10.000   1872.000 395596.000     16.706    41.5367  -115.5534   -59.6975     0.6032     0.1990    22.0000     7.0000     8.0000    22.0000    23.0000     3.0000     7.0000    23.0000    -3.0005     0.0010    20.7694    41.5441     2.6285     1.9998     0.0000     0.0006    14.4503    14.4453     0.0050     1.6715     1.0000     0.0000     0.2819     0.2992     1.7119     7.9992     8.0000     0.0000     0.350
      9     0.4001     10.000   1805.000 397364.000     16.781    41.5367  -115.5534   -59.6975     0.6032     0.1990    22.0000     7.0000     8.0000    22.0000    23.0000     3.0000     7.0000    23.0000    -3.0005     0.0010    20.7694    41.5442     2.6285     1.9998     0.0000     0.0006    14.4503    14.4453     0.0050     1.6714     1.0000     0.0000     0.2814     0.3005     1.7126     7.9999     8.0000     0.0000     0.400
     10     0.4501     10.000   1795.000 396859.000     16.760    41.5367  -115.5534   -59.6975     0.6032     0.1990    22.0000     7.0000     8.0000    22.0000    23.0000     3.0000     7.0000    23.0000    -3.0005     0.0010    20.7694    41.5442     2.6285     1.9998     0.0000     0.0006    14.4503    14.4453     0.0050     1.6713     1.0000     0.0000     0.2808     0.3016     1.7131     7.9989     8.0000     0.0000     0.450
     11     0.5001     10.000   1726.000 397567.000     16.789    41.5367  -115.5534   -59.6975     0.6032     0.1990    22.0000     7.0000     8.0000    22.0000    23.0000     3.0000     7.0000    23.0000    -3.0005     0.0010    20.7694    41.5442     2.6285     1.9998     0.0000     0.0006    14.4503    14.4453     0.0050     1.6710     1.0000     0.0000     0.2802     0.3027     1.7143     7.9987     8.0000     0.0000     0.500
     12     0.5501     10.000   1814.000 397119.000     16.771    41.5367  -115.5534   -59.6975     0.6032     0.1990    22.0000     7.0000     8.0000    22.0000    23.0000     3.0000     7.0000    23.0000    -3.0005     0.0010    20.7694    41.5442     2.6285     1.9998     0.0000     0.0006    14.4503    14.4453     0.0050     1.6712     1.0000     0.0000     0.2798     0.3039     1.7150     8.0000     8.0000     0.0000     0.550
     13     0.6001     10.000   1786.000 396990.000     16.765    41.5367  -115.5534   -59.6975     0.6032     0.1990    22.0000     7.0000     8.0000    22.0000    23.0000     3.0000     7.0000    23.0000    -3.0005     0.0010    20.7694    41.5442     2.6285     1.9998     0.0000     0.0006    14.4503    14.4453     0.0050     1.6709     1.0000     0.0000     0.2794     0.3052     1.7140     7.9998     8.0000     0.0000     0.600
     14     0.6501     10.000   1774.000 396987.000     16.765    41.5367  -115.5534   -59.6975     0.6032     0.1990    22.0000     7.0000     8.0000    22.0000    23.0000     3.0000     7.0000    23.0000    -3.0005     0.0010    20.7694    41.5442     2.6285     1.9998     0.0000     0.0006    14.4503    14.4453     0.0050     1.6705     1.0000     0.0000     0.2791     0.3064     1.7113     8.0006     8.0000     0.0000     0.650
     15     0.7001     10.000   1844.000 396413.000     16.741    41.5367  -115.5534   -59.6975     0.6032     0.1990    22.0000     7.0000     8.0000    22.0000    23.0000     3.0000     7.0000    23.0000    -3.0005     0.0010    20.7694    41.5442     2.6285     1.9998     0.0000     0.0006    14.4503    14.4453     0.0050     1.6702     1.0000     0.0000     0.2788     0.3077     1.7105     7.9986     8.0000     0.0000     0.700
     16     0.7501     10.000   1764.000 397148.000     16.772    41.5367  -115.5534   -59.6975     0.6032     0.1990    22.0000     7.0000     8.0000    22.0000    23.0000     3.0000     7.0000    23.0000    -3.0005     0.0010    20.7694    41.5442     2.6285     1.9998     0.0000     0.0006    14.4503    14.4453     0.0050     1.6702     1.0000     0.0000     0.2786     0.3090     1.7097     7.9994     8.0000     0.0000     0.750
     17     0.8001     10.000   1685.000 395615.000     16.707    41.5367  -115.5534   -59.6975     0.6032     0.1990    22.0000     7.0000     8.0000    22.0000    23.0000     3.0000     7.0000    23.0000    -3.0005     0.0010    20.7694    41.5442     2.6285     1.9998     0.0000     0.0006    14.4503    14.4453     0.0050     1.6710     1.0000     0.0000     0.2785     0.3102     1.7115     7.9989     8.0000     0.0000     0.800
     18     0.8501     10.000   1685.000 395374.000     16.697    41.5367  -115.5534   -59.6975     0.6032     0.1990    22.0000     7.0000     8.0000    22.0000    23.0000     3.0000     7.0000    23.0000    -3.0005     0.0010    20.7694    41.5442     2.6285     1.9998     0.0000     0.0006    14.4503    14.4453     0.0050     1.6707     1.0000     0.0000     0.2783     0.3114     1.7110     7.9994     8.0000     0.0000     0.850
     19     0.9000     10.000   1668.000 397150.000     16.772    41.5367  -115.5534   -59.6975     0.6032     0.1990    22.0000     7.0000     8.0000    22.0000    23.0000     3.0000     7.0000    23.0000    -3.0005     0.0010    20.7694    41.5442     2.6285     1.9998     0.0000     0.0006    14.4503    14.4453     0.0050     1.6705     1.0000     0.0000     0.2774     0.3120     1.7087     7.9990     8.0000     0.0000     0.900
     20     0.9501     10.000   1674.000 395638.000     16.708    41.5367  -115.5534   -59.6975     0.6032     0.1990    22.0000     7.0000     8.0000    22.0000    23.0000     3.0000     7.0000    23.0000    -3.0005     0.0010    20.7694    41.5442     2.6285     1.9998     0.0000     0.0006    14.4503    14.4453     0.0050     1.6704     1.0000     0.0000     0.2777     0.3135     1.7100     8.0000     8.0000     0.0000     0.950
     21     1.0001     10.000   1695.000 397498.000     16.787    41.5367  -115.5534   -59.6975     0.6032     0.1990    22.0000     7.0000     8.0000    22.0000    23.0000     3.0000     7.0000    23.0000    -3.0005     0.0010    20.7694    41.5442     2.6285     1.9998     0.0000     0.0006    14.4503    14.4453     0.0050     1.6702     1.0000     0.0000     0.2777     0.3149     1.7100     7.9996     8.0000     0.0000     1.000
     22     1.0501     10.000   1540.000 397774.000     16.798    41.5367  -115.5534   -59.6975     0.6032     0.1990    22.0000     7.0000     8.0000    22.0000    23.0000     3.0000     7.0000    23.0000    -3.0005     0.0010    20.7694    41.5442     2.6285     1.9998     0.0000     0.0006    14.4503    14.4453     0.0050     1.6703     1.0000     0.0000     0.2776     0.3162     1.7074     7.9994     8.0000     0.0000     1.050
     23     1.1000     10.000   1621.000 397373.000     16.781    41.5367  -115.5534   -59.6975     0.6032     0.1990    22.0000     7.0000     8.0000    22.0000    23.0000     3.0000     7.0000    23.0000    -3.0005     0.0010    20.7694    41.5442     2.6285     1.9998     0.0000     0.0006    14.4503    14.4453     0.0050     1.6691     1.0000     0.0000     0.2768     0.3167     1.7103     7.9993     8.0000     0.0000     1.100
     24     1.1501     10.000   1568.000 395741.000     16.712    41.5367  -115.5534   -59.6975     0.6032     0.1990    22.0000     7.0000     8.0000    22.0000    23.0000     3.0000     7.0000    23.0000    -3.0005     0.0010    20.7694    41.5442     2.6285     1.9998     0.0000     0.0006    14.4503    14.4453     0.0050     1.6691     1.0000     0.0000     0.2772     0.3183     1.7110     8.0006     8.0000     0.0000     1.150
     25     1.2000     10.000   1527.000 398450.000     16.827    41.5367  -115.5534   -59.6975     0.6032     0.1990    22.0000     7.0000     8.0000    22.0000    23.0000     3.0000     7.0000    23.0000    -3.0005     0.0010    20.7694    41.5442     2.6285     1.9998     0.0000     0.0006    14.4503    14.4453     0.0050     1.6694     1.0000     0.0000     0.2764     0.3189     1.7100     7.9988     8.0000     0.0000     1.200
     26     1.2501     10.000   1498.000 396683.000     16.752    41.5367  -115.5534   -59.6975     0.6032     0.1990    22.0000     7.0000     8.0000    22.0000    23.0000     3.0000     7.0000    23.0000    -3.0005     0.0010    20.7694    41.5442     2.6285     1.9998     0.0000     0.0006    14.4503    14.4453     0.0050     1.6694     1.0000     0.0000     0.2768     0.3205     1.7078     7.9996     8.0000     0.0000     1.250
     27     1.3000     10.000   1479.000 397414.000     16.783    41.5367  -115.5534   -59.6975     0.6032     0.1990    22.0000     7.0000     8.0000    22.0000    23.0000     3.0000     7.0000    23.0000    -3.0005     0.0010    20.7694    41.5442     2.6285     1.9998     0.0000     0.0006    14.4503    14.4453     0.0050     1.6688     1.0000     0.0000     0.2762     0.3211     1.7069     7.9997     8.0000     0.0000     1.300
     28     1.3501     10.000   1486.000 396842.000     16.759    41.5367  -115.5534   -59.6975     0.6032     0.1990    22.0000     7.0000     8.0000    22.0000    23.0000     3.0000     7.0000    23.0000    -3.0005     0.0010    20.7694    41.5442     2.6285     1.9998     0.0000     0.0006    14.4503    14.4453     0.0050     1.6684     1.0000     0.0000     0.2766     0.3226     1.7055     8.0000     8.0000     0.0000     1.350
     29     1.4001     10.000   1351.000 396312.000     16.736    41.5367  -115.5534   -59.6975     0.6032     0.1990    22.0000     7.0000     8.0000    22.0000    23.0000     3.0000     7.0000    23.0000    -3.0005     0.0010    20.7694    41.5442     2.6285     1.9998     0.0000     0.0006    14.4503    14.4453     0.0050     1.6685     1.0000     0.0000     0.2767     0.3239     1.7081     8.0006     8.0000     0.0000     1.400
     30     1.4501     10.000   1289.000 397878.000     16.803    41.5367  -115.5534   -59.6975     0.6032     0.1990    22.0000     7.0000     8.0000    22.0000    23.0000     3.0000     7.0000    23.0000    -3.0005     0.0010    20.7694    41.5442     2.6285     1.9998     0.0000     0.0006    14.4503    14.4453     0.0050     1.6687     1.0000     0.0000     0.2768     0.3250     1.7056     7.9992     8.0000     0.0000     1.450
     31     1.5000     10.000   1222.000 396717.000     16.754    41.5367  -115.5534   -59.6975     0.6032     0.1990    22.0000     7.0000     8.0000    22.0000    23.0000     3.0000     7.0000    23.0000    -3.0005     0.0010    20.7694    41.5442     2.6285     1.9998     0.0000     0.0006    14.4503    14.4453     0.0050     1.6689     1.0000     0.0000     0.2762     0.3256     1.7055     7.9996     8.0000     0.0000     1.500
     32     1.5501     10.000   1203.000 397860.000     16.802    41.5367  -115.5534   -59.6975     0.6032     0.1990    22.0000     7.0000     8.0000    22.0000    23.0000     3.0000     7.0000    23.0000    -3.0005     0.0010    20.7694    41.5442     2.6285     1.9998     0.0000     0.0006    14.4503    14.4453     0.0050     1.6688     1.0000     0.0000     0.2766     0.3270     1.7048     8.0009     8.0000     0.0000     1.550
     33     1.6001     10.000   1195.000 396713.000     16.753    41.5367  -115.5534   -59.6975     0.6032     0.1990    22.0000     7.0000     8.0000    22.0000    23.0000     3.0000     7.0000    23.0000    -3.0005     0.0010    20.7694    41.5442     2.6285     1.9998     0.0000     0.0006    14.4503    14.4453     0.0050     1.6688     1.0000     0.0000     0.2766     0.3280     1.7057     8.0004     8.0000     0.0000     1.600
     34     1.6500     10.000   1146.000 396605.000     16.750    41.5367  -115.5534   -59.6975     0.6032     0.1990    22.0000     7.0000     8.0000    22.0000    23.0000     3.0000     7.0000    23.0000    -3.0005     0.0010    20.7694    41.5442     2.6285     1.9998     0.0000     0.0006    14.4503    14.4453     0.0050     1.6687     1.0000     0.0000     0.2760     0.3285     1.7044     8.0001     8.0000     0.0000     1.650
     35     1.7001     10.000   1031.000 397242.000     16.776    41.5367  -115.5534   -59.6975     0.6032     0.1990    22.0000     7.0000     8.0000    22.0000    23.0000     3.0000     7.0000    23.0000    -3.0005     0.0010    20.7694    41.5442     2.6285     1.9998     0.0000     0.0006    14.4503    14.4453     0.0050     1.6686     1.0000     0.0000     0.2764     0.3298     1.7006     8.0008     8.0000     0.0000     1.700
     36     1.7501     10.000    976.000 397308.000     16.779    41.5367  -115.5534   -59.6975     0.6032     0.1990    22.0000     7.0000     8.0000    22.0000    23.0000     3.0000     7.0000    23.0000    -3.0005     0.0010    20.7694    41.5442     2.6285     1.9998     0.0000     0.0006    14.4503    14.4453     0.0050     1.6685     1.0000     0.0000     0.2766     0.3310     1.7054     8.0006     8.0000     0.0000     1.750
     37     1.8002     10.000   1037.000 396320.000     16.737    41.5367  -115.5534   -59.6975     0.6032     0.1990    22.0000     7.0000     8.0000    22.0000    23.0000     3.0000     7.0000    23.0000    -3.0005     0.0010    20.7694    41.5442     2.6285     1.9998     0.0000     0.0006    14.4503    14.4453     0.0050     1.6680     1.0000     0.0000     0.2766     0.3320     1.7036     8.0017     8.0000     0.0000     1.800
     38     1.8500     10.000    930.000 397538.000     16.788    41.5367  -115.5534   -59.6975     0.6032     0.1990    22.0000     7.0000     8.0000    22.0000    23.0000     3.0000     7.0000    23.0000    -3.0005     0.0010    20.7694    41.5442     2.6285     1.9998     0.0000     0.0006    14.4503    14.4453     0.0050     1.6669     1.0000     0.0000     0.2759     0.3324     1.6979     8.0014     8.0000     0.0000     1.850
     39     1.9001     10.000    970.000 396079.000     16.727    41.5367  -115.5534   -59.6975     0.6032     0.1990    22.0000     7.0000     8.0000    22.0000    23.0000     3.0000     7.0000    23.0000    -3.0005     0.0010    20.7694    41.5442     2.6285     1.9998     0.0000     0.0006    14.4503    14.4453     0.0050     1.6657     1.0000     0.0000     0.2763     0.3337     1.6870     8.0013     8.0000     0.0000     1.900
     40     1.9501     10.000    914.000 396492.000     16.744    41.5367  -115.5534   -59.6975     0.6032     0.1990    22.0000     7.0000     8.0000    22.0000    23.0000     3.0000     7.0000    23.0000    -3.0005     0.0010    20.7694    41.5442     2.6285     1.9998     0.0000     0.0006    14.4503    14.4453     0.0050     1.6650     1.0000     0.0000     0.2763     0.3348     1.6886     7.9999     8.0000     0.0000     1.950
     41     2.0000     10.000    931.000 396222.000     16.733    41.5367  -115.5534   -59.6975     0.6032     0.1990    22.0000     7.0000     8.0000    22.0000    23.0000     3.0000     7.0000    23.0000    -3.0005     0.0010    20.7694    41.5442     2.6285     1.9998     0.0000     0.0006    14.4503    14.4453     0.0050     1.6648     1.0000     0.0000     0.2757     0.3351     1.6876     7.9990     8.0000     0.0000     2.000
     42     2.0500     10.000    952.000 396223.000     16.733    41.5367  -115.5534   -59.6975     0.6032     0.1990    22.0000     7.0000     8.0000    22.0000    23.0000     3.0000     7.0000    23.0000    -3.0005     0.0010    20.7694    41.5442     2.6285     1.9998     0.0000     0.0006    14.4503    14.4453     0.0050     1.6650     1.0000     0.0000     0.2754     0.3358     1.6881     8.0004     8.0000     0.0000     2.050
     43     2.1000     10.000    999.000 397194.000     16.774    41.5367  -115.5534   -59.6975     0.6032     0.1990    22.0000     7.0000     8.0000    22.0000    23.0000     3.0000     7.0000    23.0000    -3.0005     0.0010    20.7694    41.5442     2.6285     1.9998     0.0000     0.0006    14.4503    14.4453     0.0050     1.6654     1.0000     0.0000     0.2752     0.3365     1.6887     7.9999     8.0000     0.0000     2.100
     44     2.1500     10.000    955.000 397475.000     16.786    41.5367  -115.5534   -59.6975     0.6032     0.1990    22.0000     7.0000     8.0000    22.0000    23.0000     3.0000     7.0000    23.0000    -3.0005     0.0010    20.7694    41.5442     2.6285     1.9998     0.0000     0.0006    14.4503    14.4453     0.0050     1.6657     1.0000     0.0000     0.2751     0.3372     1.6886     7.9992     8.0000     0.0000     2.150
     45     2.2000     10.000    966.000 396688.000     16.752    41.5367  -115.5534   -59.6975     0.6032     0.1990    22.0000     7.0000     8.0000    22.0000    23.0000     3.0000     7.0000    23.0000    -3.0005     0.0010    20.7694    41.5442     2.6285     1.9998     0.0000     0.0006    14.4503    14.4453     0.0050     1.6659     1.0000     0.0000     0.2749     0.3380     1.6878     7.9998     8.0000     0.0000     2.200
     46     2.2500     10.000   1001.000 397228.000     16.775    41.5367  -115.5534   -59.6975     0.6032     0.1990    22.0000     7.0000     8.0000    22.0000    23.0000     3.0000     7.0000    23.0000    -3.0005     0.0010    20.7694    41.5442     2.6285     1.9998     0.0000     0.0006    14.4503    14.4453     0.0050     1.6662     1.0000     0.0000     0.2748     0.3387     1.6892     8.0006     8.0000     0.0000     2.250
     47     2.3000     10.000    992.000 396430.000     16.741    41.5367  -115.5534   -59.6975     0.6032     0.1990    22.0000     7.0000     8.0000    22.0000    23.0000     3.0000     7.0000    23.0000    -3.0005     0.0010    20.7694    41.5442     2.6285     1.9998     0.0000     0.0006    14.4503    14.4453     0.0050     1.6661     1.0000     0.0000     0.2747     0.3395     1.6896     8.0011     8.0000     0.0000     2.300
     48     2.3501     10.000   1004.000 396858.000     16.759    41.5367  -115.5534   -59.6975     0.6032     0.1990    22.0000     7.0000     8.0000    22.0000    23.0000     3.0000     7.0000    23.0000    -3.0005     0.0010    20.7694    41.5442     2.6285     1.9998     0.0000     0.0006    14.4503    14.4453     0.0050     1.6662     1.0000     0.0000     0.2753     0.3408     1.6879     7.9995     8.0000     0.0000     2.350
     49     2.4000     10.000    982.000 397426.000     16.783    41.5367  -115.5534   -59.6975     0.6032     0.1990    22.0000     7.0000     8.0000    22.0000    23.0000     3.0000     7.0000    23.0000    -3.0005     0.0010    20.7694    41.5442     2.6285     1.9998     0.0000     0.0006    14.4503    14.4453     0.0050     1.6662     1.0000     0.0000     0.2749     0.3413     1.6868     8.0016     8.0000     0.0000     2.400
     50     2.4500     10.000    996.000 398013.000     16.808    41.5367  -115.5534   -59.6975     0.6032     0.1990    22.0000     7.0000     8.0000    22.0000    23.0000     3.0000     7.0000    23.0000    -3.0005     0.0015    20.7694    41.5442     2.6285     1.9998     0.0000     0.0006    14.4503    14.4453     0.0050     1.6661     1.0000     0.0000     0.2754     0.3425     1.6889     7.9999     8.0000     0.0000     2.450
     51     2.5000     10.000   1051.000 397165.000     16.772    41.5367  -115.5534   -59.6975     0.6035     0.1990    22.0000     7.0000     8.0000    22.0000    23.0000     3.0000     7.0000    23.0000    -3.0005     0.0015    20.7694    41.5442     2.6285     1.9998     0.0000     0.0006    14.4503    14.4453     0.0050     1.6658     1.0000     0.0000     0.2750     0.3429     1.6880     8.0009     8.0000     0.0000     2.500
     52     2.5500     10.000   1010.000 395918.000     16.720    41.5367  -115.5534   -59.6975     0.6035     0.1990    22.0000     7.0000     8.0000    22.0000    23.0000     3.0000     7.0000    23.0000    -3.0005     0.0015    20.7694    41.5442     2.6285     1.9998     0.0000     0.0006    14.4503    14.4453     0.0050     1.6658     1.0000     0.0000     0.2748     0.3435     1.6885     7.9996     8.0000     0.0000     2.550
     53     2.6001     10.000   1010.000 397565.000     16.789    41.5367  -115.5534   -59.6975     0.6035     0.1990    22.0000     7.0000     8.0000    22.0000    23.0000     3.0000     7.0000    23.0000    -3.0005     0.0015    20.7694    41.5442     2.6285     1.9998     0.0000     0.0006    14.4503    14.4453     0.0050     1.6659     1.0000     0.0000     0.2753     0.3448     1.6875     8.0009     8.0000     0.0000     2.600
     54     2.6500     10.000    973.000 396503.000     16.744    41.5367  -115.5534   -59.6975     0.6035     0.1990    22.0000     7.0000     8.0000    22.0000    23.0000     3.0000     7.0000    23.0000    -3.0005     0.0015    20.7694    41.5442     2.6285     1.9998     0.0000     0.0006    14.4503    14.4453     0.0050     1.6662     1.0000     0.0000     0.2748     0.3451     1.6888     8.0015     8.0000     0.0000     2.650
     55     2.7001     10.000    988.000 396744.000     16.755    41.5367  -115.5534   -59.6975     0.6035     0.1990    22.0000     7.0000     8.0000    22.0000    23.0000     3.0000     7.0000    23.0000    -3.0005     0.0015    20.7694    41.5442     2.6285     1.9998     0.0000     0.0006    14.4503    14.4453     0.0050     1.6664     1.0000     0.0000     0.2753     0.3463     1.6878     7.9987     8.0000     0.0000     2.700
     56     2.7500     10.000    955.000 398879.000     16.845    41.5367  -115.5534   -59.6975     0.6035     0.1990    22.0000     7.0000     8.0000    22.0000    23.0000     3.0000     7.0000    23.0000    -3.0005     0.0015    20.7694    41.5442     2.6285     1.9998     0.0000     0.0006    14.4503    14.4453     0.0050     1.6660     1.0000     0.0000     0.2749     0.3467     1.6867     7.9994     8.0000     0.0000     2.750
     57     2.8000     10.000   1002.000 397791.000     16.799    41.5367  -115.5534   -59.6975     0.6035     0.1990    22.0000     7.0000     8.0000    22.0000    23.0000     3.0000     7.0000    23.0000    -3.0005     0.0015    20.7695    41.5442     2.6285     1.9998     0.0000     0.0006    14.4503    14.4453     0.0050     1.6659     1.0000     0.0000     0.2748     0.3473     1.6872     8.0015     8.0000     0.0000     2.800
     58     2.8501     10.000   1060.000 398053.000     16.810    41.5367  -115.5534   -59.6975     0.6035     0.1990    22.0000     7.0000     8.0000    22.0000    23.0000     3.0000     7.0000    23.0000    -3.0005     0.0015    20.7694    41.5442     2.6285     1.9998     0.0000     0.0006    14.4503    14.4453     0.0050     1.6662     1.0000     0.0000     0.2753     0.3485     1.6881     8.0003     8.0000     0.0000     2.850
     59     2.9000     10.000   1024.000 396582.000     16.748    41.5367  -115.5534   -59.6975     0.6035     0.1990    22.0000     7.0000     8.0000    22.0000    23.0000     3.0000     7.0000    23.0000    -3.0005     0.0015    20.7694    41.5442     2.6285     1.9998     0.0000     0.0006    14.4503    14.4453     0.0050     1.6664     1.0000     0.0000     0.2748     0.3488     1.6867     8.0010     8.0000     0.0000     2.900
     60     2.9501     10.000   1008.000 396725.000     16.754    41.5367  -115.5534   -59.6975     0.6035     0.1990    22.0000     7.0000     8.0000    22.0000    23.0000     3.0000     7.0000    23.0000    -3.0005     0.0015    20.7695    41.5442     2.6285     1.9998     0.0000     0.0006    14.4503    14.4453     0.0050     1.6666     1.0000     0.0000     0.2753     0.3500     1.6884     8.0005     8.0000     0.0000     2.950
     61     3.0000     10.000   1022.000 396489.000     16.744    41.5367  -115.5534   -59.6975     0.6035     0.1990    22.0000     7.0000     8.0000    22.0000    23.0000     3.0000     7.0000    23.0000    -3.0005     0.0015    20.7695    41.5441     2.6285     1.9998     0.0000     0.0006    14.4503    14.4453     0.0050     1.6667     1.0000     0.0000     0.2748     0.3503     1.6878     7.9997     8.0000     0.0000     3.000
     62     3.0500     10.000   1024.000 397540.000     16.788    41.5367  -115.5534   -59.6975     0.6035     0.1990    22.0000     7.0000     8.0000    22.0000    23.0000     3.0000     7.0000    23.0000    -3.0005     0.0015    20.7695    41.5442     2.6285     1.9998     0.0000     0.0006    14.4503    14.4453     0.0050     1.6668     1.0000     0.0000     0.2748     0.3509     1.6858     8.0000     8.0000     0.0000     3.050
     63     3.1001     10.000   1067.000 395924.000     16.720    41.5367  -115.5534   -59.6975     0.6035     0.1990    22.0000     7.0000     8.0000    22.0000    23.0000     3.0000     7.0000    23.0000    -3.0005     0.0015    20.7695    41.5442     2.6285     1.9998     0.0000     0.0006    14.4503    14.4453     0.0050     1.6670     1.0000     0.0000     0.2752     0.3520     1.6885     7.9986     8.0000     0.0000     3.100
     64     3.1500     10.000   1098.000 396637.000     16.750    41.5367  -115.5534   -59.6975     0.6035     0.1990    22.0000     7.0000     8.0000    22.0000    23.0000     3.0000     7.0000    23.0000    -3.0005     0.0015    20.7695    41.5442     2.6285     1.9998     0.0000     0.0006    14.4503    14.4453     0.0050     1.6672     1.0000     0.0000     0.2748     0.3523     1.6893     8.0010     8.0000     0.0000     3.150
     65     3.2000     10.000   1116.000 398912.000     16.846    41.5367  -115.5534   -59.6975     0.6038     0.1990    22.0000     7.0000     8.0000    22.0000    23.0000     3.0000     7.0000    23.0000    -3.0005     0.0020    20.7695    41.5441     2.6285     1.9998     0.0000     0.0006    14.4503    14.4453     0.0050     1.6671     1.0000     0.0000     0.2747     0.3528     1.6876     7.9992     8.0000     0.0000     3.200
     66     3.2501     10.000   1078.000 397399.000     16.782    41.5367  -115.5534   -59.6975     0.6038     0.1990    22.0000     7.0000     8.0000    22.0000    23.0000     3.0000     7.0000    23.0000    -3.0005     0.0020    20.7695    41.5442     2.6285     1.9998     0.0000     0.0006    14.4503    14.4453     0.0050     1.6672     1.0000     0.0000     0.2751     0.3540     1.6874     8.0000     8.0000     0.0000     3.250
     67     3.3000     10.000   1096.000 397218.000     16.775    41.5367  -115.5534   -59.6975     0.6038     0.1990    22.0000     7.0000     8.0000    22.0000    23.0000     3.0000     7.0000    23.0000    -3.0005     0.0020    20.7695    41.5442     2.6285     1.9998     0.0000     0.0006    14.4503    14.4453     0.0050     1.6672     1.0000     0.0000     0.2748     0.3543     1.6874     7.9993     8.0000     0.0000     3.300
     68     3.3501     10.000   1108.000 396418.000     16.741    41.5367  -115.5534   -59.6975     0.6038     0.1990    22.0000     7.0000     8.0000    22.0000    23.0000     3.0000     7.0000    23.0000    -3.0005     0.0020    20.7695    41.5442     2.6285     1.9998     0.0000     0.0006    14.4503    14.4453     0.0050     1.6675     1.0000     0.0000     0.2752     0.3553     1.6873     7.9994     8.0000     0.0000     3.350
     69     3.4000     10.000   1089.000 397289.000     16.778    41.5367  -115.5534   -59.6975     0.6038     0.1990    22.0000     7.0000     8.0000    22.0000    23.0000     3.0000     7.0000    23.0000    -3.0005     0.0020    20.7695    41.5442     2.6285     1.9998     0.0000     0.0006    14.4503    14.4453     0.0050     1.6676     1.0000     0.0000     0.2748     0.3556     1.6862     7.9997     8.0000     0.0000     3.400
     70     3.4501     10.000   1104.000 397212.000     16.774    41.5367  -115.5534   -59.6975     0.6038     0.1990    22.0000     7.0000     8.0000    22.0000    23.0000     3.0000     7.0000    23.0000    -3.0005     0.0020    20.7695    41.5442     2.6285     1.9998     0.0000     0.0006    14.4503    14.4453     0.0050     1.6676     1.0000     0.0000     0.2753     0.3566     1.6862     8.0001     8.0000     0.0000     3.450
     71     3.5000     10.000   1084.000 396362.000     16.739    41.5367  -115.5534   -59.6975     0.6038     0.1990    22.0000     7.0000     8.0000    22.0000    23.0000     3.0000     7.0000    23.0000    -3.0005     0.0020    20.7695    41.5442     2.6285     1.9998     0.0000     0.0006    14.4503    14.4453     0.0050     1.6676     1.0000     0.0000     0.2748     0.3569     1.6873     7.9994     8.0000     0.0000     3.500
     72     3.5500     10.000   1045.000 396908.000     16.762    41.5367  -115.5534   -59.6975     0.6038     0.1990    22.0000     7.0000     8.0000    22.0000    23.0000     3.0000     7.0000    23.0000    -3.0005     0.0020    20.7695    41.5442     2.6285     1.9998     0.0000     0.0006    14.4503    14.4453     0.0050     1.6677     1.0000     0.0000     0.2747     0.3573     1.6866     7.9999     8.0000     0.0000     3.550
     73     3.6000     10.000   1083.000 395547.000     16.704    41.5367  -115.5534   -59.6975     0.6038     0.1988    22.0000     7.0000     8.0000    22.0000    23.0000     3.0000     7.0000    23.0000    -3.0005     0.0020    20.7695    41.5442     2.6285     1.9998     0.0000     0.0006    14.4503    14.4453     0.0050     1.6678     1.0000     0.0000     0.2746     0.3579     1.6870     7.9992     8.0000     0.0000     3.600
     74     3.6500     10.000   1100.000 397544.000     16.788    41.5367  -115.5534   -59.6975     0.6038     0.1988    22.0000     7.0000     8.0000    22.0000    23.0000     3.0000     7.0000    23.0000    -3.0005     0.0020    20.7695    41.5442     2.6285     1.9998     0.0000     0.0006    14.4503    14.4453     0.0050     1.6679     1.0000     0.0000     0.2746     0.3584     1.6873     7.9998     8.0000     0.0000     3.650
     75     3.7000     10.000   1038.000 398064.000     16.810    41.5367  -115.5534   -59.6975     0.6038     0.1988    22.0000     7.0000     8.0000    22.0000    23.0000     3.0000     7.0000    23.0000    -3.0005     0.0020    20.7695    41.5441     2.6285     1.9998     0.0000     0.0006    14.4503    14.4453     0.0050     1.6679     1.0000     0.0000     0.2745     0.3589     1.6870     8.0002     8.0000     0.0000     3.700
     76     3.7500     10.000   1086.000 397203.000     16.774    41.5367  -115.5534   -59.6975     0.6038     0.1988    22.0000     7.0000     8.0000    22.0000    23.0000     3.0000     7.0000    23.0000    -3.0005     0.0020    20.7695    41.5442     2.6285     1.9998     0.0000     0.0006    14.4503    14.4453     0.0050     1.6679     1.0000     0.0000     0.2744     0.3594     1.6869     8.0016     8.0000     0.0000     3.750
     77     3.8000     10.000   1068.000 397369.000     16.781    41.5367  -115.5534   -59.6975     0.6038     0.1988    22.0000     7.0000     8.0000    22.0000    23.0000     3.0000     7.0000    23.0000    -3.0005     0.0020    20.7695    41.5441     2.6285     1.9998     0.0000     0.0006    14.4503    14.4453     0.0050     1.6682     1.0000     0.0000     0.2744     0.3599     1.6873     8.0003     8.0000     0.0000     3.800
     78     3.8502     10.000   1069.000 396277.000     16.735    41.5367  -115.5534   -59.6975     0.6038     0.1988    22.0000     7.0000     8.0000    22.0000    23.0000     3.0000     7.0000    23.0000    -3.0005     0.0020    20.7695    41.5442     2.6285     1.9998     0.0000     0.0006    14.4503    14.4453     0.0050     1.6684     1.0000     0.0000     0.2749     0.3610     1.6874     7.9998     8.0000     0.0000     3.850
     79     3.9000     10.000   1124.000 397368.000     16.781    41.5367  -115.5534   -59.6975     0.6038     0.1988    22.0000     7.0000     8.0000    22.0000    23.0000     3.0000     7.0000    23.0000    -3.0005     0.0020    20.7695    41.5442     2.6285     1.9998     0.0000     0.0006    14.4503    14.4453     0.0050     1.6685     1.0000     0.0000     0.2745     0.3612     1.6867     8.0003     8.0000     0.0000     3.900
     80     3.9501     10.000   1056.000 396575.000     16.748    41.5367  -115.5534   -59.6975     0.6040     0.1988    22.0000     7.0000     8.0000    22.0000    23.0000     3.0000     7.0000    23.0000    -3.0005     0.0020    20.7695    41.5442     2.6285     1.9998     0.0000     0.0006    14.4503    14.4453     0.0050     1.6686     1.0000     0.0000     0.2750     0.3622     1.6874     8.0004     8.0000     0.0000     3.950
     81     4.0001     10.000   1109.000 396662.000     16.751    41.5367  -115.5534   -59.6975     0.6040     0.1988    22.0000     7.0000     8.0000    22.0000    23.0000     3.0000     7.0000    23.0000    -3.0005     0.0020    20.7695    41.5442     2.6285     1.9998     0.0000     0.0006    14.4503    14.4453     0.0050     1.6688     1.0000     0.0000     0.2752     0.3629     1.6879     7.9987     8.0000     0.0000     4.000
     82     4.0501     10.000   1136.000 396599.000     16.749    41.5367  -115.5534   -59.6975     0.6040     0.1988    22.0000     7.0000     8.0000    22.0000    23.0000     3.0000     7.0000    23.0000    -3.0005     0.0025    20.7695    41.5442     2.6285     1.9998     0.0000     0.0006    14.4503    14.4453     0.0050     1.6690     1.0000     0.0000     0.2753     0.3636     1.6879     8.0010     8.0000     0.0000     4.050
     83     4.1000     10.000   1076.000 396027.000     16.724    41.5367  -115.5534   -59.6975     0.6040     0.1988    22.0000     7.0000     8.0000    22.0000    23.0000     3.0000     7.0000    23.0000    -3.0005     0.0025    20.7695    41.5442     2.6285     1.9998     0.0000     0.0006    14.4503    14.4453     0.0050     1.6691     1.0000     0.0000     0.2748     0.3637     1.6876     7.9991     8.0000     0.0000     4.100
     84     4.1501     10.000   1134.000 397243.000     16.776    41.5367  -115.5534   -59.6975     0.6040     0.1988    22.0000     7.0000     8.0000    22.0000    23.0000     3.0000     7.0000    23.0000    -3.0005     0.0025    20.7695    41.5442     2.6285     1.9998     0.0000     0.0006    14.4503    14.4453     0.0050     1.6692     1.0000     0.0000     0.2752     0.3647     1.6862     8.0011     8.0000     0.0000     4.150
     85     4.2001     10.000   1113.000 396615.000     16.749    41.5367  -115.5534   -59.6975     0.6040     0.1988    22.0000     7.0000     8.0000    22.0000    23.0000     3.0000     7.0000    23.0000    -3.0005     0.0025    20.7695    41.5442     2.6285     1.9998     0.0000     0.0006    14.4503    14.4453     0.0050     1.6694     1.0000     0.0000     0.2754     0.3654     1.6875     8.0010     8.0000     0.0000     4.200
     86     4.2500     10.000   1097.000 395392.000     16.698    41.5367  -115.5534   -59.6975     0.6040     0.1988    22.0000     7.0000     8.0000    22.0000    23.0000     3.0000     7.0000    23.0000    -3.0005     0.0025    20.7695    41.5442     2.6285     1.9998     0.0000     0.0006    14.4503    14.4453     0.0050     1.6695     1.0000     0.0000     0.2750     0.3655     1.6869     7.9999     8.0000     0.0000     4.250
     87     4.3001     10.000   1144.000 398614.000     16.834    41.5367  -115.5534   -59.6975     0.6040     0.1988    22.0000     7.0000     8.0000    22.0000    23.0000     3.0000     7.0000    23.0000    -3.0005     0.0025    20.7695    41.5442     2.6285     1.9998     0.0000     0.0006    14.4503    14.4453     0.0050     1.6698     1.0000     0.0000     0.2753     0.3664     1.6878     7.9991     8.0000     0.0000     4.300
     88     4.3500     10.000   1121.000 397572.000     16.790    41.5367  -115.5534   -59.6975     0.6040     0.1988    22.0000     7.0000     8.0000    22.0000    23.0000     3.0000     7.0000    23.0000    -3.0005     0.0025    20.7695    41.5442     2.6285     1.9998     0.0000     0.0006    14.4503    14.4453     0.0050     1.6699     1.0000     0.0000     0.2748     0.3665     1.6881     7.9996     8.0000     0.0000     4.350
     89     4.4001     10.000   1131.000 397043.000     16.767    41.5367  -115.5534   -59.6975     0.6040     0.1988    22.0000     7.0000     8.0000    22.0000    23.0000     3.0000     7.0000    23.0000    -3.0000     0.0025    20.7695    41.5442     2.6285     1.9998     0.0000     0.0006    14.4503    14.4453     0.0050     1.6701     1.0000     0.0000     0.2752     0.3674     1.6869     8.0004     8.0000     0.0000     4.400
     90     4.4500     10.000   1210.000 396995.000     16.765    41.5367  -115.5534   -59.6975     0.6040     0.1988    22.0000     7.0000     8.0000    22.0000    23.0000     3.0000     7.0000    23.0000    -3.0000     0.0025    20.7695    41.5442     2.6285     1.9998     0.0000     0.0006    14.4503    14.4453     0.0050     1.6701     1.0000     0.0000     0.2748     0.3675     1.6870     7.9993     8.0000     0.0000     4.450
     91     4.5000     10.000   1164.000 397828.000     16.800    41.5367  -115.5534   -59.6975     0.6040     0.1988    22.0000     7.0000     8.0000    22.0000    23.0000     3.0000     7.0000    23.0000    -3.0000     0.0025    20.7695    41.5442     2.6285     1.9998     0.0000     0.0006    14.4503    14.4453     0.0050     1.6703     1.0000     0.0000     0.2747     0.3679     1.6896     8.0001     8.0000     0.0000     4.500
     92     4.5500     10.000   1079.000 398270.000     16.819    41.5367  -115.5534   -59.6975     0.6040     0.1988    22.0000     7.0000     8.0000    22.0000    23.0000     3.0000     7.0000    23.0000    -3.0000     0.0025    20.7695    41.5442     2.6285     1.9998     0.0000     0.0006    14.4503    14.4453     0.0050     1.6712     1.0000     0.0000     0.2747     0.3683     1.6906     8.0009     8.0000     0.0000     4.550
     93     4.6000     10.000   1220.000 396290.000     16.736    41.5367  -115.5534   -59.6975     0.6040     0.1988    22.0000     7.0000     8.0000    22.0000    23.0000     3.0000     7.0000    23.0000    -3.0000     0.0025    20.7695    41.5442     2.6285     1.9998     0.0000     0.0006    14.4503    14.4453     0.0050     1.6723     1.0000     0.0000     0.2746     0.3688     1.6941     7.9991     8.0000     0.0000     4.600
     94     4.6500     10.000   1143.000 397505.000     16.787    41.5367  -115.5534   -59.6975     0.6040     0.1988    22.0000     7.0000     8.0000    22.0000    23.0000     3.0000     7.0000    23.0000    -3.0000     0.0025    20.7696    41.5441     2.6285     1.9998     0.0000     0.0006    14.4503    14.4453     0.0050     1.6734     1.0000     0.0000     0.2746     0.3692     1.6954     7.9989     8.0000     0.0000     4.650
     95     4.7002     10.000   1118.000 396734.000     16.754    41.5367  -115.5534   -59.6975     0.6040     0.1988    22.0000     7.0000     8.0000    22.0000    23.0000     3.0000     7.0000    23.0000    -3.0000     0.0025    20.7695    41.5442     2.6285     1.9998     0.0000     0.0006    14.4503    14.4453     0.0050     1.6741     1.0000     0.0000     0.2750     0.3702     1.6985     7.9992     8.0000     0.0000     4.700
     96     4.7502     10.000   1166.000 396729.000     16.754    41.5367  -115.5534   -59.6975     0.6040     0.1990    22.0000     7.0000     8.0000    22.0000    23.0000     3.0000     7.0000    23.0000    -3.0000     0.0025    20.7696    41.5442     2.6285     1.9998     0.0000     0.0006    14.4503    14.4453     0.0050     1.6747     1.0000     0.0000     0.2752     0.3709     1.6987     8.0000     8.0000     0.0000     4.750
     97     4.8000     10.000   1137.000 397626.000     16.792    41.5367  -115.5534   -59.6975     0.6040     0.1990    22.0000     7.0000     8.0000    22.0000    23.0000     3.0000     7.0000    23.0000    -3.0000     0.0025    20.7696    41.5442     2.6285     1.9998     0.0000     0.0006    14.4503    14.4453     0.0050     1.6751     1.0000     0.0000     0.2749     0.3710     1.7008     7.9992     8.0000     0.0000     4.800
     98     4.8500     10.000   1114.000 397137.000     16.771    41.5367  -115.5534   -59.6975     0.6040     0.1990    22.0000     7.0000     8.0000    22.0000    23.0000     3.0000     7.0000    23.0000    -3.0000     0.0025    20.7696    41.5442     2.6285     1.9998     0.0000     0.0006    14.4503    14.4453     0.0050     1.6755     1.0000     0.0000     0.2748     0.3714     1.7025     8.0015     8.0000     0.0000     4.850
     99     4.9001     10.000   1140.000 397983.000     16.807    41.5367  -115.5534   -59.6975     0.6040     0.1990    22.0000     7.0000     8.0000    22.0000    23.0000     3.0000     7.0000    23.0000    -3.0000     0.0025    20.7696    41.5442     2.6285     1.9998     0.0000     0.0006    14.4503    14.4453     0.0050     1.6758     1.0000     0.0000     0.2752     0.3723     1.7013     8.0008     8.0000     0.0000     4.900
    100     4.9502     10.000   1168.000 397884.000     16.803    41.5367  -115.5534   -59.6975     0.6040     0.1990    22.0000     7.0000     8.0000    22.0000    23.0000     3.0000     7.0000    23.0000    -3.0000     0.0025    20.7696    41.5442     2.6285     1.9998     0.0000     0.0006    14.4503    14.4453     0.0050     1.6759     1.0000     0.0000     0.2754     0.3729     1.7022     7.9979     8.0000     0.0000     4.950
    101     5.0002     10.000   1242.000 398131.000     16.813    41.5367  -115.5534   -59.6975     0.6040     0.1990    22.0000     7.0000     8.0000    22.0000    23.0000     3.0000     7.0000    23.0000    -3.0000     0.0025    20.7696    41.5442     2.6285     1.9998     0.0000     0.0006    14.4503    14.4453     0.0050     1.6759     1.0000     0.0000     0.2755     0.3735     1.7023     8.0019     8.0000     0.0000     5.000
    102     5.0500     10.000   1182.000 396215.000     16.732    41.5367  -115.5534   -59.6975     0.6040     0.1990    22.0000     7.0000     8.0000    22.0000    23.0000     3.0000     7.0000    23.0000    -3.0000     0.0025    20.7696    41.5442     2.6285     1.9998     0.0000     0.0006    14.4503    14.4453     0.0050     1.6760     1.0000     0.0000     0.2751     0.3735     1.7025     8.0008     8.0000     0.0000     5.050
    103     5.1000     10.000   1210.000 397271.000     16.777    41.5367  -115.5534   -59.6975     0.6040     0.1990    22.0000     7.0000     8.0000    22.0000    23.0000     3.0000     7.0000    23.0000    -3.0000     0.0025    20.7696    41.5442     2.6285     1.9998     0.0000     0.0006    14.4503    14.4453     0.0050     1.6761     1.0000     0.0000     0.2750     0.3739     1.7026     7.9984     8.0000     0.0000     5.100
    104     5.1501     10.000   1178.000 396966.000     16.764    41.5367  -115.5534   -59.6975     0.6040     0.1990    22.0000     7.0000     8.0000    22.0000    23.0000     3.0000     7.0000    23.0000    -3.0000     0.0025    20.7696    41.5442     2.6285     1.9998     0.0000     0.0006    14.4503    14.4453     0.0050     1.6761     1.0000     0.0000     0.2754     0.3747     1.7021     8.0001     8.0000     0.0000     5.150
    105     5.2000     10.000   1125.000 397637.000     16.792    41.5367  -115.5534   -59.6975     0.6040     0.1990    22.0000     7.0000     8.0000    22.0000    23.0000     3.0000     7.0000    23.0000    -3.0000     0.0025    20.7696    41.5442     2.6285     1.9998     0.0000     0.0006    14.4503    14.4453     0.0050     1.6760     1.0000     0.0000     0.2751     0.3748     1.7031     7.9996     8.0000     0.0000     5.200
    106     5.2500     10.000   1180.000 397196.000     16.774    41.5367  -115.5534   -59.6975     0.6040     0.1990    22.0000     7.0000     8.0000    22.0000    23.0000     3.0000     7.0000    23.0000    -3.0000     0.0025    20.7696    41.5442     2.6285     1.9998     0.0000     0.0006    14.4503    14.4453     0.0050     1.6760     1.0000     0.0000     0.2750     0.3751     1.7064     7.9994     8.0000     0.0000     5.250
    107     5.3001     10.000   1129.000 397119.000     16.771    41.5367  -115.5534   -59.6975     0.6040     0.1990    22.0000     7.0000     8.0000    22.0000    23.0000     3.0000     7.0000    23.0000    -3.0000     0.0025    20.7696    41.5442     2.6285     1.9998     0.0000     0.0006    14.4503    14.4453     0.0050     1.6761     1.0000     0.0000     0.2753     0.3759     1.7025     8.0005     8.0000     0.0000     5.300
    108     5.3500     10.000   1162.000 397484.000     16.786    41.5367  -115.5534   -59.6975     0.6042     0.1990    22.0000     7.0000     8.0000    22.0000    23.0000     3.0000     7.0000    23.0000    -3.0000     0.0025    20.7696    41.5442     2.6285     1.9998     0.0000     0.0006    14.4503    14.4453     0.0050     1.6762     1.0000     0.0000     0.2750     0.3760     1.7028     7.9990     8.0000     0.0000     5.350
    109     5.4000     10.000   1135.000 398155.000     16.814    41.5367  -115.5534   -59.6975     0.6042     0.1990    22.0000     7.0000     8.0000    22.0000    23.0000     3.0000     7.0000    23.0000    -3.0000     0.0025    20.7696    41.5442     2.6285     1.9998     0.0000     0.0006    14.4503    14.4453     0.0050     1.6762     1.0000     0.0000     0.2750     0.3764     1.7043     8.0012     8.0000     0.0000     5.400
    110     5.4500     10.000   1129.000 397502.000     16.787    41.5367  -115.5534   -59.6975     0.6042     0.1990    22.0000     7.0000     8.0000    22.0000    23.0000     3.0000     7.0000    23.0000    -3.0000     0.0025    20.7696    41.5442     2.6285     1.9998     0.0000     0.0006    14.4503    14.4453     0.0050     1.6761     1.0000     0.0000     0.2749     0.3767     1.7023     8.0016     8.0000     0.0000     5.450
    111     5.5000     10.000   1148.000 397719.000     16.796    41.5367  -115.5534   -59.6975     0.6042     0.1990    22.0000     7.0000     8.0000    22.0000    23.0000     3.0000     7.0000    23.0000    -3.0000     0.0025    20.7696    41.5442     2.6285     1.9998     0.0000     0.0006    14.4503    14.4453     0.0050     1.6760     1.0000     0.0000     0.2748     0.3771     1.7028     8.0000     8.0000     0.0000     5.500
# Sum of Counts = 138683
# Center of Mass = 2.497639+/-0.010515
# Full Width Half-Maximum = 3.380423+/-0.007741
# 11:36:41 PM  8/16/2024   scan completed.
