# scan = 334
# date = 8/15/2024
# time = 5:27:48 AM
# proposal = 32912
# experiment = Quantum Phase Transition in Transverse Field Ising Ferromagnet HoV6Sn6
# experiment_number = 1031
# command = scan h 1.98 k 0 l 0 e -0.2 4 0.04 preset time 120
# builtin_command = scan h 1.98 k 0 l 0 e -0.2 4 0.04 preset time 120
# users = Aashish Sapkota, Benjamin Ueland, Fei Li, Rob McQueeney, Tianxiong Han
# local_contact = Wei Tian, Bing Li
# scan_title = HoV6Sn6, constant Q-scan, (1p98 0 0), T=0.25595 K, H=-0 T
# monochromator = PG002
# analyzer = Pg002
# sense = +-+
# collimation = 40-40-40-80
# samplename = HoV6Sn6
# sampletype = crystal
# samplemosaic = 30.000000
# latticeconstants = 5.520013,5.520013,9.152013,90.000000,90.000000,120.000000
# ubmatrix = 0.015667,0.005926,0.108953,0.208596,0.104928,-0.008180,-0.000560,0.180868,0.001176
# mode = 0
# plane_normal = -0.010528,0.003477,0.999939
# ubconf = UB12Aug2024_54830PM.ini
# preset_type = normal 
# preset_channel = time
# preset_value = 120.000000
# def_x = e
# def_y = detector
# col_headers = 
#   Pt.          h          k          l          e       time   detector    monitor        mcu         m2      mag_i         s1         s2        sgl        sgu   slitb_bt   slitb_lf   slitb_rt   slitb_tp   slita_bt   slita_lf   slita_rt   slita_tp        stl        stu         a1         a2          q         ei         ef        vti       temp     temp_2         lt         ht      1kpot  sorb_temp       sorb  sample_ht persistent_field
      1     1.9794     0.0000     0.0008    -0.1905    120.000    240.000 4701569.000    198.549    41.5367     0.0001  -114.7638   -58.8092     0.6032     0.1990    22.0000     7.0000     8.0000    22.0000    23.0000     3.0000     7.0000    23.0000    -3.0005     0.0010    20.6217    41.2532     2.6017    14.4503    14.6408     1.6655     1.0000     0.0000     0.2559     0.2603     1.6987     1.7526     0.0000     0.0000    -0.000
      2     1.9800     0.0000     0.0000    -0.1597    120.000    337.000 4697434.000    198.375    41.5367     0.0000  -114.8559   -58.8613     0.6032     0.1990    22.0000     7.0000     8.0000    22.0000    23.0000     3.0000     7.0000    23.0000    -3.0005     0.0010    20.6504    41.2985     2.6024    14.4503    14.6100     1.6654     1.0000     0.0000     0.2559     0.2603     1.7019     1.7525     0.0000     0.0000    -0.000
      3     1.9800     0.0000     0.0001    -0.1196    120.000    457.000 4711705.000    198.977    41.5367     0.0001  -114.9481   -58.9076     0.6032     0.1990    22.0000     7.0000     8.0000    22.0000    23.0000     3.0000     7.0000    23.0000    -3.0005     0.0010    20.6803    41.3580     2.6024    14.4503    14.5699     1.6655     1.0000     0.0000     0.2559     0.2603     1.6986     1.7526     0.0000     0.0000    -0.000
      4     1.9800     0.0000     0.0000    -0.0795    120.000    757.000 4697297.000    198.369    41.5367    -0.0000  -115.0403   -58.9512     0.6032     0.1990    22.0000     7.0000     8.0000    22.0000    23.0000     3.0000     7.0000    23.0000    -3.0005     0.0010    20.7102    41.4176     2.6024    14.4503    14.5298     1.6655     1.0000     0.0000     0.2559     0.2603     1.7002     1.7522     0.0000     0.0000    -0.000
      5     1.9800     0.0000     0.0001    -0.0395    120.000   1456.000 4710458.000    198.925    41.5367    -0.0000  -115.1327   -58.9966     0.6032     0.1990    22.0000     7.0000     8.0000    22.0000    23.0000     3.0000     7.0000    23.0000    -3.0005     0.0010    20.7393    41.4774     2.6024    14.4503    14.4898     1.6655     1.0000     0.0000     0.2560     0.2603     1.6989     1.7524     0.0000     0.0000    -0.000
      6     1.9800     0.0000     0.0000     0.0003    120.000   2409.000 4709197.000    198.871    41.5367     0.0000  -115.2251   -59.0415     0.6032     0.1990    22.0000     7.0000     8.0000    22.0000    23.0000     3.0000     7.0000    23.0000    -3.0005     0.0010    20.7697    41.5372     2.6024    14.4503    14.4500     1.6655     1.0000     0.0000     0.2560     0.2603     1.6993     1.7524     0.0000     0.0000    -0.000
      7     1.9800     0.0000     0.0001     0.0403    120.000   2585.000 4705313.000    198.707    41.5367    -0.0000  -115.3176   -59.0868     0.6032     0.1990    22.0000     7.0000     8.0000    22.0000    23.0000     3.0000     7.0000    23.0000    -3.0005     0.0010    20.7998    41.5974     2.6024    14.4503    14.4100     1.6655     1.0000     0.0000     0.2560     0.2603     1.7004     1.7523     0.0000     0.0000    -0.000
      8     1.9800     0.0000    -0.0000     0.0802    120.000   1751.000 4705661.000    198.722    41.5367    -0.0000  -115.4102   -59.1303     0.6032     0.1990    22.0000     7.0000     8.0000    22.0000    23.0000     3.0000     7.0000    23.0000    -3.0005     0.0010    20.8298    41.6578     2.6024    14.4503    14.3701     1.6655     1.0000     0.0000     0.2560     0.2603     1.6983     1.7525     0.0000     0.0000    -0.000
      9     1.9800     0.0000    -0.0000     0.1200    120.000    974.000 4703084.000    198.613    41.5367    -0.0000  -115.5029   -59.1756     0.6032     0.1990    22.0000     7.0000     8.0000    22.0000    23.0000     3.0000     7.0000    23.0000    -3.0005     0.0010    20.8605    41.7184     2.6024    14.4503    14.3303     1.6655     1.0000     0.0000     0.2560     0.2603     1.6991     1.7526     0.0000     0.0000    -0.000
     10     1.9800     0.0000     0.0000     0.1601    120.000    549.000 4704906.000    198.690    41.5367    -0.0000  -115.5957   -59.2208     0.6032     0.1990    22.0000     7.0000     8.0000    22.0000    23.0000     3.0000     7.0000    23.0000    -3.0005     0.0010    20.8914    41.7795     2.6024    14.4503    14.2902     1.6654     1.0000     0.0000     0.2560     0.2603     1.6996     1.7527     0.0000     0.0000    -0.000
     11     1.9799     0.0000    -0.0000     0.2003    120.000    302.000 4721159.000    199.377    41.5367     0.0000  -115.6886   -59.2649     0.6032     0.1990    22.0000     7.0000     8.0000    22.0000    23.0000     3.0000     7.0000    23.0000    -3.0005     0.0010    20.9223    41.8412     2.6023    14.4503    14.2500     1.6655     1.0000     0.0000     0.2560     0.2603     1.6993     1.7521     0.0000     0.0000    -0.000
     12     1.9800     0.0000     0.0000     0.2401    120.000    274.000 4707639.000    198.806    41.5367    -0.0001  -115.7815   -59.3113     0.6032     0.1990    22.0000     7.0000     8.0000    22.0000    23.0000     3.0000     7.0000    23.0000    -3.0005     0.0010    20.9540    41.9025     2.6024    14.4503    14.2102     1.6655     1.0000     0.0000     0.2560     0.2603     1.6984     1.7525     0.0000     0.0000    -0.000
     13     1.9799     0.0000    -0.0001     0.2800    120.000    258.000 4708719.000    198.851    41.5367     0.0000  -115.8746   -59.3544     0.6032     0.1990    22.0000     7.0000     8.0000    22.0000    23.0000     3.0000     7.0000    23.0000    -3.0005     0.0010    20.9860    41.9642     2.6023    14.4503    14.1703     1.6655     1.0000     0.0000     0.2560     0.2603     1.6989     1.7523     0.0000     0.0000    -0.000
     14     1.9799     0.0000    -0.0000     0.3201    120.000    248.000 4712972.000    199.031    41.5367    -0.0000  -115.9677   -59.4000     0.6032     0.1990    22.0000     7.0000     8.0000    22.0000    23.0000     3.0000     7.0000    23.0000    -3.0005     0.0010    21.0170    42.0266     2.6023    14.4503    14.1302     1.6654     1.0000     0.0000     0.2560     0.2603     1.6996     1.7526     0.0000     0.0000    -0.000
     15     1.9800     0.0000    -0.0000     0.3599    120.000    200.000 4707433.000    198.797    41.5367     0.0001  -116.0609   -59.4460     0.6032     0.1990    22.0000     7.0000     8.0000    22.0000    23.0000     3.0000     7.0000    23.0000    -3.0005     0.0010    21.0483    42.0888     2.6024    14.4503    14.0903     1.6655     1.0000     0.0000     0.2560     0.2603     1.6989     1.7521     0.0000     0.0000    -0.000
     16     1.9799     0.0000    -0.0000     0.4000    120.000    171.000 4696088.000    198.318    41.5367     0.0000  -116.1542   -59.4904     0.6032     0.1990    22.0000     7.0000     8.0000    22.0000    23.0000     3.0000     7.0000    23.0000    -3.0005     0.0010    21.0800    42.1516     2.6023    14.4503    14.0503     1.6655     1.0000     0.0000     0.2560     0.2603     1.6995     1.7523     0.0000     0.0000    -0.000
     17     1.9800     0.0000    -0.0000     0.4401    120.000    178.000 4710801.000    198.939    41.5367     0.0001  -116.2476   -59.5365     0.6032     0.1990    22.0000     7.0000     8.0000    22.0000    23.0000     3.0000     7.0000    23.0000    -3.0005     0.0010    21.1118    42.2147     2.6024    14.4503    14.0102     1.6655     1.0000     0.0000     0.2560     0.2603     1.6998     1.7527     0.0000     0.0000    -0.000
     18     1.9800     0.0000    -0.0000     0.4800    120.000    177.000 4701553.000    198.549    41.5367     0.0000  -116.3410   -59.5819     0.6032     0.1990    22.0000     7.0000     8.0000    22.0000    23.0000     3.0000     7.0000    23.0000    -3.0005     0.0010    21.1431    42.2779     2.6024    14.4503    13.9703     1.6656     1.0000     0.0000     0.2560     0.2603     1.7002     1.7523     0.0000     0.0000    -0.000
     19     1.9800     0.0000    -0.0000     0.5200    120.000    151.000 4709623.000    198.889    41.5367    -0.0000  -116.4346   -59.6278     0.6032     0.1990    22.0000     7.0000     8.0000    22.0000    23.0000     3.0000     7.0000    23.0000    -3.0005     0.0010    21.1738    42.3415     2.6024    14.4503    13.9302     1.6656     1.0000     0.0000     0.2560     0.2603     1.6971     1.7525     0.0000     0.0000    -0.000
     20     1.9800     0.0000    -0.0000     0.5600    120.000    129.000 4696467.000    198.334    41.5367     0.0000  -116.5283   -59.6731     0.6032     0.1990    22.0000     7.0000     8.0000    22.0000    23.0000     3.0000     7.0000    23.0000    -3.0005     0.0010    21.2059    42.4052     2.6024    14.4503    13.8903     1.6656     1.0000     0.0000     0.2560     0.2603     1.6995     1.7524     0.0000     0.0000    -0.000
     21     1.9800     0.0000     0.0000     0.6001    120.000    152.000 4704540.000    198.675    41.5367    -0.0000  -116.6220   -59.7195     0.6032     0.1990    22.0000     7.0000     8.0000    22.0000    23.0000     3.0000     7.0000    23.0000    -3.0005     0.0010    21.2367    42.4696     2.6024    14.4503    13.8502     1.6656     1.0000     0.0000     0.2560     0.2603     1.6991     1.7526     0.0000     0.0000    -0.000
     22     1.9800     0.0000     0.0000     0.6402    120.000    214.000 4698933.000    198.438    41.5367     0.0000  -116.7159   -59.7644     0.6032     0.1990    22.0000     7.0000     8.0000    22.0000    23.0000     3.0000     7.0000    23.0000    -3.0005     0.0010    21.2691    42.5343     2.6024    14.4503    13.8101     1.6657     1.0000     0.0000     0.2560     0.2603     1.7007     1.7525     0.0000     0.0000    -0.000
     23     1.9800     0.0000     0.0000     0.6801    120.000    387.000 4696451.000    198.333    41.5367     0.0001  -116.8098   -59.8097     0.6032     0.1990    22.0000     7.0000     8.0000    22.0000    23.0000     3.0000     7.0000    23.0000    -3.0005     0.0010    21.3012    42.5988     2.6024    14.4503    13.7702     1.6657     1.0000     0.0000     0.2560     0.2603     1.6993     1.7522     0.0000     0.0000    -0.000
     24     1.9800     0.0000     0.0000     0.7202    120.000    586.000 4702740.000    198.599    41.5367     0.0001  -116.9038   -59.8552     0.6032     0.1990    22.0000     7.0000     8.0000    22.0000    23.0000     3.0000     7.0000    23.0000    -3.0005     0.0010    21.3343    42.6640     2.6024    14.4503    13.7301     1.6657     1.0000     0.0000     0.2560     0.2603     1.7004     1.7523     0.0000     0.0000    -0.000
     25     1.9800     0.0000     0.0000     0.7601    120.000    572.000 4697367.000    198.372    41.5367    -0.0000  -116.9979   -59.9011     0.6032     0.1990    22.0000     7.0000     8.0000    22.0000    23.0000     3.0000     7.0000    23.0000    -3.0005     0.0010    21.3667    42.7292     2.6024    14.4503    13.6902     1.6657     1.0000     0.0000     0.2560     0.2603     1.7013     1.7526     0.0000     0.0000    -0.000
     26     1.9800     0.0000     0.0000     0.8000    120.000    405.000 4710444.000    198.924    41.5367    -0.0000  -117.0922   -59.9471     0.6032     0.1990    22.0000     7.0000     8.0000    22.0000    23.0000     3.0000     7.0000    23.0000    -3.0005     0.0010    21.3997    42.7947     2.6024    14.4503    13.6503     1.6658     1.0000     0.0000     0.2560     0.2603     1.7008     1.7527     0.0000     0.0000    -0.000
     27     1.9799     0.0000    -0.0000     0.8402    120.000    221.000 4695131.000    198.277    41.5367     0.0001  -117.1865   -59.9913     0.6032     0.1990    22.0000     7.0000     8.0000    22.0000    23.0000     3.0000     7.0000    23.0000    -3.0005     0.0010    21.4327    42.8609     2.6023    14.4503    13.6101     1.6658     1.0000     0.0000     0.2560     0.2603     1.7012     1.7530     0.0000     0.0000    -0.000
     28     1.9800     0.0000     0.0000     0.8801    120.000    101.000 4692303.000    198.158    41.5367     0.0001  -117.2809   -60.0381     0.6032     0.1990    22.0000     7.0000     8.0000    22.0000    23.0000     3.0000     7.0000    23.0000    -3.0005     0.0010    21.4659    42.9270     2.6024    14.4503    13.5702     1.6658     1.0000     0.0000     0.2560     0.2603     1.6967     1.7523     0.0000     0.0000    -0.000
     29     1.9800     0.0000    -0.0000     0.9200    120.000     79.000 4696063.000    198.317    41.5367     0.0000  -117.3754   -60.0839     0.6032     0.1990    22.0000     7.0000     8.0000    22.0000    23.0000     3.0000     7.0000    23.0000    -3.0005     0.0010    21.4994    42.9934     2.6024    14.4503    13.5303     1.6658     1.0000     0.0000     0.2560     0.2603     1.7091     1.7527     0.0000     0.0000    -0.000
     30     1.9800     0.0000     0.0000     0.9600    120.000     42.000 4696795.000    198.348    41.5367    -0.0000  -117.4700   -60.1309     0.6032     0.1990    22.0000     7.0000     8.0000    22.0000    23.0000     3.0000     7.0000    23.0000    -3.0005     0.0010    21.5330    43.0603     2.6024    14.4503    13.4902     1.6658     1.0000     0.0000     0.2560     0.2604     1.6998     1.7526     0.0000     0.0000    -0.000
     31     1.9800     0.0000     0.0000     1.0001    120.000     31.000 4689423.000    198.036    41.5367    -0.0001  -117.5647   -60.1765     0.6032     0.1990    22.0000     7.0000     8.0000    22.0000    23.0000     3.0000     7.0000    23.0000    -3.0005     0.0010    21.5658    43.1276     2.6024    14.4503    13.4502     1.6658     1.0000     0.0000     0.2560     0.2604     1.6993     1.7529     0.0000     0.0000    -0.000
     32     1.9800     0.0000     0.0000     1.0400    120.000     23.000 4681665.000    197.709    41.5367    -0.0000  -117.6595   -60.2223     0.6032     0.1990    22.0000     7.0000     8.0000    22.0000    23.0000     3.0000     7.0000    23.0000    -3.0005     0.0010    21.5996    43.1948     2.6024    14.4503    13.4103     1.6658     1.0000     0.0000     0.2560     0.2604     1.6994     1.7526     0.0000     0.0000    -0.000
     33     1.9800     0.0000     0.0000     1.0802    120.000     24.000 4694878.000    198.267    41.5367    -0.0000  -117.7544   -60.2680     0.6032     0.1990    22.0000     7.0000     8.0000    22.0000    23.0000     3.0000     7.0000    23.0000    -3.0005     0.0010    21.6338    43.2630     2.6024    14.4503    13.3701     1.6659     1.0000     0.0000     0.2560     0.2603     1.7002     1.7523     0.0000     0.0000    -0.000
     34     1.9800     0.0000     0.0000     1.1201    120.000     20.000 4690897.000    198.099    41.5367    -0.0000  -117.8494   -60.3144     0.6032     0.1990    22.0000     7.0000     8.0000    22.0000    23.0000     3.0000     7.0000    23.0000    -3.0005     0.0010    21.6674    43.3311     2.6024    14.4503    13.3302     1.6659     1.0000     0.0000     0.2560     0.2603     1.6989     1.7522     0.0000     0.0000    -0.000
     35     1.9796     0.0000     0.0014     1.1716    120.000     13.000 4689165.000    198.026    41.5367    -0.0001  -117.9445   -60.3596     0.6032     0.1990    22.0000     7.0000     8.0000    22.0000    23.0000     3.0000     7.0000    23.0000    -3.0005     0.0010    21.7018    43.4192     2.6019    14.4503    13.2787     1.6659     1.0000     0.0000     0.2560     0.2603     1.6985     1.7521     0.0000     0.0000    -0.000
     36     1.9796     0.0000     0.0014     1.2112    120.000     14.000 4678179.000    197.562    41.5367    -0.0001  -118.0396   -60.4066     0.6032     0.1990    22.0000     7.0000     8.0000    22.0000    23.0000     3.0000     7.0000    23.0000    -3.0005     0.0010    21.7358    43.4874     2.6019    14.4503    13.2391     1.6659     1.0000     0.0000     0.2560     0.2603     1.6974     1.7524     0.0000     0.0000    -0.000
     37     1.9796     0.0000     0.0014     1.2509    120.000      3.000 4693941.000    198.227    41.5367     0.0001  -118.1349   -60.4529     0.6032     0.1990    22.0000     7.0000     8.0000    22.0000    23.0000     3.0000     7.0000    23.0000    -3.0005     0.0010    21.7698    43.5561     2.6019    14.4503    13.1994     1.6659     1.0000     0.0000     0.2560     0.2603     1.6996     1.7524     0.0000     0.0000    -0.000
     38     1.9797     0.0000     0.0013     1.2908    120.000      4.000 4678978.000    197.595    41.5367     0.0000  -118.2303   -60.4991     0.6032     0.1990    22.0000     7.0000     8.0000    22.0000    23.0000     3.0000     7.0000    23.0000    -3.0005     0.0010    21.8050    43.6254     2.6019    14.4503    13.1595     1.6660     1.0000     0.0000     0.2560     0.2604     1.6982     1.7521     0.0000     0.0000    -0.000
     39     1.9796     0.0000     0.0013     1.3305    120.000      7.000 4697436.000    198.375    41.5367    -0.0000  -118.3258   -60.5446     0.6032     0.1990    22.0000     7.0000     8.0000    22.0000    23.0000     3.0000     7.0000    23.0000    -3.0005     0.0010    21.8400    43.6948     2.6019    14.4503    13.1198     1.6659     1.0000     0.0000     0.2560     0.2604     1.6993     1.7523     0.0000     0.0000    -0.000
     40     1.9797     0.0000     0.0013     1.3704    120.000      7.000 4701042.000    198.527    41.5367     0.0001  -118.4214   -60.5914     0.6032     0.1990    22.0000     7.0000     8.0000    22.0000    23.0000     3.0000     7.0000    23.0000    -3.0005     0.0010    21.8749    43.7648     2.6020    14.4503    13.0799     1.6659     1.0000     0.0000     0.2560     0.2604     1.6996     1.7523     0.0000     0.0000    -0.000
     41     1.9797     0.0000     0.0013     1.4102    120.000     12.000 4698143.000    198.405    41.5367    -0.0000  -118.5171   -60.6376     0.6032     0.1990    22.0000     7.0000     8.0000    22.0000    23.0000     3.0000     7.0000    23.0000    -3.0005     0.0010    21.9111    43.8351     2.6020    14.4503    13.0401     1.6660     1.0000     0.0000     0.2560     0.2604     1.7001     1.7524     0.0000     0.0000    -0.000
     42     1.9796     0.0000     0.0012     1.4501    120.000      5.000 4708770.000    198.853    41.5367     0.0001  -118.6129   -60.6831     0.6032     0.1990    22.0000     7.0000     8.0000    22.0000    23.0000     3.0000     7.0000    23.0000    -3.0005     0.0010    21.9472    43.9057     2.6019    14.4503    13.0002     1.6660     1.0000     0.0000     0.2560     0.2603     1.6971     1.7524     0.0000     0.0000    -0.000
     43     1.9797     0.0000     0.0012     1.4897    120.000      4.000 4692074.000    198.148    41.5367     0.0000  -118.7088   -60.7296     0.6032     0.1990    22.0000     7.0000     8.0000    22.0000    23.0000     3.0000     7.0000    23.0000    -3.0005     0.0010    21.9831    43.9762     2.6020    14.4503    12.9606     1.6660     1.0000     0.0000     0.2560     0.2604     1.6990     1.7527     0.0000     0.0000    -0.000
     44     1.9796     0.0000     0.0012     1.5298    120.000      7.000 4701822.000    198.560    41.5367    -0.0000  -118.8048   -60.7758     0.6032     0.1990    22.0000     7.0000     8.0000    22.0000    23.0000     3.0000     7.0000    23.0000    -3.0005     0.0010    22.0197    44.0481     2.6019    14.4503    12.9205     1.6660     1.0000     0.0000     0.2560     0.2604     1.6996     1.7529     0.0000     0.0000    -0.000
     45     1.9796     0.0000     0.0012     1.5696    120.000      4.000 4686880.000    197.929    41.5367    -0.0000  -118.9009   -60.8220     0.6032     0.1990    22.0000     7.0000     8.0000    22.0000    23.0000     3.0000     7.0000    23.0000    -3.0005     0.0010    22.0559    44.1196     2.6019    14.4503    12.8807     1.6660     1.0000     0.0000     0.2560     0.2603     1.6991     1.7530     0.0000     0.0000    -0.000
     46     1.9797     0.0000     0.0012     1.6092    120.000      6.000 4693850.000    198.223    41.5367    -0.0000  -118.9971   -60.8696     0.6032     0.1990    22.0000     7.0000     8.0000    22.0000    23.0000     3.0000     7.0000    23.0000    -3.0005     0.0010    22.0918    44.1911     2.6020    14.4503    12.8411     1.6661     1.0000     0.0000     0.2560     0.2604     1.6986     1.7527     0.0000     0.0000    -0.000
     47     1.9797     0.0000     0.0011     1.6493    120.000      5.000 4678065.000    197.557    41.5367     0.0000  -119.0934   -60.9152     0.6032     0.1990    22.0000     7.0000     8.0000    22.0000    23.0000     3.0000     7.0000    23.0000    -3.0005     0.0010    22.1279    44.2640     2.6020    14.4503    12.8010     1.6661     1.0000     0.0000     0.2560     0.2604     1.6996     1.7525     0.0000     0.0000    -0.000
     48     1.9797     0.0000     0.0011     1.6889    120.000      9.000 4676965.000    197.510    41.5367    -0.0000  -119.1899   -60.9615     0.6032     0.1990    22.0000     7.0000     8.0000    22.0000    23.0000     3.0000     7.0000    23.0000    -3.0005     0.0010    22.1630    44.3363     2.6020    14.4503    12.7613     1.6660     1.0000     0.0000     0.2560     0.2604     1.7002     1.7529     0.0000     0.0000    -0.000
     49     1.9797     0.0000     0.0011     1.7290    120.000      5.000 4668893.000    197.169    41.5367    -0.0000  -119.2864   -61.0092     0.6032     0.1990    22.0000     7.0000     8.0000    22.0000    23.0000     3.0000     7.0000    23.0000    -3.0005     0.0010    22.1990    44.4099     2.6020    14.4503    12.7212     1.6661     1.0000     0.0000     0.2560     0.2604     1.6994     1.7526     0.0000     0.0000    -0.000
     50     1.9797     0.0000     0.0011     1.7689    120.000      5.000 4684144.000    197.813    41.5367    -0.0000  -119.3830   -61.0557     0.6032     0.1990    22.0000     7.0000     8.0000    22.0000    23.0000     3.0000     7.0000    23.0000    -3.0005     0.0010    22.2353    44.4833     2.6020    14.4503    12.6814     1.6661     1.0000     0.0000     0.2560     0.2604     1.7003     1.7526     0.0000     0.0000    -0.000
     51     1.9796     0.0000     0.0010     1.8086    120.000      5.000 4664402.000    196.980    41.5367     0.0001  -119.4798   -61.1003     0.6032     0.1990    22.0000     7.0000     8.0000    22.0000    23.0000     3.0000     7.0000    23.0000    -3.0005     0.0010    22.2725    44.5568     2.6019    14.4503    12.6417     1.6661     1.0000     0.0000     0.2560     0.2604     1.7005     1.7533     0.0000     0.0000    -0.000
     52     1.9797     0.0000     0.0010     1.8484    120.000      7.000 4652018.000    196.457    41.5367     0.0001  -119.5767   -61.1485     0.6032     0.1990    22.0000     7.0000     8.0000    22.0000    23.0000     3.0000     7.0000    23.0000    -3.0005     0.0010    22.3097    44.6310     2.6020    14.4503    12.6018     1.6661     1.0000     0.0000     0.2560     0.2604     1.7017     1.7528     0.0000     0.0000    -0.000
     53     1.9797     0.0000     0.0010     1.8883    120.000      1.000 4695975.000    198.313    41.5367     0.0000  -119.6737   -61.1961     0.6032     0.1990    22.0000     7.0000     8.0000    22.0000    23.0000     3.0000     7.0000    23.0000    -3.0005     0.0010    22.3474    44.7057     2.6020    14.4503    12.5620     1.6661     1.0000     0.0000     0.2560     0.2604     1.6992     1.7528     0.0000     0.0000    -0.000
     54     1.9797     0.0000     0.0010     1.9282    120.000      5.000 4672617.000    197.327    41.5367    -0.0000  -119.7707   -61.2434     0.6032     0.1990    22.0000     7.0000     8.0000    22.0000    23.0000     3.0000     7.0000    23.0000    -3.0005     0.0010    22.3846    44.7806     2.6020    14.4503    12.5221     1.6661     1.0000     0.0000     0.2560     0.2604     1.6999     1.7528     0.0000     0.0000    -0.000
     55     1.9797     0.0000     0.0011     1.9682    120.000      2.000 4686923.000    197.931    41.5367    -0.0000  -119.8679   -61.2906     0.6032     0.1990    22.0000     7.0000     8.0000    22.0000    23.0000     3.0000     7.0000    23.0000    -3.0005     0.0010    22.4230    44.8563     2.6020    14.4503    12.4820     1.6661     1.0000     0.0000     0.2560     0.2604     1.6991     1.7526     0.0000     0.0000    -0.000
     56     1.9797     0.0000     0.0010     2.0080    120.000      5.000 4680137.000    197.647    41.5367     0.0000  -119.9652   -61.3373     0.6032     0.1990    22.0000     7.0000     8.0000    22.0000    23.0000     3.0000     7.0000    23.0000    -3.0005     0.0010    22.4605    44.9318     2.6020    14.4503    12.4423     1.6662     1.0000     0.0000     0.2560     0.2604     1.6990     1.7530     0.0000     0.0000    -0.000
     57     1.9797     0.0000     0.0010     2.0481    120.000      4.000 4681945.000    197.721    41.5367     0.0001  -120.0627   -61.3838     0.6032     0.1990    22.0000     7.0000     8.0000    22.0000    23.0000     3.0000     7.0000    23.0000    -3.0005     0.0010    22.4991    45.0083     2.6020    14.4503    12.4022     1.6662     1.0000     0.0000     0.2560     0.2604     1.7011     1.7528     0.0000     0.0000    -0.000
     58     1.9797     0.0000     0.0010     2.0881    120.000      6.000 4687175.000    197.941    41.5367    -0.0000  -120.1602   -61.4309     0.6032     0.1990    22.0000     7.0000     8.0000    22.0000    23.0000     3.0000     7.0000    23.0000    -3.0005     0.0010    22.5380    45.0851     2.6020    14.4503    12.3622     1.6662     1.0000     0.0000     0.2560     0.2604     1.6989     1.7531     0.0000     0.0000    -0.000
     59     1.9798     0.0000     0.0010     2.1279    120.000      1.000 4679216.000    197.605    41.5367     0.0001  -120.2578   -61.4801     0.6032     0.1990    22.0000     7.0000     8.0000    22.0000    23.0000     3.0000     7.0000    23.0000    -3.0005     0.0010    22.5761    45.1618     2.6021    14.4503    12.3224     1.6662     1.0000     0.0000     0.2560     0.2604     1.6990     1.7531     0.0000     0.0000    -0.000
     60     1.9797     0.0000     0.0010     2.1677    120.000      2.000 4671089.000    197.262    41.5367     0.0000  -120.3556   -61.5257     0.6032     0.1990    22.0000     7.0000     8.0000    22.0000    23.0000     3.0000     7.0000    23.0000    -3.0005     0.0010    22.6148    45.2390     2.6020    14.4503    12.2826     1.6662     1.0000     0.0000     0.2561     0.2604     1.6974     1.7529     0.0000     0.0000    -0.000
     61     1.9797     0.0000     0.0010     2.2078    120.000      6.000 4682683.000    197.752    41.5367    -0.0000  -120.4535   -61.5734     0.6032     0.1990    22.0000     7.0000     8.0000    22.0000    23.0000     3.0000     7.0000    23.0000    -3.0005     0.0010    22.6536    45.3172     2.6021    14.4503    12.2425     1.6662     1.0000     0.0000     0.2560     0.2604     1.6992     1.7530     0.0000     0.0000    -0.000
     62     1.9798     0.0000     0.0011     2.2479    120.000      0.000 4686468.000    197.912    41.5367     0.0001  -120.5515   -61.6231     0.6032     0.1990    22.0000     7.0000     8.0000    22.0000    23.0000     3.0000     7.0000    23.0000    -3.0005     0.0010    22.6928    45.3957     2.6021    14.4503    12.2024     1.6663     1.0000     0.0000     0.2560     0.2604     1.7011     1.7533     0.0000     0.0000    -0.000
     63     1.9797     0.0000     0.0009     2.2877    120.000      2.000 4693949.000    198.228    41.5367    -0.0000  -120.6496   -61.6660     0.6032     0.1990    22.0000     7.0000     8.0000    22.0000    23.0000     3.0000     7.0000    23.0000    -3.0005     0.0010    22.7314    45.4742     2.6020    14.4503    12.1626     1.6663     1.0000     0.0000     0.2560     0.2604     1.7004     1.7526     0.0000     0.0000    -0.000
     64     1.9797     0.0000     0.0010     2.3275    120.000      1.000 4676489.000    197.490    41.5367    -0.0000  -120.7478   -61.7154     0.6032     0.1990    22.0000     7.0000     8.0000    22.0000    23.0000     3.0000     7.0000    23.0000    -3.0005     0.0010    22.7704    45.5529     2.6021    14.4503    12.1228     1.6663     1.0000     0.0000     0.2560     0.2604     1.6981     1.7533     0.0000     0.0000    -0.000
     65     1.9798     0.0000     0.0010     2.3675    120.000      9.000 4674534.000    197.408    41.5367     0.0000  -120.8462   -61.7638     0.6032     0.1990    22.0000     7.0000     8.0000    22.0000    23.0000     3.0000     7.0000    23.0000    -3.0005     0.0010    22.8108    45.6324     2.6021    14.4503    12.0828     1.6664     1.0000     0.0000     0.2560     0.2604     1.6995     1.7529     0.0000     0.0000    -0.000
     66     1.9798     0.0000     0.0010     2.4074    120.000      1.000 4680160.000    197.645    41.5367     0.0001  -120.9446   -61.8112     0.6032     0.1990    22.0000     7.0000     8.0000    22.0000    23.0000     3.0000     7.0000    23.0000    -3.0005     0.0010    22.8502    45.7123     2.6021    14.4503    12.0428     1.6664     1.0000     0.0000     0.2560     0.2604     1.7003     1.7523     0.0000     0.0000    -0.000
     67     1.9798     0.0000     0.0010     2.4474    120.000      4.000 4680067.000    197.641    41.5367     0.0001  -121.0432   -61.8587     0.6032     0.1990    22.0000     7.0000     8.0000    22.0000    23.0000     3.0000     7.0000    23.0000    -3.0005     0.0010    22.8908    45.7928     2.6021    14.4503    12.0029     1.6664     1.0000     0.0000     0.2560     0.2604     1.7008     1.7537     0.0000     0.0000    -0.000
     68     1.9798     0.0000     0.0010     2.4874    120.000      5.000 4682354.000    197.738    41.5367     0.0001  -121.1419   -61.9068     0.6032     0.1990    22.0000     7.0000     8.0000    22.0000    23.0000     3.0000     7.0000    23.0000    -3.0005     0.0010    22.9317    45.8736     2.6021    14.4503    11.9629     1.6665     1.0000     0.0000     0.2560     0.2604     1.6996     1.7529     0.0000     0.0000    -0.000
     69     1.9798     0.0000     0.0010     2.5273    120.000      4.000 4680565.000    197.662    41.5367     0.0001  -121.2407   -61.9536     0.6032     0.1990    22.0000     7.0000     8.0000    22.0000    23.0000     3.0000     7.0000    23.0000    -3.0005     0.0010    22.9743    45.9547     2.6021    14.4503    11.9230     1.6665     1.0000     0.0000     0.2560     0.2604     1.7004     1.7528     0.0000     0.0000    -0.000
     70     1.9797     0.0000     0.0010     2.5673    120.000      3.000 4675241.000    197.437    41.5367     0.0001  -121.3397   -62.0011     0.6032     0.1990    22.0000     7.0000     8.0000    22.0000    23.0000     3.0000     7.0000    23.0000    -3.0005     0.0010    23.0155    46.0363     2.6021    14.4503    11.8830     1.6664     1.0000     0.0000     0.2560     0.2604     1.7002     1.7531     0.0000     0.0000    -0.000
     71     1.9798     0.0000     0.0010     2.6071    120.000      3.000 4669190.000    197.182    41.5367    -0.0001  -121.4387   -62.0503     0.6032     0.1990    22.0000     7.0000     8.0000    22.0000    23.0000     3.0000     7.0000    23.0000    -3.0005     0.0010    23.0563    46.1180     2.6021    14.4503    11.8432     1.6663     1.0000     0.0000     0.2560     0.2604     1.6994     1.7525     0.0000     0.0000    -0.000
     72     1.9798     0.0000     0.0010     2.6470    120.000      2.000 4668338.000    197.146    41.5367    -0.0000  -121.5379   -62.0984     0.6032     0.1990    22.0000     7.0000     8.0000    22.0000    23.0000     3.0000     7.0000    23.0000    -3.0005     0.0010    23.0976    46.2005     2.6021    14.4503    11.8033     1.6664     1.0000     0.0000     0.2560     0.2604     1.6989     1.7535     0.0000     0.0000    -0.000
     73     1.9798     0.0000     0.0010     2.6872    120.000      2.000 4677674.000    197.540    41.5367     0.0000  -121.6373   -62.1464     0.6032     0.1990    22.0000     7.0000     8.0000    22.0000    23.0000     3.0000     7.0000    23.0000    -3.0005     0.0010    23.1385    46.2839     2.6021    14.4503    11.7631     1.6664     1.0000     0.0000     0.2560     0.2604     1.7020     1.7531     0.0000     0.0000    -0.000
     74     1.9799     0.0000     0.0011     2.7272    120.000      4.000 4683928.000    197.804    41.5367    -0.0000  -121.7367   -62.1981     0.6032     0.1990    22.0000     7.0000     8.0000    22.0000    23.0000     3.0000     7.0000    23.0000    -3.0005     0.0010    23.1799    46.3675     2.6023    14.4503    11.7231     1.6665     1.0000     0.0000     0.2560     0.2604     1.6999     1.7531     0.0000     0.0000    -0.000
     75     1.9796     0.0000     0.0009     2.7671    120.000      9.000 4681977.000    197.722    41.5367     0.0001  -121.8363   -62.2371     0.6032     0.1990    22.0000     7.0000     8.0000    22.0000    23.0000     3.0000     7.0000    23.0000    -3.0005     0.0010    23.2202    46.4513     2.6019    14.4503    11.6831     1.6666     1.0000     0.0000     0.2560     0.2604     1.7011     1.7532     0.0000     0.0000    -0.000
     76     1.9798     0.0000     0.0010     2.8071    120.000      6.000 4683062.000    197.768    41.5367    -0.0001  -121.9360   -62.2898     0.6032     0.1990    22.0000     7.0000     8.0000    22.0000    23.0000     3.0000     7.0000    23.0000    -3.0005     0.0010    23.2629    46.5355     2.6021    14.4503    11.6432     1.6667     1.0000     0.0000     0.2560     0.2604     1.7002     1.7535     0.0000     0.0000    -0.000
     77     1.9798     0.0000     0.0010     2.8471    120.000      1.000 4672087.000    197.304    41.5367    -0.0000  -122.0358   -62.3372     0.6032     0.1990    22.0000     7.0000     8.0000    22.0000    23.0000     3.0000     7.0000    23.0000    -3.0005     0.0010    23.3045    46.6205     2.6021    14.4503    11.6032     1.6667     1.0000     0.0000     0.2560     0.2604     1.6991     1.7532     0.0000     0.0000    -0.000
     78     1.9798     0.0000     0.0009     2.8870    120.000      6.000 4668688.000    197.161    41.5367     0.0001  -122.1357   -62.3853     0.6032     0.1990    22.0000     7.0000     8.0000    22.0000    23.0000     3.0000     7.0000    23.0000    -3.0005     0.0010    23.3478    46.7056     2.6021    14.4503    11.5633     1.6667     1.0000     0.0000     0.2560     0.2604     1.7013     1.7532     0.0000     0.0000    -0.000
     79     1.9798     0.0000     0.0009     2.9268    120.000      5.000 4677247.000    197.522    41.5367     0.0001  -122.2358   -62.4333     0.6032     0.1990    22.0000     7.0000     8.0000    22.0000    23.0000     3.0000     7.0000    23.0000    -3.0005     0.0010    23.3897    46.7910     2.6021    14.4503    11.5235     1.6667     1.0000     0.0000     0.2560     0.2604     1.7033     1.7536     0.0000     0.0000    -0.000
     80     1.9797     0.0000     0.0009     2.9668    120.000      2.000 4677033.000    197.513    41.5367    -0.0000  -122.3360   -62.4807     0.6032     0.1990    22.0000     7.0000     8.0000    22.0000    23.0000     3.0000     7.0000    23.0000    -3.0005     0.0010    23.4336    46.8772     2.6021    14.4503    11.4835     1.6668     1.0000     0.0000     0.2560     0.2604     1.7025     1.7537     0.0000     0.0000    -0.000
     81     1.9798     0.0000     0.0009     3.0068    120.000      3.000 4679739.000    197.627    41.5367    -0.0001  -122.4364   -62.5298     0.6032     0.1990    22.0000     7.0000     8.0000    22.0000    23.0000     3.0000     7.0000    23.0000    -3.0005     0.0010    23.4775    46.9640     2.6021    14.4503    11.4435     1.6668     1.0000     0.0000     0.2561     0.2604     1.6980     1.7535     0.0000     0.0000    -0.000
     82     1.9798     0.0000     0.0009     3.0467    120.000      3.000 4667818.000    197.124    41.5367     0.0000  -122.5369   -62.5780     0.6032     0.1990    22.0000     7.0000     8.0000    22.0000    23.0000     3.0000     7.0000    23.0000    -3.0005     0.0010    23.5214    47.0511     2.6021    14.4503    11.4036     1.6669     1.0000     0.0000     0.2561     0.2604     1.6993     1.7535     0.0000     0.0000    -0.000
     83     1.9797     0.0000     0.0009     3.0865    120.000      4.000 4668518.000    197.154    41.5367    -0.0001  -122.6375   -62.6257     0.6032     0.1990    22.0000     7.0000     8.0000    22.0000    23.0000     3.0000     7.0000    23.0000    -3.0005     0.0010    23.5650    47.1384     2.6021    14.4503    11.3638     1.6669     1.0000     0.0000     0.2560     0.2604     1.7003     1.7530     0.0000     0.0000    -0.000
     84     1.9798     0.0000     0.0009     3.1266    120.000      2.000 4664534.000    196.985    41.5367     0.0000  -122.7382   -62.6751     0.6032     0.1990    22.0000     7.0000     8.0000    22.0000    23.0000     3.0000     7.0000    23.0000    -3.0005     0.0010    23.6092    47.2268     2.6021    14.4503    11.3237     1.6669     1.0000     0.0000     0.2561     0.2604     1.7003     1.7534     0.0000     0.0000    -0.000
     85     1.9798     0.0000     0.0009     3.1666    120.000      5.000 4683313.000    197.778    41.5367     0.0001  -122.8391   -62.7239     0.6032     0.1990    22.0000     7.0000     8.0000    22.0000    23.0000     3.0000     7.0000    23.0000    -3.0005     0.0010    23.6533    47.3156     2.6021    14.4503    11.2837     1.6668     1.0000     0.0000     0.2560     0.2604     1.6986     1.7533     0.0000     0.0000    -0.000
     86     1.9797     0.0000     0.0009     3.2068    120.000      3.000 4684081.000    197.811    41.5367     0.0001  -122.9401   -62.7714     0.6032     0.1990    22.0000     7.0000     8.0000    22.0000    23.0000     3.0000     7.0000    23.0000    -3.0005     0.0010    23.6976    47.4052     2.6021    14.4503    11.2435     1.6669     1.0000     0.0000     0.2560     0.2604     1.7025     1.7532     0.0000     0.0000    -0.000
     87     1.9797     0.0000     0.0009     3.2466    120.000      3.000 4685865.000    197.886    41.5367    -0.0001  -123.0412   -62.8205     0.6032     0.1990    22.0000     7.0000     8.0000    22.0000    23.0000     3.0000     7.0000    23.0000    -3.0005     0.0010    23.7423    47.4946     2.6021    14.4503    11.2037     1.6669     1.0000     0.0000     0.2560     0.2604     1.7018     1.7530     0.0000     0.0000    -0.000
     88     1.9798     0.0000     0.0009     3.2866    120.000      4.000 4679602.000    197.622    41.5367    -0.0000  -123.1425   -62.8695     0.6032     0.1990    22.0000     7.0000     8.0000    22.0000    23.0000     3.0000     7.0000    23.0000    -3.0005     0.0010    23.7871    47.5849     2.6021    14.4503    11.1636     1.6669     1.0000     0.0000     0.2560     0.2604     1.6995     1.7533     0.0000     0.0000    -0.000
     89     1.9798     0.0000     0.0009     3.3265    120.000      4.000 4676713.000    197.500    41.5367    -0.0000  -123.2439   -62.9184     0.6032     0.1990    22.0000     7.0000     8.0000    22.0000    23.0000     3.0000     7.0000    23.0000    -3.0005     0.0010    23.8326    47.6752     2.6021    14.4503    11.1238     1.6669     1.0000     0.0000     0.2561     0.2604     1.7024     1.7536     0.0000     0.0000    -0.000
     90     1.9798     0.0000     0.0009     3.3664    120.000      1.000 4672841.000    197.336    41.5367     0.0000  -123.3454   -62.9671     0.6032     0.1990    22.0000     7.0000     8.0000    22.0000    23.0000     3.0000     7.0000    23.0000    -3.0005     0.0010    23.8780    47.7664     2.6021    14.4503    11.0839     1.6669     1.0000     0.0000     0.2561     0.2604     1.7004     1.7538     0.0000     0.0000    -0.000
     91     1.9797     0.0000     0.0008     3.4064    120.000      5.000 4693152.000    198.194    41.5367     0.0001  -123.4471   -63.0155     0.6032     0.1990    22.0000     7.0000     8.0000    22.0000    23.0000     3.0000     7.0000    23.0000    -3.0005     0.0010    23.9251    47.8581     2.6021    14.4503    11.0439     1.6670     1.0000     0.0000     0.2561     0.2604     1.7006     1.7533     0.0000     0.0000    -0.000
     92     1.9798     0.0000     0.0008     3.4462    120.000      1.000 4680325.000    197.652    41.5367     0.0001  -123.5490   -63.0650     0.6032     0.1990    22.0000     7.0000     8.0000    22.0000    23.0000     3.0000     7.0000    23.0000    -3.0005     0.0010    23.9721    47.9501     2.6021    14.4503    11.0041     1.6670     1.0000     0.0000     0.2560     0.2604     1.7006     1.7531     0.0000     0.0000    -0.000
     93     1.9798     0.0000     0.0009     3.4864    120.000      4.000 4681014.000    197.681    41.5367    -0.0000  -123.6510   -63.1139     0.6032     0.1990    22.0000     7.0000     8.0000    22.0000    23.0000     3.0000     7.0000    23.0000    -3.0005     0.0010    24.0197    48.0434     2.6021    14.4503    10.9639     1.6670     1.0000     0.0000     0.2560     0.2604     1.7001     1.7536     0.0000     0.0000    -0.000
     94     1.9798     0.0000     0.0008     3.5260    120.000      2.000 4691153.000    198.109    41.5367    -0.0000  -123.7531   -63.1626     0.6032     0.1990    22.0000     7.0000     8.0000    22.0000    23.0000     3.0000     7.0000    23.0000    -3.0005     0.0010    24.0664    48.1360     2.6021    14.4503    10.9242     1.6670     1.0000     0.0000     0.2560     0.2604     1.7016     1.7536     0.0000     0.0000    -0.000
     95     1.9798     0.0000     0.0008     3.5662    120.000      5.000 4690084.000    198.064    41.5367    -0.0000  -123.8553   -63.2124     0.6032     0.1990    22.0000     7.0000     8.0000    22.0000    23.0000     3.0000     7.0000    23.0000    -3.0005     0.0010    24.1127    48.2303     2.6021    14.4503    10.8841     1.6657     1.0000     0.0000     0.2560     0.2604     1.6865     1.7537     0.0000     0.0000    -0.000
     96     1.9798     0.0000     0.0008     3.6063    120.000      7.000 4672499.000    197.322    41.5367    -0.0000  -123.9577   -63.2611     0.6032     0.1990    22.0000     7.0000     8.0000    22.0000    23.0000     3.0000     7.0000    23.0000    -3.0005     0.0010    24.1596    48.3251     2.6021    14.4503    10.8440     1.6662     1.0000     0.0000     0.2559     0.2602     1.6854     1.7560     0.0000     0.0000    -0.000
     97     1.9797     0.0000     0.0008     3.6462    120.000      7.000 4678933.000    197.593    41.5367     0.0000  -124.0603   -63.3101     0.6032     0.1990    22.0000     7.0000     8.0000    22.0000    23.0000     3.0000     7.0000    23.0000    -3.0005     0.0010    24.2060    48.4200     2.6021    14.4503    10.8041     1.6678     1.0000     0.0000     0.2557     0.2601     1.6862     1.7569     0.0000     0.0000    -0.000
     98     1.9798     0.0000     0.0008     3.6860    120.000      2.000 4695382.000    198.288    41.5367     0.0001  -124.1629   -63.3604     0.6032     0.1990    22.0000     7.0000     8.0000    22.0000    23.0000     3.0000     7.0000    23.0000    -3.0005     0.0010    24.2529    48.5153     2.6021    14.4503    10.7642     1.6690     1.0000     0.0000     0.2556     0.2600     1.6902     1.7575     0.0000     0.0000    -0.000
     99     1.9798     0.0000     0.0009     3.7260    120.000      5.000 4684114.000    197.812    41.5367    -0.0000  -124.2658   -63.4108     0.6032     0.1990    22.0000     7.0000     8.0000    22.0000    23.0000     3.0000     7.0000    23.0000    -3.0005     0.0010    24.3007    48.6115     2.6022    14.4503    10.7243     1.6701     1.0000     0.0000     0.2556     0.2600     1.6896     1.7590     0.0000     0.0000    -0.000
    100     1.9798     0.0000     0.0008     3.7660    120.000      4.000 4691530.000    198.125    41.5367    -0.0000  -124.3688   -63.4594     0.6032     0.1990    22.0000     7.0000     8.0000    22.0000    23.0000     3.0000     7.0000    23.0000    -3.0005     0.0010    24.3487    48.7081     2.6021    14.4503    10.6843     1.6725     1.0000     0.0000     0.2557     0.2601     1.6985     1.7588     0.0000     0.0000    -0.000
    101     1.9798     0.0000     0.0008     3.8059    120.000      4.000 4685851.000    197.886    41.5367     0.0001  -124.4719   -63.5091     0.6032     0.1990    22.0000     7.0000     8.0000    22.0000    23.0000     3.0000     7.0000    23.0000    -3.0005     0.0010    24.3980    48.8054     2.6021    14.4503    10.6444     1.6741     1.0000     0.0000     0.2558     0.2601     1.7025     1.7595     0.0000     0.0000    -0.000
    102     1.9798     0.0000     0.0008     3.8460    120.000      2.000 4679612.000    197.622    41.5367    -0.0000  -124.5752   -63.5589     0.6032     0.1990    22.0000     7.0000     8.0000    22.0000    23.0000     3.0000     7.0000    23.0000    -3.0005     0.0010    24.4470    48.9035     2.6021    14.4503    10.6043     1.6754     1.0000     0.0000     0.2559     0.2602     1.7074     1.7608     0.0000     0.0000    -0.000
    103     1.9798     0.0000     0.0008     3.8859    120.000      6.000 4685684.000    197.879    41.5367     0.0001  -124.6786   -63.6086     0.6032     0.1990    22.0000     7.0000     8.0000    22.0000    23.0000     3.0000     7.0000    23.0000    -3.0005     0.0010    24.4969    49.0020     2.6021    14.4503    10.5644     1.6757     1.0000     0.0000     0.2560     0.2603     1.7073     1.7605     0.0000     0.0000    -0.000
    104     1.9798     0.0000     0.0008     3.9259    120.000      1.000 4693061.000    198.190    41.5367     0.0000  -124.7822   -63.6586     0.6032     0.1990    22.0000     7.0000     8.0000    22.0000    23.0000     3.0000     7.0000    23.0000    -3.0005     0.0010    24.5468    49.1011     2.6021    14.4503    10.5244     1.6752     1.0000     0.0000     0.2561     0.2604     1.7080     1.7595     0.0000     0.0000    -0.000
    105     1.9798     0.0000     0.0008     3.9659    120.000      4.000 4683265.000    197.777    41.5367    -0.0000  -124.8859   -63.7087     0.6032     0.1990    22.0000     7.0000     8.0000    22.0000    23.0000     3.0000     7.0000    23.0000    -3.0005     0.0010    24.5965    49.2008     2.6022    14.4503    10.4844     1.6731     1.0000     0.0000     0.2561     0.2605     1.7094     1.7566     0.0000     0.0000    -0.000
    106     1.9798     0.0000     0.0008     4.0059    120.000      2.000 4686833.000    197.927    41.5367    -0.0000  -124.9898   -63.7581     0.6032     0.1990    22.0000     7.0000     8.0000    22.0000    23.0000     3.0000     7.0000    23.0000    -3.0005     0.0010    24.6464    49.3013     2.6021    14.4503    10.4444     1.6705     1.0000     0.0000     0.2562     0.2605     1.7054     1.7531     0.0000     0.0000    -0.000
# Sum of Counts = 16776
# Center of Mass = 0.228227+/-0.004192
# Full Width Half-Maximum = 0.873105+/-0.017019
# 9:05:58 AM  8/15/2024   scan completed.
