# scan = 313
# date = 8/14/2024
# time = 5:43:11 PM
# proposal = 32912
# experiment = Quantum Phase Transition in Transverse Field Ising Ferromagnet HoV6Sn6
# experiment_number = 1031
# command = scan h 0.8 1.2 0.005 k 0 l 0 e 0.1 preset time 1
# builtin_command = scan h 0.8 1.2 0.005 k 0 l 0 e 0.1 preset time 1
# users = Aashish Sapkota, Benjamin Ueland, Fei Li, Rob McQueeney, Tianxiong Han
# local_contact = Wei Tian, Bing Li
# scan_title = HoV6Sn6, check resolution
# monochromator = PG002
# analyzer = Pg002
# sense = +-+
# collimation = 40-40-40-80
# samplename = HoV6Sn6
# sampletype = crystal
# samplemosaic = 30.000000
# latticeconstants = 5.520013,5.520013,9.152013,90.000000,90.000000,120.000000
# ubmatrix = 0.015667,0.005926,0.108953,0.208596,0.104928,-0.008180,-0.000560,0.180868,0.001176
# mode = 0
# plane_normal = -0.010528,0.003477,0.999939
# ubconf = UB12Aug2024_54830PM.ini
# preset_type = normal 
# preset_channel = time
# preset_value = 1.000000
# def_x = h
# def_y = detector
# col_headers = 
#   Pt.          h          k          l          e       time   detector    monitor        mcu         m2      mag_i         s1         s2        sgl        sgu   slitb_bt   slitb_lf   slitb_rt   slitb_tp   slita_bt   slita_lf   slita_rt   slita_tp        stl        stu         a1         a2          q         ei         ef        vti       temp     temp_2         lt         ht      1kpot  sorb_temp       sorb  sample_ht persistent_field
      1     0.8001     0.0000     0.0001     0.1006      1.000      5.000  38931.000      1.644    41.5367     0.0001   -97.6966   -23.0093     0.6032     0.1990    22.0000     7.0000     8.0000    22.0000    23.0000     3.0000     7.0000    23.0000    -3.0005     0.0010    20.8446    41.6888     1.0516    14.4503    14.3497     1.6755     1.0000     0.0000     1.7927     1.7480     1.7479    34.9054    35.0000     0.0000    -0.000
      2     0.8049     0.0000     0.0001     0.1006      1.000      3.000  39312.000      1.660    41.5367     0.0000   -97.7663   -23.1508     0.6032     0.1990    22.0000     7.0000     8.0000    22.0000    23.0000     3.0000     7.0000    23.0000    -3.0005     0.0010    20.8447    41.6888     1.0580    14.4503    14.3497     1.6756     1.0000     0.0000     1.7958     1.7514     1.7504    35.0429    35.0000     0.0000    -0.000
      3     0.8099     0.0000     0.0000     0.1006      1.000      5.000  38878.000      1.642    41.5367     0.0001   -97.8361   -23.2952     0.6032     0.1990    22.0000     7.0000     8.0000    22.0000    23.0000     3.0000     7.0000    23.0000    -3.0005     0.0010    20.8446    41.6888     1.0645    14.4503    14.3497     1.6756     1.0000     0.0000     1.7909     1.7463     1.7469    35.0277    35.0000     0.0000    -0.000
      4     0.8149     0.0000     0.0001     0.1006      1.000      2.000  39302.000      1.660    41.5367    -0.0000   -97.9059   -23.4425     0.6032     0.1990    22.0000     7.0000     8.0000    22.0000    23.0000     3.0000     7.0000    23.0000    -3.0005     0.0010    20.8446    41.6888     1.0711    14.4503    14.3497     1.6756     1.0000     0.0000     1.7935     1.7491     1.7483    34.9152    35.0000     0.0000    -0.000
      5     0.8199     0.0000     0.0001     0.1006      1.000      3.000  39367.000      1.662    41.5367     0.0001   -97.9758   -23.5887     0.6032     0.1990    22.0000     7.0000     8.0000    22.0000    23.0000     3.0000     7.0000    23.0000    -3.0005     0.0010    20.8446    41.6888     1.0777    14.4503    14.3497     1.6757     1.0000     0.0000     1.7939     1.7493     1.7496    35.0831    35.0000     0.0000    -0.000
      6     0.8249     0.0000     0.0001     0.1006      1.000      1.000  39465.000      1.667    41.5367    -0.0000   -98.0458   -23.7343     0.6032     0.1990    22.0000     7.0000     8.0000    22.0000    23.0000     3.0000     7.0000    23.0000    -3.0005     0.0010    20.8446    41.6888     1.0843    14.4503    14.3497     1.6756     1.0000     0.0000     1.7896     1.7452     1.7460    34.9929    35.0000     0.0000    -0.000
      7     0.8300     0.0000     0.0001     0.1006      1.000      1.000  39230.000      1.657    41.5367    -0.0000   -98.1158   -23.8809     0.6032     0.1990    22.0000     7.0000     8.0000    22.0000    23.0000     3.0000     7.0000    23.0000    -3.0005     0.0010    20.8445    41.6887     1.0909    14.4503    14.3497     1.6757     1.0000     0.0000     1.7932     1.7485     1.7481    34.9245    35.0000     0.0000    -0.000
      8     0.8349     0.0000     0.0001     0.1006      1.000      6.000  39258.000      1.658    41.5367     0.0001   -98.1859   -24.0264     0.6032     0.1990    22.0000     7.0000     8.0000    22.0000    23.0000     3.0000     7.0000    23.0000    -3.0005     0.0010    20.8445    41.6888     1.0974    14.4503    14.3497     1.6757     1.0000     0.0000     1.7927     1.7482     1.7483    35.0914    35.0000     0.0000    -0.000
      9     0.8400     0.0000     0.0001     0.1006      1.000      5.000  39176.000      1.654    41.5367     0.0000   -98.2560   -24.1737     0.6032     0.1990    22.0000     7.0000     8.0000    22.0000    23.0000     3.0000     7.0000    23.0000    -3.0005     0.0010    20.8445    41.6888     1.1040    14.4503    14.3497     1.6757     1.0000     0.0000     1.7887     1.7441     1.7453    34.9592    35.0000     0.0000    -0.000
     10     0.8451     0.0000     0.0001     0.1006      1.000      3.000  39201.000      1.655    41.5367     0.0000   -98.3262   -24.3226     0.6032     0.1990    22.0000     7.0000     8.0000    22.0000    23.0000     3.0000     7.0000    23.0000    -3.0005     0.0010    20.8445    41.6888     1.1107    14.4503    14.3497     1.6757     1.0000     0.0000     1.7933     1.7490     1.7484    34.9726    35.0000     0.0000    -0.000
     11     0.8500     0.0000     0.0001     0.1006      1.000      5.000  39441.000      1.666    41.5367    -0.0000   -98.3964   -24.4676     0.6032     0.1990    22.0000     7.0000     8.0000    22.0000    23.0000     3.0000     7.0000    23.0000    -3.0005     0.0010    20.8444    41.6888     1.1172    14.4503    14.3497     1.6757     1.0000     0.0000     1.7904     1.7460     1.7468    35.0875    35.0000     0.0000    -0.000
     12     0.8551     0.0000     0.0001     0.1006      1.000      4.000  39243.000      1.657    41.5367    -0.0000   -98.4667   -24.6157     0.6032     0.1990    22.0000     7.0000     8.0000    22.0000    23.0000     3.0000     7.0000    23.0000    -3.0005     0.0010    20.8444    41.6888     1.1239    14.4503    14.3497     1.6757     1.0000     0.0000     1.7889     1.7443     1.7450    34.9151    35.0000     0.0000    -0.000
     13     0.8600     0.0000     0.0001     0.1006      1.000      4.000  39091.000      1.651    41.5367    -0.0001   -98.5370   -24.7587     0.6032     0.1990    22.0000     7.0000     8.0000    22.0000    23.0000     3.0000     7.0000    23.0000    -3.0005     0.0010    20.8444    41.6888     1.1303    14.4503    14.3497     1.6758     1.0000     0.0000     1.7926     1.7481     1.7476    35.0436    35.0000     0.0000    -0.000
     14     0.8650     0.0000     0.0001     0.1006      1.000      5.000  39586.000      1.672    41.5367     0.0001   -98.6074   -24.9056     0.6032     0.1990    22.0000     7.0000     8.0000    22.0000    23.0000     3.0000     7.0000    23.0000    -3.0005     0.0010    20.8444    41.6888     1.1369    14.4503    14.3497     1.6758     1.0000     0.0000     1.7883     1.7438     1.7448    35.0499    35.0000     0.0000    -0.000
     15     0.8700     0.0000     0.0001     0.1006      1.000      4.000  39257.000      1.658    41.5367     0.0001   -98.6778   -25.0515     0.6032     0.1990    22.0000     7.0000     8.0000    22.0000    23.0000     3.0000     7.0000    23.0000    -3.0005     0.0010    20.8444    41.6888     1.1435    14.4503    14.3497     1.6758     1.0000     0.0000     1.7900     1.7454     1.7460    34.9078    35.0000     0.0000    -0.000
     16     0.8749     0.0000     0.0001     0.1006      1.000      5.000  39452.000      1.666    41.5367    -0.0000   -98.7483   -25.1958     0.6032     0.1990    22.0000     7.0000     8.0000    22.0000    23.0000     3.0000     7.0000    23.0000    -3.0005     0.0010    20.8444    41.6888     1.1500    14.4503    14.3497     1.6759     1.0000     0.0000     1.7907     1.7462     1.7470    35.0887    35.0000     0.0000    -0.000
     17     0.8800     0.0000     0.0001     0.1006      1.000      6.000  39327.000      1.661    41.5367    -0.0000   -98.8188   -25.3431     0.6032     0.1990    22.0000     7.0000     8.0000    22.0000    23.0000     3.0000     7.0000    23.0000    -3.0005     0.0010    20.8444    41.6887     1.1566    14.4503    14.3497     1.6759     1.0000     0.0000     1.7868     1.7420     1.7436    34.9857    35.0000     0.0000    -0.000
     18     0.8850     0.0000     0.0001     0.1006      1.000      4.000  39202.000      1.656    41.5367     0.0000   -98.8894   -25.4898     0.6032     0.1990    22.0000     7.0000     8.0000    22.0000    23.0000     3.0000     7.0000    23.0000    -3.0005     0.0010    20.8444    41.6887     1.1632    14.4503    14.3497     1.6759     1.0000     0.0000     1.7910     1.7464     1.7471    34.9513    35.0000     0.0000    -0.000
     19     0.8899     0.0000     0.0001     0.1006      1.000      4.000  38831.000      1.640    41.5367     0.0000   -98.9601   -25.6352     0.6032     0.1990    22.0000     7.0000     8.0000    22.0000    23.0000     3.0000     7.0000    23.0000    -3.0005     0.0010    20.8444    41.6888     1.1697    14.4503    14.3497     1.6760     1.0000     0.0000     1.7883     1.7436     1.7451    35.0837    35.0000     0.0000    -0.000
     20     0.8950     0.0000     0.0001     0.1006      1.000      3.000  39142.000      1.653    41.5367     0.0001   -99.0307   -25.7825     0.6032     0.1990    22.0000     7.0000     8.0000    22.0000    23.0000     3.0000     7.0000    23.0000    -3.0005     0.0010    20.8443    41.6888     1.1763    14.4503    14.3497     1.6759     1.0000     0.0000     1.7866     1.7419     1.7432    34.9194    35.0000     0.0000    -0.000
     21     0.9000     0.0000     0.0001     0.1006      1.000      2.000  39387.000      1.663    41.5367     0.0000   -99.1015   -25.9313     0.6032     0.1990    22.0000     7.0000     8.0000    22.0000    23.0000     3.0000     7.0000    23.0000    -3.0005     0.0010    20.8444    41.6887     1.1830    14.4503    14.3497     1.6760     1.0000     0.0000     1.7907     1.7461     1.7465    35.0353    35.0000     0.0000    -0.000
     22     0.9050     0.0000     0.0001     0.1006      1.000      4.000  39433.000      1.665    41.5367     0.0001   -99.1723   -26.0769     0.6032     0.1990    22.0000     7.0000     8.0000    22.0000    23.0000     3.0000     7.0000    23.0000    -3.0005     0.0010    20.8444    41.6887     1.1895    14.4503    14.3497     1.6760     1.0000     0.0000     1.7859     1.7411     1.7428    35.0238    35.0000     0.0000    -0.000
     23     0.9100     0.0000     0.0001     0.1006      1.000      3.000  39109.000      1.652    41.5367    -0.0000   -99.2431   -26.2246     0.6032     0.1990    22.0000     7.0000     8.0000    22.0000    23.0000     3.0000     7.0000    23.0000    -3.0005     0.0010    20.8443    41.6888     1.1961    14.4503    14.3497     1.6760     1.0000     0.0000     1.7880     1.7431     1.7435    34.9064    35.0000     0.0000    -0.000
     24     0.9150     0.0000     0.0001     0.1006      1.000      5.000  39281.000      1.659    41.5367    -0.0001   -99.3140   -26.3696     0.6032     0.1990    22.0000     7.0000     8.0000    22.0000    23.0000     3.0000     7.0000    23.0000    -3.0005     0.0010    20.8443    41.6888     1.2026    14.4503    14.3497     1.6760     1.0000     0.0000     1.7889     1.7444     1.7454    35.0830    35.0000     0.0000    -0.000
     25     0.9199     0.0000     0.0001     0.1006      1.000      2.000  39098.000      1.651    41.5367    -0.0000   -99.3849   -26.5152     0.6032     0.1990    22.0000     7.0000     8.0000    22.0000    23.0000     3.0000     7.0000    23.0000    -3.0005     0.0010    20.8444    41.6887     1.2091    14.4503    14.3497     1.6760     1.0000     0.0000     1.7848     1.7400     1.7416    34.9643    35.0000     0.0000    -0.000
     26     0.9249     0.0000     0.0000     0.1006      1.000      6.000  39121.000      1.652    41.5367     0.0000   -99.4559   -26.6609     0.6032     0.1990    22.0000     7.0000     8.0000    22.0000    23.0000     3.0000     7.0000    23.0000    -3.0005     0.0010    20.8443    41.6887     1.2157    14.4503    14.3497     1.6761     1.0000     0.0000     1.7892     1.7442     1.7452    34.9479    35.0000     0.0000    -0.000
     27     0.9299     0.0000     0.0001     0.1006      1.000      2.000  39169.000      1.654    41.5367    -0.0001   -99.5269   -26.8085     0.6032     0.1990    22.0000     7.0000     8.0000    22.0000    23.0000     3.0000     7.0000    23.0000    -3.0005     0.0010    20.8443    41.6887     1.2223    14.4503    14.3497     1.6761     1.0000     0.0000     1.7868     1.7424     1.7437    35.0922    35.0000     0.0000    -0.000
     28     0.9350     0.0000     0.0001     0.1006      1.000      4.000  39360.000      1.662    41.5367    -0.0001   -99.5980   -26.9557     0.6032     0.1990    22.0000     7.0000     8.0000    22.0000    23.0000     3.0000     7.0000    23.0000    -3.0005     0.0010    20.8443    41.6887     1.2289    14.4503    14.3497     1.6761     1.0000     0.0000     1.7849     1.7402     1.7417    34.9141    35.0000     0.0000    -0.000
     29     0.9400     0.0000     0.0001     0.1006      1.000      6.000  39146.000      1.653    41.5367    -0.0000   -99.6691   -27.1045     0.6032     0.1990    22.0000     7.0000     8.0000    22.0000    23.0000     3.0000     7.0000    23.0000    -3.0005     0.0010    20.8443    41.6887     1.2355    14.4503    14.3497     1.6761     1.0000     0.0000     1.7890     1.7445     1.7451    35.0110    35.0000     0.0000    -0.000
     30     0.9449     0.0000     0.0000     0.1006      1.000      3.000  39254.000      1.658    41.5367    -0.0000   -99.7403   -27.2477     0.6032     0.1990    22.0000     7.0000     8.0000    22.0000    23.0000     3.0000     7.0000    23.0000    -3.0005     0.0010    20.8443    41.6887     1.2419    14.4503    14.3497     1.6762     1.0000     0.0000     1.7846     1.7398     1.7415    35.0559    35.0000     0.0000    -0.000
     31     0.9500     0.0000     0.0001     0.1006      1.000      4.000  39153.000      1.653    41.5367    -0.0000   -99.8115   -27.3983     0.6032     0.1990    22.0000     7.0000     8.0000    22.0000    23.0000     3.0000     7.0000    23.0000    -3.0005     0.0010    20.8443    41.6887     1.2486    14.4503    14.3497     1.6762     1.0000     0.0000     1.7864     1.7416     1.7427    34.9069    35.0000     0.0000    -0.000
     32     0.9550     0.0000     0.0001     0.1006      1.000      3.000  39590.000      1.672    41.5367     0.0001   -99.8827   -27.5458     0.6032     0.1990    22.0000     7.0000     8.0000    22.0000    23.0000     3.0000     7.0000    23.0000    -3.0005     0.0010    20.8443    41.6887     1.2552    14.4503    14.3497     1.6763     1.0000     0.0000     1.7878     1.7430     1.7435    35.0773    35.0000     0.0000    -0.000
     33     0.9601     0.0000     0.0001     0.1006      1.000      4.000  39053.000      1.649    41.5367     0.0001   -99.9540   -27.6944     0.6032     0.1990    22.0000     7.0000     8.0000    22.0000    23.0000     3.0000     7.0000    23.0000    -3.0005     0.0010    20.8443    41.6887     1.2619    14.4503    14.3497     1.6763     1.0000     0.0000     1.7830     1.7384     1.7405    34.9926    35.0000     0.0000    -0.000
     34     0.9650     0.0000     0.0001     0.1006      1.000      5.000  38955.000      1.645    41.5367    -0.0001  -100.0254   -27.8395     0.6032     0.1990    22.0000     7.0000     8.0000    22.0000    23.0000     3.0000     7.0000    23.0000    -3.0005     0.0010    20.8443    41.6887     1.2684    14.4503    14.3497     1.6763     1.0000     0.0000     1.7876     1.7428     1.7441    34.9501    35.0000     0.0000    -0.000
     35     0.9700     0.0000     0.0001     0.1006      1.000      7.000  39154.000      1.653    41.5367    -0.0000  -100.0968   -27.9870     0.6032     0.1990    22.0000     7.0000     8.0000    22.0000    23.0000     3.0000     7.0000    23.0000    -3.0005     0.0010    20.8443    41.6887     1.2749    14.4503    14.3497     1.6763     1.0000     0.0000     1.7854     1.7410     1.7431    35.0938    35.0000     0.0000    -0.000
     36     0.9749     0.0000     0.0000     0.1006      1.000      4.000  39536.000      1.670    41.5367    -0.0000  -100.1682   -28.1310     0.6032     0.1990    22.0000     7.0000     8.0000    22.0000    23.0000     3.0000     7.0000    23.0000    -3.0005     0.0010    20.8443    41.6887     1.2814    14.4503    14.3497     1.6763     1.0000     0.0000     1.7827     1.7379     1.7399    34.9321    35.0000     0.0000    -0.000
     37     0.9799     0.0000     0.0000     0.1006      1.000      6.000  38924.000      1.644    41.5367    -0.0000  -100.2397   -28.2784     0.6032     0.1990    22.0000     7.0000     8.0000    22.0000    23.0000     3.0000     7.0000    23.0000    -3.0005     0.0010    20.8443    41.6887     1.2879    14.4503    14.3497     1.6763     1.0000     0.0000     1.7876     1.7427     1.7440    35.0067    35.0000     0.0000    -0.000
     38     0.9849     0.0000     0.0000     0.1006      1.000      3.000  39494.000      1.668    41.5367    -0.0000  -100.3112   -28.4262     0.6032     0.1990    22.0000     7.0000     8.0000    22.0000    23.0000     3.0000     7.0000    23.0000    -3.0005     0.0010    20.8443    41.6888     1.2945    14.4503    14.3497     1.6764     1.0000     0.0000     1.7837     1.7391     1.7407    35.0725    35.0000     0.0000    -0.000
     39     0.9900     0.0000     0.0001     0.1006      1.000      4.000  39098.000      1.651    41.5367    -0.0000  -100.3828   -28.5753     0.6032     0.1990    22.0000     7.0000     8.0000    22.0000    23.0000     3.0000     7.0000    23.0000    -3.0005     0.0010    20.8442    41.6887     1.3012    14.4503    14.3497     1.6763     1.0000     0.0000     1.7839     1.7389     1.7409    34.9035    35.0000     0.0000    -0.000
     40     0.9949     0.0000     0.0000     0.1006      1.000      8.000  39541.000      1.670    41.5367     0.0000  -100.4544   -28.7207     0.6032     0.1990    22.0000     7.0000     8.0000    22.0000    23.0000     3.0000     7.0000    23.0000    -3.0005     0.0010    20.8443    41.6887     1.3077    14.4503    14.3497     1.6764     1.0000     0.0000     1.7863     1.7417     1.7436    35.0705    35.0000     0.0000    -0.000
     41     1.0000     0.0000     0.0001     0.1006      1.000      8.000  39031.000      1.648    41.5367     0.0001  -100.5261   -28.8702     0.6032     0.1990    22.0000     7.0000     8.0000    22.0000    23.0000     3.0000     7.0000    23.0000    -3.0005     0.0010    20.8443    41.6887     1.3143    14.4503    14.3497     1.6764     1.0000     0.0000     1.7817     1.7371     1.7396    35.0216    35.0000     0.0000    -0.000
     42     1.0050     0.0000     0.0001     0.1006      1.000      5.000  39050.000      1.649    41.5367     0.0001  -100.5978   -29.0182     0.6032     0.1990    22.0000     7.0000     8.0000    22.0000    23.0000     3.0000     7.0000    23.0000    -3.0005     0.0010    20.8443    41.6887     1.3209    14.4503    14.3497     1.6764     1.0000     0.0000     1.7851     1.7405     1.7426    34.9214    35.0000     0.0000    -0.000
     43     1.0101     0.0000     0.0001     0.1005      1.000      5.000  39299.000      1.660    41.5367     0.0001  -100.6695   -29.1676     0.6032     0.1990    22.0000     7.0000     8.0000    22.0000    23.0000     3.0000     7.0000    23.0000    -3.0005     0.0010    20.8443    41.6887     1.3276    14.4503    14.3498     1.6764     1.0000     0.0000     1.7846     1.7397     1.7414    35.0944    35.0000     0.0000    -0.000
     44     1.0151     0.0000     0.0001     0.1006      1.000      4.000  39017.000      1.648    41.5367    -0.0000  -100.7413   -29.3171     0.6032     0.1990    22.0000     7.0000     8.0000    22.0000    23.0000     3.0000     7.0000    23.0000    -3.0005     0.0010    20.8442    41.6887     1.3342    14.4503    14.3497     1.6764     1.0000     0.0000     1.7811     1.7362     1.7383    34.9564    35.0000     0.0000    -0.000
     45     1.0200     0.0000     0.0001     0.1005      1.000      6.000  39597.000      1.672    41.5367     0.0001  -100.8132   -29.4618     0.6032     0.1990    22.0000     7.0000     8.0000    22.0000    23.0000     3.0000     7.0000    23.0000    -3.0005     0.0010    20.8443    41.6887     1.3407    14.4503    14.3498     1.6765     1.0000     0.0000     1.7859     1.7415     1.7426    34.9816    35.0000     0.0000    -0.000
     46     1.0251     0.0000     0.0001     0.1006      1.000      4.000  39083.000      1.650    41.5367     0.0001  -100.8851   -29.6116     0.6032     0.1990    22.0000     7.0000     8.0000    22.0000    23.0000     3.0000     7.0000    23.0000    -3.0005     0.0010    20.8443    41.6887     1.3473    14.4503    14.3497     1.6765     1.0000     0.0000     1.7824     1.7374     1.7405    35.0705    35.0000     0.0000    -0.000
     47     1.0299     0.0000     0.0000     0.1005      1.000      1.000  39264.000      1.658    41.5367    -0.0001  -100.9570   -29.7547     0.6032     0.1990    22.0000     7.0000     8.0000    22.0000    23.0000     3.0000     7.0000    23.0000    -3.0005     0.0010    20.8443    41.6887     1.3537    14.4503    14.3497     1.6765     1.0000     0.0000     1.7817     1.7368     1.7396    34.9104    35.0000     0.0000    -0.000
     48     1.0350     0.0000     0.0001     0.1005      1.000      3.000  39768.000      1.679    41.5367     0.0000  -101.0289   -29.9035     0.6032     0.1990    22.0000     7.0000     8.0000    22.0000    23.0000     3.0000     7.0000    23.0000    -3.0005     0.0010    20.8442    41.6887     1.3603    14.4503    14.3497     1.6766     1.0000     0.0000     1.7852     1.7405     1.7427    35.0522    35.0000     0.0000    -0.000
     49     1.0399     0.0000     0.0000     0.1006      1.000      0.000  39295.000      1.659    41.5367    -0.0000  -101.1010   -30.0491     0.6032     0.1990    22.0000     7.0000     8.0000    22.0000    23.0000     3.0000     7.0000    23.0000    -3.0005     0.0010    20.8442    41.6887     1.3668    14.4503    14.3497     1.6765     1.0000     0.0000     1.7803     1.7356     1.7387    35.0130    35.0000     0.0000    -0.000
     50     1.0450     0.0000     0.0001     0.1006      1.000      3.000  39081.000      1.650    41.5367    -0.0000  -101.1730   -30.2000     0.6032     0.1990    22.0000     7.0000     8.0000    22.0000    23.0000     3.0000     7.0000    23.0000    -3.0005     0.0010    20.8442    41.6887     1.3735    14.4503    14.3497     1.6766     1.0000     0.0000     1.7834     1.7384     1.7411    34.9095    35.0000     0.0000    -0.000
     51     1.0499     0.0000     0.0000     0.1006      1.000      3.000  39130.000      1.652    41.5367    -0.0000  -101.2451   -30.3442     0.6032     0.1990    22.0000     7.0000     8.0000    22.0000    23.0000     3.0000     7.0000    23.0000    -3.0005     0.0010    20.8443    41.6887     1.3799    14.4503    14.3497     1.6767     1.0000     0.0000     1.7837     1.7389     1.7411    35.0901    35.0000     0.0000    -0.000
     52     1.0550     0.0000     0.0001     0.1005      1.000      1.000  39152.000      1.653    41.5367    -0.0000  -101.3173   -30.4951     0.6032     0.1990    22.0000     7.0000     8.0000    22.0000    23.0000     3.0000     7.0000    23.0000    -3.0005     0.0010    20.8442    41.6887     1.3866    14.4503    14.3498     1.6766     1.0000     0.0000     1.7800     1.7349     1.7390    34.9483    35.0000     0.0000    -0.000
     53     1.0599     0.0000     0.0000     0.1006      1.000      6.000  39675.000      1.675    41.5367    -0.0000  -101.3895   -30.6412     0.6032     0.1990    22.0000     7.0000     8.0000    22.0000    23.0000     3.0000     7.0000    23.0000    -3.0005     0.0010    20.8442    41.6887     1.3931    14.4503    14.3497     1.6767     1.0000     0.0000     1.7845     1.7397     1.7420    34.9580    35.0000     0.0000    -0.000
     54     1.0651     0.0000     0.0001     0.1005      1.000      4.000  39201.000      1.655    41.5367    -0.0001  -101.4617   -30.7951     0.6032     0.1990    22.0000     7.0000     8.0000    22.0000    23.0000     3.0000     7.0000    23.0000    -3.0005     0.0010    20.8442    41.6887     1.3999    14.4503    14.3498     1.6767     1.0000     0.0000     1.7817     1.7366     1.7401    35.0837    35.0000     0.0000    -0.000
     55     1.0700     0.0000     0.0001     0.1005      1.000      4.000  39045.000      1.649    41.5367    -0.0000  -101.5340   -30.9397     0.6032     0.1990    22.0000     7.0000     8.0000    22.0000    23.0000     3.0000     7.0000    23.0000    -3.0005     0.0010    20.8442    41.6887     1.4063    14.4503    14.3498     1.6767     1.0000     0.0000     1.7810     1.7361     1.7390    34.9042    35.0000     0.0000    -0.000
     56     1.0751     0.0000     0.0001     0.1006      1.000      3.000  39349.000      1.662    41.5367     0.0000  -101.6063   -31.0915     0.6032     0.1990    22.0000     7.0000     8.0000    22.0000    23.0000     3.0000     7.0000    23.0000    -3.0005     0.0010    20.8442    41.6887     1.4131    14.4503    14.3497     1.6768     1.0000     0.0000     1.7842     1.7395     1.7420    35.0488    35.0000     0.0000    -0.000
     57     1.0800     0.0000     0.0001     0.1005      1.000      5.000  39349.000      1.662    41.5367    -0.0000  -101.6786   -31.2354     0.6032     0.1990    22.0000     7.0000     8.0000    22.0000    23.0000     3.0000     7.0000    23.0000    -3.0005     0.0010    20.8442    41.6887     1.4194    14.4503    14.3498     1.6768     1.0000     0.0000     1.7794     1.7347     1.7378    35.0288    35.0000     0.0000    -0.000
     58     1.0851     0.0000     0.0001     0.1005      1.000      3.000  39454.000      1.666    41.5367     0.0001  -101.7510   -31.3873     0.6032     0.1990    22.0000     7.0000     8.0000    22.0000    23.0000     3.0000     7.0000    23.0000    -3.0005     0.0010    20.8442    41.6887     1.4262    14.4503    14.3498     1.6768     1.0000     0.0000     1.7827     1.7379     1.7402    34.9208    35.0000     0.0000    -0.000
     59     1.0899     0.0000     0.0000     0.1005      1.000      6.000  39368.000      1.663    41.5367     0.0000  -101.8235   -31.5320     0.6032     0.1990    22.0000     7.0000     8.0000    22.0000    23.0000     3.0000     7.0000    23.0000    -3.0005     0.0010    20.8442    41.6887     1.4326    14.4503    14.3498     1.6769     1.0000     0.0000     1.7827     1.7380     1.7403    35.0909    35.0000     0.0000    -0.000
     60     1.0950     0.0000     0.0001     0.1005      1.000      1.000  39206.000      1.656    41.5367     0.0000  -101.8960   -31.6809     0.6032     0.1990    22.0000     7.0000     8.0000    22.0000    23.0000     3.0000     7.0000    23.0000    -3.0005     0.0010    20.8442    41.6887     1.4392    14.4503    14.3498     1.6768     1.0000     0.0000     1.7787     1.7338     1.7376    34.9572    35.0000     0.0000    -0.000
     61     1.0999     0.0000     0.0000     0.1005      1.000      3.000  39421.000      1.665    41.5367     0.0000  -101.9685   -31.8287     0.6032     0.1990    22.0000     7.0000     8.0000    22.0000    23.0000     3.0000     7.0000    23.0000    -3.0005     0.0010    20.8442    41.6887     1.4457    14.4503    14.3498     1.6769     1.0000     0.0000     1.7837     1.7387     1.7403    34.9738    35.0000     0.0000    -0.000
     62     1.1050     0.0000     0.0001     0.1006      1.000      5.000  39278.000      1.659    41.5367    -0.0000  -102.0411   -31.9793     0.6032     0.1990    22.0000     7.0000     8.0000    22.0000    23.0000     3.0000     7.0000    23.0000    -3.0005     0.0010    20.8442    41.6887     1.4524    14.4503    14.3497     1.6769     1.0000     0.0000     1.7809     1.7359     1.7390    35.0883    35.0000     0.0000    -0.000
     63     1.1099     0.0000     0.0000     0.1005      1.000      2.000  39090.000      1.651    41.5367    -0.0001  -102.1137   -32.1248     0.6032     0.1990    22.0000     7.0000     8.0000    22.0000    23.0000     3.0000     7.0000    23.0000    -3.0005     0.0010    20.8442    41.6887     1.4588    14.4503    14.3497     1.6769     1.0000     0.0000     1.7794     1.7343     1.7379    34.9133    35.0000     0.0000    -0.000
     64     1.1150     0.0000     0.0001     0.1005      1.000      8.000  39418.000      1.665    41.5367    -0.0000  -102.1863   -32.2752     0.6032     0.1990    22.0000     7.0000     8.0000    22.0000    23.0000     3.0000     7.0000    23.0000    -3.0005     0.0010    20.8442    41.6887     1.4654    14.4503    14.3498     1.6770     1.0000     0.0000     1.7832     1.7384     1.7409    35.0513    35.0000     0.0000    -0.000
     65     1.1199     0.0000     0.0000     0.1005      1.000      2.000  38730.000      1.636    41.5367     0.0000  -102.2590   -32.4232     0.6032     0.1990    22.0000     7.0000     8.0000    22.0000    23.0000     3.0000     7.0000    23.0000    -3.0005     0.0010    20.8442    41.6887     1.4720    14.4503    14.3498     1.6770     1.0000     0.0000     1.7788     1.7339     1.7378    35.0389    35.0000     0.0000    -0.000
     66     1.1250     0.0000     0.0001     0.1005      1.000      4.000  38943.000      1.645    41.5367    -0.0000  -102.3318   -32.5741     0.6032     0.1990    22.0000     7.0000     8.0000    22.0000    23.0000     3.0000     7.0000    23.0000    -3.0005     0.0010    20.8442    41.6887     1.4787    14.4503    14.3498     1.6770     1.0000     0.0000     1.7809     1.7362     1.7391    34.9087    35.0000     0.0000    -0.000
     67     1.1301     0.0000     0.0001     0.1005      1.000      3.000  39118.000      1.652    41.5367    -0.0000  -102.4046   -32.7243     0.6032     0.1990    22.0000     7.0000     8.0000    22.0000    23.0000     3.0000     7.0000    23.0000    -3.0005     0.0010    20.8442    41.6887     1.4853    14.4503    14.3498     1.6771     1.0000     0.0000     1.7816     1.7368     1.7395    35.0934    35.0000     0.0000    -0.000
     68     1.1350     0.0000     0.0001     0.1005      1.000      5.000  38846.000      1.640    41.5367    -0.0000  -102.4774   -32.8710     0.6032     0.1990    22.0000     7.0000     8.0000    22.0000    23.0000     3.0000     7.0000    23.0000    -3.0005     0.0010    20.8442    41.6887     1.4918    14.4503    14.3497     1.6771     1.0000     0.0000     1.7779     1.7327     1.7365    34.9729    35.0000     0.0000    -0.000
     69     1.1400     0.0000     0.0001     0.1005      1.000      3.000  39037.000      1.649    41.5367    -0.0000  -102.5502   -33.0195     0.6032     0.1990    22.0000     7.0000     8.0000    22.0000    23.0000     3.0000     7.0000    23.0000    -3.0005     0.0010    20.8441    41.6887     1.4983    14.4503    14.3497     1.6771     1.0000     0.0000     1.7824     1.7375     1.7393    34.9505    35.0000     0.0000    -0.000
     70     1.1449     0.0000     0.0000     0.1005      1.000      4.000  39141.000      1.653    41.5367    -0.0000  -102.6231   -33.1663     0.6032     0.1990    22.0000     7.0000     8.0000    22.0000    23.0000     3.0000     7.0000    23.0000    -3.0005     0.0010    20.8442    41.6887     1.5048    14.4503    14.3498     1.6771     1.0000     0.0000     1.7797     1.7348     1.7380    35.0844    35.0000     0.0000    -0.000
     71     1.1500     0.0000     0.0001     0.1005      1.000      4.000  39101.000      1.651    41.5367    -0.0001  -102.6961   -33.3178     0.6032     0.1990    22.0000     7.0000     8.0000    22.0000    23.0000     3.0000     7.0000    23.0000    -3.0005     0.0010    20.8442    41.6887     1.5115    14.4503    14.3498     1.6771     1.0000     0.0000     1.7778     1.7329     1.7368    34.9187    35.0000     0.0000    -0.000
     72     1.1549     0.0000     0.0000     0.1005      1.000      2.000  39016.000      1.648    41.5367    -0.0001  -102.7691   -33.4647     0.6032     0.1990    22.0000     7.0000     8.0000    22.0000    23.0000     3.0000     7.0000    23.0000    -3.0005     0.0010    20.8442    41.6887     1.5179    14.4503    14.3498     1.6772     1.0000     0.0000     1.7825     1.7378     1.7411    35.0215    35.0000     0.0000    -0.000
     73     1.1600     0.0000     0.0001     0.1005      1.000      4.000  39441.000      1.666    41.5367     0.0000  -102.8421   -33.6167     0.6032     0.1990    22.0000     7.0000     8.0000    22.0000    23.0000     3.0000     7.0000    23.0000    -3.0005     0.0010    20.8442    41.6887     1.5246    14.4503    14.3498     1.6772     1.0000     0.0000     1.7780     1.7330     1.7371    35.0364    35.0000     0.0000    -0.000
     74     1.1649     0.0000     0.0000     0.1005      1.000      7.000  39757.000      1.679    41.5367    -0.0000  -102.9152   -33.7637     0.6032     0.1990    22.0000     7.0000     8.0000    22.0000    23.0000     3.0000     7.0000    23.0000    -3.0005     0.0010    20.8441    41.6887     1.5311    14.4503    14.3498     1.6771     1.0000     0.0000     1.7793     1.7346     1.7373    34.9032    35.0000     0.0000    -0.000
     75     1.1700     0.0000     0.0001     0.1005      1.000      3.000  39353.000      1.662    41.5367    -0.0000  -102.9883   -33.9164     0.6032     0.1990    22.0000     7.0000     8.0000    22.0000    23.0000     3.0000     7.0000    23.0000    -3.0005     0.0010    20.8441    41.6887     1.5378    14.4503    14.3498     1.6772     1.0000     0.0000     1.7815     1.7365     1.7392    35.0797    35.0000     0.0000    -0.000
     76     1.1750     0.0000     0.0001     0.1005      1.000      5.000  39046.000      1.649    41.5367    -0.0000  -103.0615   -34.0656     0.6032     0.1990    22.0000     7.0000     8.0000    22.0000    23.0000     3.0000     7.0000    23.0000    -3.0005     0.0010    20.8442    41.6887     1.5444    14.4503    14.3498     1.6772     1.0000     0.0000     1.7767     1.7318     1.7365    34.9830    35.0000     0.0000    -0.000
     77     1.1800     0.0000     0.0001     0.1005      1.000      6.000  39064.000      1.650    41.5367     0.0001  -103.1347   -34.2148     0.6032     0.1990    22.0000     7.0000     8.0000    22.0000    23.0000     3.0000     7.0000    23.0000    -3.0005     0.0010    20.8442    41.6887     1.5510    14.4503    14.3498     1.6773     1.0000     0.0000     1.7809     1.7360     1.7386    34.9255    35.0000     0.0000    -0.000
     78     1.1850     0.0000     0.0001     0.1005      1.000      4.000  39514.000      1.669    41.5367     0.0001  -103.2079   -34.3650     0.6032     0.1990    22.0000     7.0000     8.0000    22.0000    23.0000     3.0000     7.0000    23.0000    -3.0005     0.0010    20.8441    41.6887     1.5576    14.4503    14.3498     1.6773     1.0000     0.0000     1.7799     1.7349     1.7377    35.0949    35.0000     0.0000    -0.000
     79     1.1900     0.0000     0.0001     0.1005      1.000      1.000  39891.000      1.685    41.5367     0.0001  -103.2812   -34.5141     0.6032     0.1990    22.0000     7.0000     8.0000    22.0000    23.0000     3.0000     7.0000    23.0000    -3.0005     0.0010    20.8442    41.6887     1.5641    14.4503    14.3498     1.6774     1.0000     0.0000     1.7769     1.7319     1.7361    34.9295    35.0000     0.0000    -0.000
     80     1.1950     0.0000     0.0001     0.1005      1.000      3.000  39378.000      1.663    41.5367     0.0001  -103.3546   -34.6623     0.6032     0.1990    22.0000     7.0000     8.0000    22.0000    23.0000     3.0000     7.0000    23.0000    -3.0005     0.0010    20.8442    41.6887     1.5706    14.4503    14.3498     1.6774     1.0000     0.0000     1.7816     1.7369     1.7396    34.9887    35.0000     0.0000    -0.000
     81     1.1999     0.0000     0.0000     0.1005      1.000      6.000  39383.000      1.663    41.5367     0.0000  -103.4279   -34.8096     0.6032     0.1990    22.0000     7.0000     8.0000    22.0000    23.0000     3.0000     7.0000    23.0000    -3.0005     0.0010    20.8441    41.6887     1.5771    14.4503    14.3498     1.6774     1.0000     0.0000     1.7776     1.7328     1.7375    35.0707    35.0000     0.0000    -0.000
# Sum of Counts = 322
# Center of Mass = 1.000524+/-0.079113
# Full Width Half-Maximum = 0.230435+/-0.021685
# 5:47:51 PM  8/14/2024   scan completed.
