# scan = 120
# date = 4/10/2024
# time = 2:46:08 AM
# proposal = 33477
# experiment = Commissioning and enabling the 4-circle capability at VERITAS
# experiment_number = 1012
# command = scanrel s1 1 -1 0.1
# builtin_command = scan s1 @(s1)+1 @(s1)+-1 0.100000
# users = Feng Ye, Mike McDowell, Adam Aczel, Bing Li, Wei Tian, Bing Li
# local_contact = Wei Tian, Adam Aczel
# scan_title = La2Ni7-FC, (0 1 -9), rocking
# monochromator = PG002
# analyzer = Pg002
# sense = +-+
# collimation = 40-40-40-80
# samplename = La2Ni7, Al-doped CuFeO2
# sampletype = crystal
# samplemosaic = 30.000000
# latticeconstants = 
# ubmatrix = 
# mode = 0
# plane_normal = 0.000000,0.000000,0.000000
# ubconf = /C/SPICE/User/exp1012/UBConf/UB09Apr2024_32926PM.ini
# preset_type = normal 
# preset_channel = mcu
# preset_value = 10.000000
# def_x = s1
# def_y = detector
# col_headers = 
#   Pt.         s1       time   detector    monitor        mcu         m2        chi        phi         s2        sgl        sgu   slitb_bt   slitb_lf   slitb_rt   slitb_tp   slita_bt   slita_lf   slita_rt   slita_tp         a1         a2          q          h          k          l         ei         ef          e
      1   -29.9149     11.216   1003.000 106661.000     10.000    41.5367   -13.6128   -66.5618   -61.8302     0.0409     0.0130    20.0000    10.0000    10.0000    20.0000    10.0000    10.0000    10.0000    10.0000    20.7603    -0.0011     2.7135     0.0000     0.0000     0.0000    14.4503    14.4503     0.000
      2   -30.0146     11.163    961.000 106661.000     10.000    41.5367   -13.6128   -66.5618   -61.8302     0.0409     0.0130    20.0000    10.0000    10.0000    20.0000    10.0000    10.0000    10.0000    10.0000    20.7603    -0.0011     2.7135     0.0000     0.0000     0.0000    14.4503    14.4503     0.000
      3   -30.1147     11.182   1041.000 106661.000     10.000    41.5367   -13.6128   -66.5618   -61.8302     0.0409     0.0130    20.0000    10.0000    10.0000    20.0000    10.0000    10.0000    10.0000    10.0000    20.7603    -0.0011     2.7135     0.0000     0.0000     0.0000    14.4503    14.4503     0.000
      4   -30.2143     11.162   1048.000 106661.000     10.000    41.5367   -13.6128   -66.5618   -61.8302     0.0409     0.0130    20.0000    10.0000    10.0000    20.0000    10.0000    10.0000    10.0000    10.0000    20.7603    -0.0011     2.7135     0.0000     0.0000     0.0000    14.4503    14.4503     0.000
      5   -30.3144     11.121   1185.000 106661.000     10.000    41.5367   -13.6128   -66.5618   -61.8302     0.0409     0.0130    20.0000    10.0000    10.0000    20.0000    10.0000    10.0000    10.0000    10.0000    20.7603    -0.0011     2.7135     0.0000     0.0000     0.0000    14.4503    14.4503     0.000
      6   -30.4144     11.155   1473.000 106661.000     10.000    41.5367   -13.6128   -66.5618   -61.8302     0.0409     0.0130    20.0000    10.0000    10.0000    20.0000    10.0000    10.0000    10.0000    10.0000    20.7603    -0.0011     2.7135     0.0000     0.0000     0.0000    14.4503    14.4503     0.000
      7   -30.5153     11.203   3715.000 106661.000     10.000    41.5367   -13.6128   -66.5618   -61.8302     0.0409     0.0130    20.0000    10.0000    10.0000    20.0000    10.0000    10.0000    10.0000    10.0000    20.7603    -0.0011     2.7135     0.0000     0.0000     0.0000    14.4503    14.4503     0.000
      8   -30.6148     11.140   9805.000 106661.000     10.000    41.5367   -13.6128   -66.5618   -61.8302     0.0409     0.0130    20.0000    10.0000    10.0000    20.0000    10.0000    10.0000    10.0000    10.0000    20.7603    -0.0011     2.7135     0.0000     0.0000     0.0000    14.4503    14.4503     0.000
      9   -30.7150     11.139  18330.000 106661.000     10.000    41.5367   -13.6128   -66.5618   -61.8302     0.0409     0.0130    20.0000    10.0000    10.0000    20.0000    10.0000    10.0000    10.0000    10.0000    20.7603    -0.0011     2.7135     0.0000     0.0000     0.0000    14.4503    14.4503     0.000
     10   -30.8148     11.162  21751.000 106661.000     10.000    41.5367   -13.6128   -66.5618   -61.8302     0.0409     0.0130    20.0000    10.0000    10.0000    20.0000    10.0000    10.0000    10.0000    10.0000    20.7603    -0.0011     2.7135     0.0000     0.0000     0.0000    14.4503    14.4503     0.000
     11   -30.9143     11.169  16433.000 106661.000     10.000    41.5367   -13.6128   -66.5618   -61.8302     0.0409     0.0130    20.0000    10.0000    10.0000    20.0000    10.0000    10.0000    10.0000    10.0000    20.7603    -0.0011     2.7135     0.0000     0.0000     0.0000    14.4503    14.4503     0.000
     12   -31.0148     11.106   8825.000 106661.000     10.000    41.5367   -13.6128   -66.5618   -61.8302     0.0409     0.0130    20.0000    10.0000    10.0000    20.0000    10.0000    10.0000    10.0000    10.0000    20.7603    -0.0011     2.7135     0.0000     0.0000     0.0000    14.4503    14.4503     0.000
     13   -31.1147     11.112   4634.000 106661.000     10.000    41.5367   -13.6128   -66.5618   -61.8302     0.0409     0.0130    20.0000    10.0000    10.0000    20.0000    10.0000    10.0000    10.0000    10.0000    20.7603    -0.0011     2.7135     0.0000     0.0000     0.0000    14.4503    14.4503     0.000
     14   -31.2144     11.111   2130.000 106661.000     10.000    41.5367   -13.6128   -66.5618   -61.8302     0.0409     0.0130    20.0000    10.0000    10.0000    20.0000    10.0000    10.0000    10.0000    10.0000    20.7603    -0.0011     2.7135     0.0000     0.0000     0.0000    14.4503    14.4503     0.000
     15   -31.3143     11.128   1330.000 106661.000     10.000    41.5367   -13.6128   -66.5618   -61.8302     0.0409     0.0130    20.0000    10.0000    10.0000    20.0000    10.0000    10.0000    10.0000    10.0000    20.7603    -0.0011     2.7135     0.0000     0.0000     0.0000    14.4503    14.4503     0.000
     16   -31.4148     11.204   1025.000 106661.000     10.000    41.5367   -13.6128   -66.5618   -61.8302     0.0409     0.0130    20.0000    10.0000    10.0000    20.0000    10.0000    10.0000    10.0000    10.0000    20.7603    -0.0011     2.7135     0.0000     0.0000     0.0000    14.4503    14.4503     0.000
     17   -31.5151     11.164    918.000 106661.000     10.000    41.5367   -13.6128   -66.5618   -61.8302     0.0409     0.0130    20.0000    10.0000    10.0000    20.0000    10.0000    10.0000    10.0000    10.0000    20.7603    -0.0011     2.7135     0.0000     0.0000     0.0000    14.4503    14.4503     0.000
     18   -31.6148     11.193    931.000 106661.000     10.000    41.5367   -13.6128   -66.5618   -61.8302     0.0409     0.0130    20.0000    10.0000    10.0000    20.0000    10.0000    10.0000    10.0000    10.0000    20.7603    -0.0011     2.7135     0.0000     0.0000     0.0000    14.4503    14.4503     0.000
     19   -31.7148     11.159    987.000 106661.000     10.000    41.5367   -13.6128   -66.5618   -61.8302     0.0409     0.0130    20.0000    10.0000    10.0000    20.0000    10.0000    10.0000    10.0000    10.0000    20.7603    -0.0011     2.7135     0.0000     0.0000     0.0000    14.4503    14.4503     0.000
     20   -31.8150     11.165    955.000 106661.000     10.000    41.5367   -13.6128   -66.5618   -61.8302     0.0409     0.0130    20.0000    10.0000    10.0000    20.0000    10.0000    10.0000    10.0000    10.0000    20.7603    -0.0011     2.7135     0.0000     0.0000     0.0000    14.4503    14.4503     0.000
     21   -31.9145     11.147    932.000 106661.000     10.000    41.5367   -13.6128   -66.5618   -61.8302     0.0409     0.0130    20.0000    10.0000    10.0000    20.0000    10.0000    10.0000    10.0000    10.0000    20.7603    -0.0011     2.7135     0.0000     0.0000     0.0000    14.4503    14.4503     0.000
# Sum of Counts = 99412
# Center of Mass = -30.835531+/-0.138311
# Full Width Half-Maximum = 0.622003+/-0.045012
# 2:50:19 AM  4/10/2024   scan completed.
