# scan = 111
# date = 4/10/2024
# time = 2:01:50 AM
# proposal = 33477
# experiment = Commissioning and enabling the 4-circle capability at VERITAS
# experiment_number = 1012
# command = scanrel s1 1 -1 0.1
# builtin_command = scan s1 @(s1)+1 @(s1)+-1 0.100000
# users = Feng Ye, Mike McDowell, Adam Aczel, Bing Li, Wei Tian, Bing Li
# local_contact = Wei Tian, Adam Aczel
# scan_title = La2Ni7-FC, (-1 1 9), rocking
# monochromator = PG002
# analyzer = Pg002
# sense = +-+
# collimation = 40-40-40-80
# samplename = La2Ni7, Al-doped CuFeO2
# sampletype = crystal
# samplemosaic = 30.000000
# latticeconstants = 
# ubmatrix = 
# mode = 0
# plane_normal = 0.000000,0.000000,0.000000
# ubconf = /C/SPICE/User/exp1012/UBConf/UB09Apr2024_32926PM.ini
# preset_type = normal 
# preset_channel = mcu
# preset_value = 10.000000
# def_x = s1
# def_y = detector
# col_headers = 
#   Pt.         s1       time   detector    monitor        mcu         m2        chi        phi         s2        sgl        sgu   slitb_bt   slitb_lf   slitb_rt   slitb_tp   slita_bt   slita_lf   slita_rt   slita_tp         a1         a2          q          h          k          l         ei         ef          e
      1   -29.9143     11.260   1637.000 106661.000     10.000    41.5367   -34.7775   -86.6955   -61.8311     0.0409     0.0130    20.0000    10.0000    10.0000    20.0000    10.0000    10.0000    10.0000    10.0000    20.7603    -0.0011     2.7135     0.0000     0.0000     0.0000    14.4503    14.4503     0.000
      2   -30.0143     11.138   1768.000 106661.000     10.000    41.5367   -34.7775   -86.6955   -61.8311     0.0409     0.0130    20.0000    10.0000    10.0000    20.0000    10.0000    10.0000    10.0000    10.0000    20.7603    -0.0011     2.7135     0.0000     0.0000     0.0000    14.4503    14.4503     0.000
      3   -30.1139     11.164   1842.000 106661.000     10.000    41.5367   -34.7775   -86.6955   -61.8311     0.0409     0.0130    20.0000    10.0000    10.0000    20.0000    10.0000    10.0000    10.0000    10.0000    20.7603    -0.0011     2.7135     0.0000     0.0000     0.0000    14.4503    14.4503     0.000
      4   -30.2137     11.169   1890.000 106661.000     10.000    41.5367   -34.7775   -86.6955   -61.8311     0.0409     0.0130    20.0000    10.0000    10.0000    20.0000    10.0000    10.0000    10.0000    10.0000    20.7603    -0.0011     2.7135     0.0000     0.0000     0.0000    14.4503    14.4503     0.000
      5   -30.3137     11.174   1822.000 106661.000     10.000    41.5367   -34.7775   -86.6955   -61.8311     0.0409     0.0130    20.0000    10.0000    10.0000    20.0000    10.0000    10.0000    10.0000    10.0000    20.7603    -0.0011     2.7135     0.0000     0.0000     0.0000    14.4503    14.4503     0.000
      6   -30.4139     11.226   1720.000 106661.000     10.000    41.5367   -34.7775   -86.6955   -61.8311     0.0409     0.0130    20.0000    10.0000    10.0000    20.0000    10.0000    10.0000    10.0000    10.0000    20.7603    -0.0011     2.7135     0.0000     0.0000     0.0000    14.4503    14.4503     0.000
      7   -30.5143     11.233   1779.000 106661.000     10.000    41.5367   -34.7775   -86.6955   -61.8311     0.0409     0.0130    20.0000    10.0000    10.0000    20.0000    10.0000    10.0000    10.0000    10.0000    20.7603    -0.0011     2.7135     0.0000     0.0000     0.0000    14.4503    14.4503     0.000
      8   -30.6143     11.194   1757.000 106661.000     10.000    41.5367   -34.7775   -86.6955   -61.8311     0.0409     0.0130    20.0000    10.0000    10.0000    20.0000    10.0000    10.0000    10.0000    10.0000    20.7602    -0.0011     2.7135     0.0000     0.0000     0.0000    14.4503    14.4503     0.000
      9   -30.7145     11.139   1710.000 106661.000     10.000    41.5367   -34.7775   -86.6955   -61.8311     0.0409     0.0130    20.0000    10.0000    10.0000    20.0000    10.0000    10.0000    10.0000    10.0000    20.7603    -0.0011     2.7135     0.0000     0.0000     0.0000    14.4503    14.4503     0.000
     10   -30.8139     11.185   1609.000 106661.000     10.000    41.5367   -34.7775   -86.6955   -61.8311     0.0409     0.0130    20.0000    10.0000    10.0000    20.0000    10.0000    10.0000    10.0000    10.0000    20.7602    -0.0011     2.7135     0.0000     0.0000     0.0000    14.4503    14.4503     0.000
     11   -30.9140     11.242   1528.000 106661.000     10.000    41.5367   -34.7775   -86.6955   -61.8311     0.0409     0.0130    20.0000    10.0000    10.0000    20.0000    10.0000    10.0000    10.0000    10.0000    20.7603    -0.0011     2.7135     0.0000     0.0000     0.0000    14.4503    14.4503     0.000
     12   -31.0143     11.210   1493.000 106661.000     10.000    41.5367   -34.7775   -86.6955   -61.8311     0.0409     0.0130    20.0000    10.0000    10.0000    20.0000    10.0000    10.0000    10.0000    10.0000    20.7603    -0.0011     2.7135     0.0000     0.0000     0.0000    14.4503    14.4503     0.000
     13   -31.1140     11.158   1514.000 106661.000     10.000    41.5367   -34.7775   -86.6955   -61.8311     0.0409     0.0130    20.0000    10.0000    10.0000    20.0000    10.0000    10.0000    10.0000    10.0000    20.7603    -0.0011     2.7135     0.0000     0.0000     0.0000    14.4503    14.4503     0.000
     14   -31.2137     11.171   1530.000 106661.000     10.000    41.5367   -34.7775   -86.6955   -61.8311     0.0409     0.0130    20.0000    10.0000    10.0000    20.0000    10.0000    10.0000    10.0000    10.0000    20.7603    -0.0011     2.7135     0.0000     0.0000     0.0000    14.4503    14.4503     0.000
     15   -31.3135     11.155   1601.000 106661.000     10.000    41.5367   -34.7775   -86.6955   -61.8311     0.0409     0.0130    20.0000    10.0000    10.0000    20.0000    10.0000    10.0000    10.0000    10.0000    20.7603    -0.0011     2.7135     0.0000     0.0000     0.0000    14.4503    14.4503     0.000
     16   -31.4141     11.228   1654.000 106661.000     10.000    41.5367   -34.7775   -86.6955   -61.8311     0.0409     0.0130    20.0000    10.0000    10.0000    20.0000    10.0000    10.0000    10.0000    10.0000    20.7603    -0.0011     2.7135     0.0000     0.0000     0.0000    14.4503    14.4503     0.000
     17   -31.5143     11.158   1845.000 106661.000     10.000    41.5367   -34.7775   -86.6955   -61.8311     0.0409     0.0130    20.0000    10.0000    10.0000    20.0000    10.0000    10.0000    10.0000    10.0000    20.7603    -0.0011     2.7135     0.0000     0.0000     0.0000    14.4503    14.4503     0.000
     18   -31.6142     11.200   1827.000 106661.000     10.000    41.5367   -34.7775   -86.6955   -61.8311     0.0409     0.0130    20.0000    10.0000    10.0000    20.0000    10.0000    10.0000    10.0000    10.0000    20.7603    -0.0011     2.7135     0.0000     0.0000     0.0000    14.4503    14.4503     0.000
     19   -31.7145     11.225   1784.000 106661.000     10.000    41.5367   -34.7775   -86.6955   -61.8311     0.0409     0.0130    20.0000    10.0000    10.0000    20.0000    10.0000    10.0000    10.0000    10.0000    20.7602    -0.0011     2.7135     0.0000     0.0000     0.0000    14.4503    14.4503     0.000
     20   -31.8141     11.165   1675.000 106661.000     10.000    41.5367   -34.7775   -86.6955   -61.8311     0.0409     0.0130    20.0000    10.0000    10.0000    20.0000    10.0000    10.0000    10.0000    10.0000    20.7603    -0.0011     2.7135     0.0000     0.0000     0.0000    14.4503    14.4503     0.000
     21   -31.9140     11.124   1456.000 106661.000     10.000    41.5367   -34.7775   -86.6955   -61.8311     0.0409     0.0130    20.0000    10.0000    10.0000    20.0000    10.0000    10.0000    10.0000    10.0000    20.7603    -0.0011     2.7135     0.0000     0.0000     0.0000    14.4503    14.4503     0.000
# Sum of Counts = 35441
# Center of Mass = -30.898147+/-0.232133
# Full Width Half-Maximum = 1.219477+/-0.102417
# 2:06:01 AM  4/10/2024   scan completed.
