# scan = 183
# date = 4/10/2024
# time = 8:53:41 AM
# proposal = 33477
# experiment = Commissioning and enabling the 4-circle capability at VERITAS
# experiment_number = 1012
# command = scanrel s1 1 -1 0.1
# builtin_command = scan s1 @(s1)+1 @(s1)+-1 0.100000
# users = Feng Ye, Mike McDowell, Adam Aczel, Bing Li, Wei Tian, Bing Li
# local_contact = Wei Tian, Adam Aczel
# scan_title = La2Ni7-FC, (-2 1 6), rocking
# monochromator = PG002
# analyzer = Pg002
# sense = +-+
# collimation = 40-40-40-80
# samplename = La2Ni7, Al-doped CuFeO2
# sampletype = crystal
# samplemosaic = 30.000000
# latticeconstants = 
# ubmatrix = 
# mode = 0
# plane_normal = 0.000000,0.000000,0.000000
# ubconf = /C/SPICE/User/exp1012/UBConf/UB09Apr2024_32926PM.ini
# preset_type = normal 
# preset_channel = mcu
# preset_value = 10.000000
# def_x = s1
# def_y = detector
# col_headers = 
#   Pt.         s1       time   detector    monitor        mcu         m2        chi        phi         s2        sgl        sgu   slitb_bt   slitb_lf   slitb_rt   slitb_tp   slita_bt   slita_lf   slita_rt   slita_tp         a1         a2          q          h          k          l         ei         ef          e
      1   -32.6331     11.012    175.000 106661.000     10.000    41.5367   -48.6467   128.0543   -67.2675     0.0409     0.0130    20.0000    10.0000    10.0000    20.0000    10.0000    10.0000    10.0000    10.0000    20.7604    -0.0013     2.9254     0.0000     0.0000     0.0000    14.4503    14.4503     0.000
      2   -32.7330     10.996    197.000 106661.000     10.000    41.5367   -48.6467   128.0543   -67.2675     0.0409     0.0130    20.0000    10.0000    10.0000    20.0000    10.0000    10.0000    10.0000    10.0000    20.7604    -0.0013     2.9254     0.0000     0.0000     0.0000    14.4503    14.4503     0.000
      3   -32.8334     11.007    295.000 106661.000     10.000    41.5367   -48.6467   128.0543   -67.2675     0.0409     0.0130    20.0000    10.0000    10.0000    20.0000    10.0000    10.0000    10.0000    10.0000    20.7604    -0.0013     2.9254     0.0000     0.0000     0.0000    14.4503    14.4503     0.000
      4   -32.9331     11.018    410.000 106661.000     10.000    41.5367   -48.6467   128.0543   -67.2675     0.0409     0.0130    20.0000    10.0000    10.0000    20.0000    10.0000    10.0000    10.0000    10.0000    20.7604    -0.0013     2.9253     0.0000     0.0000     0.0000    14.4503    14.4503     0.000
      5   -33.0330     11.005    558.000 106661.000     10.000    41.5367   -48.6467   128.0543   -67.2675     0.0409     0.0130    20.0000    10.0000    10.0000    20.0000    10.0000    10.0000    10.0000    10.0000    20.7604    -0.0013     2.9254     0.0000     0.0000     0.0000    14.4503    14.4503     0.000
      6   -33.1327     10.962    784.000 106661.000     10.000    41.5367   -48.6467   128.0543   -67.2675     0.0409     0.0130    20.0000    10.0000    10.0000    20.0000    10.0000    10.0000    10.0000    10.0000    20.7604    -0.0013     2.9254     0.0000     0.0000     0.0000    14.4503    14.4503     0.000
      7   -33.2326     11.033    993.000 106661.000     10.000    41.5367   -48.6467   128.0543   -67.2675     0.0409     0.0130    20.0000    10.0000    10.0000    20.0000    10.0000    10.0000    10.0000    10.0000    20.7604    -0.0013     2.9254     0.0000     0.0000     0.0000    14.4503    14.4503     0.000
      8   -33.3329     10.984   1547.000 106661.000     10.000    41.5367   -48.6467   128.0543   -67.2675     0.0409     0.0130    20.0000    10.0000    10.0000    20.0000    10.0000    10.0000    10.0000    10.0000    20.7604    -0.0013     2.9253     0.0000     0.0000     0.0000    14.4503    14.4503     0.000
      9   -33.4331     10.994   3917.000 106661.000     10.000    41.5367   -48.6467   128.0543   -67.2675     0.0409     0.0130    20.0000    10.0000    10.0000    20.0000    10.0000    10.0000    10.0000    10.0000    20.7604    -0.0013     2.9253     0.0000     0.0000     0.0000    14.4503    14.4503     0.000
     10   -33.5332     10.960  16929.000 106661.000     10.000    41.5367   -48.6467   128.0543   -67.2675     0.0409     0.0130    20.0000    10.0000    10.0000    20.0000    10.0000    10.0000    10.0000    10.0000    20.7604    -0.0013     2.9253     0.0000     0.0000     0.0000    14.4503    14.4503     0.000
     11   -33.6333     10.989  52673.000 106661.000     10.000    41.5367   -48.6467   128.0543   -67.2675     0.0409     0.0130    20.0000    10.0000    10.0000    20.0000    10.0000    10.0000    10.0000    10.0000    20.7604    -0.0013     2.9253     0.0000     0.0000     0.0000    14.4503    14.4503     0.000
     12   -33.7331     10.947  94842.000 106661.000     10.000    41.5367   -48.6467   128.0543   -67.2675     0.0409     0.0130    20.0000    10.0000    10.0000    20.0000    10.0000    10.0000    10.0000    10.0000    20.7604    -0.0013     2.9253     0.0000     0.0000     0.0000    14.4503    14.4503     0.000
     13   -33.8334     11.003 111721.000 106661.000     10.000    41.5367   -48.6467   128.0543   -67.2675     0.0409     0.0130    20.0000    10.0000    10.0000    20.0000    10.0000    10.0000    10.0000    10.0000    20.7604    -0.0013     2.9254     0.0000     0.0000     0.0000    14.4503    14.4503     0.000
     14   -33.9331     11.003  86548.000 106661.000     10.000    41.5367   -48.6467   128.0543   -67.2675     0.0409     0.0130    20.0000    10.0000    10.0000    20.0000    10.0000    10.0000    10.0000    10.0000    20.7604    -0.0013     2.9253     0.0000     0.0000     0.0000    14.4503    14.4503     0.000
     15   -34.0327     11.040  42711.000 106661.000     10.000    41.5367   -48.6467   128.0543   -67.2675     0.0409     0.0130    20.0000    10.0000    10.0000    20.0000    10.0000    10.0000    10.0000    10.0000    20.7604    -0.0013     2.9254     0.0000     0.0000     0.0000    14.4503    14.4503     0.000
     16   -34.1327     10.961  16249.000 106661.000     10.000    41.5367   -48.6467   128.0543   -67.2675     0.0409     0.0130    20.0000    10.0000    10.0000    20.0000    10.0000    10.0000    10.0000    10.0000    20.7604    -0.0013     2.9253     0.0000     0.0000     0.0000    14.4503    14.4503     0.000
     17   -34.2327     10.978   5980.000 106661.000     10.000    41.5367   -48.6467   128.0543   -67.2675     0.0409     0.0130    20.0000    10.0000    10.0000    20.0000    10.0000    10.0000    10.0000    10.0000    20.7604    -0.0013     2.9253     0.0000     0.0000     0.0000    14.4503    14.4503     0.000
     18   -34.3328     10.984   1970.000 106661.000     10.000    41.5367   -48.6467   128.0543   -67.2675     0.0409     0.0130    20.0000    10.0000    10.0000    20.0000    10.0000    10.0000    10.0000    10.0000    20.7604    -0.0013     2.9254     0.0000     0.0000     0.0000    14.4503    14.4503     0.000
     19   -34.4331     11.012    811.000 106661.000     10.000    41.5367   -48.6467   128.0543   -67.2675     0.0409     0.0130    20.0000    10.0000    10.0000    20.0000    10.0000    10.0000    10.0000    10.0000    20.7604    -0.0013     2.9254     0.0000     0.0000     0.0000    14.4503    14.4503     0.000
     20   -34.5333     11.032    599.000 106661.000     10.000    41.5367   -48.6467   128.0543   -67.2675     0.0409     0.0130    20.0000    10.0000    10.0000    20.0000    10.0000    10.0000    10.0000    10.0000    20.7604    -0.0013     2.9253     0.0000     0.0000     0.0000    14.4503    14.4503     0.000
     21   -34.6336     10.985    462.000 106661.000     10.000    41.5367   -48.6467   128.0543   -67.2675     0.0409     0.0130    20.0000    10.0000    10.0000    20.0000    10.0000    10.0000    10.0000    10.0000    20.7604    -0.0013     2.9253     0.0000     0.0000     0.0000    14.4503    14.4503     0.000
# Sum of Counts = 440371
# Center of Mass = -33.825432+/-0.072086
# Full Width Half-Maximum = 0.358292+/-0.036834
# 8:57:53 AM  4/10/2024   scan completed.
