# scan = 31
# date = 8/12/2024
# time = 4:44:10 PM
# proposal = 32912
# experiment = Quantum Phase Transition in Transverse Field Ising Ferromagnet HoV6Sn6
# experiment_number = 1031
# command = scan n 100 preset time 15
# builtin_command = scan n 100 preset time 15
# users = Aashish Sapkota, Benjamin Ueland, Fei Li, Rob McQueeney, Tianxiong Han
# local_contact = Wei Tian, Bing Li
# scan_title = sit on [1 0 0] cooling
# monochromator = PG002
# analyzer = Pg002
# sense = +-+
# collimation = 40-40-40-80
# samplename = HoV6Sn6
# sampletype = crystal
# samplemosaic = 30.000000
# latticeconstants = 5.515569,5.515569,9.168648,90.000000,90.000000,120.000000
# ubmatrix = 0.015664,0.005802,0.108755,0.208766,0.104375,-0.008161,0.000184,0.181386,0.001217
# mode = 0
# plane_normal = -0.011197,-0.000044,0.999937
# ubconf = UB12Aug2024_34738PM.ini
# preset_type = normal 
# preset_channel = time
# preset_value = 15.000000
# def_x = Pt.
# def_y = detector
# col_headers = 
#   Pt.       time   detector    monitor        mcu         m2      mag_i         s1         s2        sgl        sgu   slitb_bt   slitb_lf   slitb_rt   slitb_tp   slita_bt   slita_lf   slita_rt   slita_tp        stl        stu         a1         a2          q          h          k          l         ei         ef          e        vti       temp     temp_2         lt         ht      1kpot  sorb_temp       sorb  sample_ht persistent_field
      1     15.000   3795.000 579789.000     24.485    41.5367    -0.0000  -100.1305   -28.8376     0.6415    -0.0025    22.0000     7.0000     8.0000    22.0000    23.0000     3.0000     7.0000    23.0000    -3.0005     0.0010    20.7694    41.5370     1.3151     0.9998     0.0000    -0.0001    14.4503    14.4501     0.0002    19.8882    20.0000     0.0000    54.8707    60.5836    18.6452    35.0064    35.0000     0.0000     0.000
      2     15.000   3754.000 579401.000     24.468    41.5367     0.0000  -100.1305   -28.8378     0.6415    -0.0025    22.0000     7.0000     8.0000    22.0000    23.0000     3.0000     7.0000    23.0000    -3.0005     0.0010    20.7695    41.5370     1.3151     0.9998     0.0000    -0.0001    14.4503    14.4501     0.0002    19.9253    20.0000     0.0000    54.4806    60.4220    18.6537    35.0063    35.0000     0.0000     0.000
      3     15.000   3768.000 579645.000     24.479    41.5367     0.0001  -100.1305   -28.8378     0.6415    -0.0025    22.0000     7.0000     8.0000    22.0000    23.0000     3.0000     7.0000    23.0000    -3.0005     0.0010    20.7695    41.5370     1.3151     0.9998     0.0000    -0.0001    14.4503    14.4501     0.0002    19.9260    20.0000     0.0000    54.2497    59.9414    18.6829    35.0060    35.0000     0.0000     0.000
      4     15.000   3953.000 577587.000     24.392    41.5367    -0.0000  -100.1305   -28.8378     0.6415    -0.0025    22.0000     7.0000     8.0000    22.0000    23.0000     3.0000     7.0000    23.0000    -3.0005     0.0010    20.7695    41.5370     1.3151     0.9998     0.0000    -0.0001    14.4503    14.4501     0.0002    19.9524    20.0000     0.0000    53.7710    59.4631    18.7090    35.0051    35.0000     0.0000     0.000
      5     15.000   3913.000 578197.000     24.418    41.5367     0.0001  -100.1305   -28.8378     0.6415    -0.0025    22.0000     7.0000     8.0000    22.0000    23.0000     3.0000     7.0000    23.0000    -3.0005     0.0010    20.7695    41.5370     1.3151     0.9998     0.0000    -0.0001    14.4503    14.4501     0.0002    19.9529    20.0000     0.0000    53.5577    59.2204    18.7227    35.0050    35.0000     0.0000     0.000
      6     15.000   3879.000 579557.000     24.475    41.5367     0.0001  -100.1305   -28.8378     0.6415    -0.0025    22.0000     7.0000     8.0000    22.0000    23.0000     3.0000     7.0000    23.0000    -3.0005     0.0010    20.7695    41.5370     1.3151     0.9998     0.0000    -0.0001    14.4503    14.4501     0.0002    19.9604    20.0000     0.0000    53.0808    58.7482    18.7406    35.0040    35.0000     0.0000     0.000
      7     15.000   3912.000 580643.000     24.521    41.5367    -0.0000  -100.1305   -28.8378     0.6415    -0.0025    22.0000     7.0000     8.0000    22.0000    23.0000     3.0000     7.0000    23.0000    -3.0005     0.0010    20.7694    41.5370     1.3151     0.9998     0.0000    -0.0001    14.4503    14.4501     0.0002    19.9606    20.0000     0.0000    52.8368    58.5184    18.7431    35.0032    35.0000     0.0000     0.000
      8     15.000   3906.000 579331.000     24.465    41.5367    -0.0000  -100.1305   -28.8377     0.6415    -0.0025    22.0000     7.0000     8.0000    22.0000    23.0000     3.0000     7.0000    23.0000    -3.0005     0.0010    20.7694    41.5370     1.3151     0.9998     0.0000    -0.0001    14.4503    14.4501     0.0002    19.9557    20.0000     0.0000    52.3302    58.0431    18.7428    35.0021    35.0000     0.0000     0.000
      9     15.000   3752.000 580722.000     24.524    41.5367     0.0000  -100.1305   -28.8377     0.6415    -0.0025    22.0000     7.0000     8.0000    22.0000    23.0000     3.0000     7.0000    23.0000    -3.0005     0.0010    20.7694    41.5370     1.3151     0.9998     0.0000    -0.0001    14.4503    14.4501     0.0002    19.9579    20.0000     0.0000    52.1253    57.8109    18.7474    35.0017    35.0000     0.0000     0.000
     10     15.000   3793.000 581403.000     24.553    41.5367     0.0001  -100.1305   -28.8377     0.6415    -0.0025    22.0000     7.0000     8.0000    22.0000    23.0000     3.0000     7.0000    23.0000    -3.0005     0.0010    20.7694    41.5370     1.3151     0.9998     0.0000    -0.0001    14.4503    14.4501     0.0002    19.9648    20.0000     0.0000    51.6481    57.3380    18.7553    35.0011    35.0000     0.0000     0.000
     11     15.000   3846.000 580030.000     24.495    41.5367    -0.0001  -100.1305   -28.8377     0.6415    -0.0025    22.0000     7.0000     8.0000    22.0000    23.0000     3.0000     7.0000    23.0000    -3.0005     0.0010    20.7694    41.5370     1.3151     0.9998     0.0000    -0.0001    14.4503    14.4501     0.0002    19.9812    20.0000     0.0000    51.3925    57.1009    18.7620    35.0008    35.0000     0.0000     0.000
     12     15.000   3789.000 580143.000     24.500    41.5367     0.0000  -100.1305   -28.8377     0.6415    -0.0025    22.0000     7.0000     8.0000    22.0000    23.0000     3.0000     7.0000    23.0000    -3.0005     0.0010    20.7694    41.5370     1.3151     0.9998     0.0000    -0.0001    14.4503    14.4501     0.0002    19.9628    20.0000     0.0000    50.9118    56.6323    18.7625    35.0009    35.0000     0.0000     0.000
     13     15.000   3768.000 578691.000     24.438    41.5367    -0.0000  -100.1305   -28.8377     0.6415    -0.0025    22.0000     7.0000     8.0000    22.0000    23.0000     3.0000     7.0000    23.0000    -3.0005     0.0010    20.7694    41.5370     1.3151     0.9998     0.0000    -0.0001    14.4503    14.4501     0.0002    19.9575    20.0000     0.0000    50.6669    56.4041    18.7541    35.0005    35.0000     0.0000     0.000
     14     15.000   3812.000 580316.000     24.507    41.5367     0.0001  -100.1305   -28.8377     0.6415    -0.0025    22.0000     7.0000     8.0000    22.0000    23.0000     3.0000     7.0000    23.0000    -3.0005     0.0010    20.7694    41.5370     1.3151     0.9998     0.0000    -0.0001    14.4503    14.4501     0.0002    19.9604    20.0000     0.0000    50.1676    55.9431    18.7501    35.0006    35.0000     0.0000     0.000
     15     15.000   3833.000 580416.000     24.511    41.5367    -0.0001  -100.1305   -28.8377     0.6415    -0.0025    22.0000     7.0000     8.0000    22.0000    23.0000     3.0000     7.0000    23.0000    -3.0005     0.0010    20.7694    41.5370     1.3151     0.9998     0.0000    -0.0001    14.4503    14.4501     0.0002    19.9657    20.0000     0.0000    49.9143    55.7114    18.7455    35.0006    35.0000     0.0000     0.000
     16     15.000   3905.000 578663.000     24.437    41.5367     0.0001  -100.1305   -28.8377     0.6415    -0.0025    22.0000     7.0000     8.0000    22.0000    23.0000     3.0000     7.0000    23.0000    -3.0005     0.0010    20.7694    41.5370     1.3151     0.9998     0.0000    -0.0001    14.4503    14.4501     0.0002    19.9630    20.0000     0.0000    49.4122    55.2397    18.7557    35.0002    35.0000     0.0000     0.000
     17     15.000   3799.000 579738.000     24.483    41.5367    -0.0000  -100.1305   -28.8377     0.6415    -0.0025    22.0000     7.0000     8.0000    22.0000    23.0000     3.0000     7.0000    23.0000    -3.0005     0.0010    20.7694    41.5370     1.3151     0.9998     0.0000    -0.0001    14.4503    14.4501     0.0002    19.9574    20.0000     0.0000    49.2009    55.0113    18.7504    35.0000    35.0000     0.0000     0.000
     18     15.000   3811.000 579492.000     24.472    41.5367     0.0001  -100.1305   -28.8377     0.6415    -0.0025    22.0000     7.0000     8.0000    22.0000    23.0000     3.0000     7.0000    23.0000    -3.0005     0.0010    20.7694    41.5370     1.3151     0.9998     0.0000    -0.0001    14.4503    14.4501     0.0002    19.9621    20.0000     0.0000    48.7710    54.5594    18.7376    35.0004    35.0000     0.0000     0.000
     19     15.000   3855.000 578195.000     24.417    41.5367    -0.0001  -100.1305   -28.8377     0.6415    -0.0025    22.0000     7.0000     8.0000    22.0000    23.0000     3.0000     7.0000    23.0000    -3.0005     0.0010    20.7694    41.5370     1.3151     0.9998     0.0000    -0.0001    14.4503    14.4501     0.0002    19.9720    20.0000     0.0000    48.5392    54.3299    18.7354    35.0006    35.0000     0.0000     0.000
     20     15.000   3908.000 580790.000     24.527    41.5367    -0.0000  -100.1305   -28.8377     0.6415    -0.0025    22.0000     7.0000     8.0000    22.0000    23.0000     3.0000     7.0000    23.0000    -3.0005     0.0010    20.7694    41.5370     1.3151     0.9998     0.0000    -0.0001    14.4503    14.4501     0.0002    19.9655    20.0000     0.0000    48.0678    53.8755    18.7384    35.0008    35.0000     0.0000     0.000
     21     15.000   3867.000 578518.000     24.431    41.5367    -0.0000  -100.1305   -28.8377     0.6415    -0.0025    22.0000     7.0000     8.0000    22.0000    23.0000     3.0000     7.0000    23.0000    -3.0005     0.0010    20.7694    41.5370     1.3151     0.9998     0.0000    -0.0001    14.4503    14.4501     0.0002    19.9665    20.0000     0.0000    47.8483    53.6485    18.7429    35.0009    35.0000     0.0000     0.000
     22     15.000   3924.000 581222.000     24.545    41.5367     0.0000  -100.1305   -28.8377     0.6415    -0.0025    22.0000     7.0000     8.0000    22.0000    23.0000     3.0000     7.0000    23.0000    -3.0005     0.0010    20.7694    41.5370     1.3151     0.9998     0.0000    -0.0001    14.4503    14.4501     0.0002    19.9779    20.0000     0.0000    47.4207    53.1869    18.7426    35.0009    35.0000     0.0000     0.000
     23     15.000   3906.000 579015.000     24.452    41.5367    -0.0000  -100.1305   -28.8377     0.6415    -0.0025    22.0000     7.0000     8.0000    22.0000    23.0000     3.0000     7.0000    23.0000    -3.0005     0.0010    20.7694    41.5370     1.3151     0.9998     0.0000    -0.0001    14.4503    14.4501     0.0002    19.9631    20.0000     0.0000    47.1805    52.9572    18.7346    35.0007    35.0000     0.0000     0.000
     24     15.000   3848.000 578565.000     24.433    41.5367     0.0001  -100.1305   -28.8377     0.6415    -0.0025    22.0000     7.0000     8.0000    22.0000    23.0000     3.0000     7.0000    23.0000    -3.0005     0.0010    20.7694    41.5370     1.3151     0.9998     0.0000    -0.0001    14.4503    14.4501     0.0002    19.9775    20.0000     0.0000    46.7813    52.5112    18.7331    35.0002    35.0000     0.0000     0.000
     25     15.000   3817.000 579224.000     24.461    41.5367     0.0001  -100.1305   -28.8377     0.6415    -0.0025    22.0000     7.0000     8.0000    22.0000    23.0000     3.0000     7.0000    23.0000    -3.0005     0.0010    20.7694    41.5370     1.3151     0.9998     0.0000    -0.0001    14.4503    14.4501     0.0002    19.9639    20.0000     0.0000    46.5637    52.2895    18.7299    35.0000    35.0000     0.0000     0.000
     26     15.000   3820.000 579678.000     24.480    41.5367    -0.0000  -100.1305   -28.8377     0.6415    -0.0025    22.0000     7.0000     8.0000    22.0000    23.0000     3.0000     7.0000    23.0000    -3.0005     0.0010    20.7694    41.5370     1.3151     0.9998     0.0000    -0.0001    14.4503    14.4501     0.0002    19.9692    20.0000     0.0000    46.1138    51.8352    18.7281    35.0003    35.0000     0.0000     0.000
     27     15.000   3888.000 580608.000     24.519    41.5367    -0.0001  -100.1305   -28.8377     0.6415    -0.0025    22.0000     7.0000     8.0000    22.0000    23.0000     3.0000     7.0000    23.0000    -3.0005     0.0010    20.7694    41.5370     1.3151     0.9998     0.0000    -0.0001    14.4503    14.4501     0.0002    19.9739    20.0000     0.0000    45.8897    51.6109    18.7284    35.0002    35.0000     0.0000     0.000
     28     15.000   3827.000 580108.000     24.498    41.5367     0.0000  -100.1305   -28.8377     0.6415    -0.0025    22.0000     7.0000     8.0000    22.0000    23.0000     3.0000     7.0000    23.0000    -3.0005     0.0010    20.7694    41.5370     1.3151     0.9998     0.0000    -0.0001    14.4503    14.4501     0.0002    19.9668    20.0000     0.0000    45.4379    51.1577    18.7285    35.0003    35.0000     0.0000     0.000
     29     15.000   3847.000 580472.000     24.514    41.5367     0.0000  -100.1305   -28.8377     0.6415    -0.0025    22.0000     7.0000     8.0000    22.0000    23.0000     3.0000     7.0000    23.0000    -3.0005     0.0010    20.7694    41.5370     1.3151     0.9998     0.0000    -0.0001    14.4503    14.4501     0.0002    19.9728    20.0000     0.0000    45.1788    50.9403    18.7402    35.0003    35.0000     0.0000     0.000
     30     15.000   3825.000 581065.000     24.539    41.5367     0.0000  -100.1305   -28.8377     0.6415    -0.0025    22.0000     7.0000     8.0000    22.0000    23.0000     3.0000     7.0000    23.0000    -3.0005     0.0010    20.7694    41.5370     1.3151     0.9998     0.0000    -0.0001    14.4503    14.4501     0.0002    19.9718    20.0000     0.0000    44.7106    50.4985    18.7410    35.0000    35.0000     0.0000     0.000
     31     15.000   3832.000 581059.000     24.538    41.5367     0.0001  -100.1305   -28.8377     0.6415    -0.0025    22.0000     7.0000     8.0000    22.0000    23.0000     3.0000     7.0000    23.0000    -3.0005     0.0010    20.7694    41.5370     1.3151     0.9998     0.0000    -0.0001    14.4503    14.4501     0.0002    19.9706    20.0000     0.0000    44.5296    50.2733    18.7382    35.0001    35.0000     0.0000     0.000
     32     15.000   3858.000 579910.000     24.490    41.5367    -0.0000  -100.1305   -28.8377     0.6415    -0.0025    22.0000     7.0000     8.0000    22.0000    23.0000     3.0000     7.0000    23.0000    -3.0005     0.0010    20.7694    41.5370     1.3151     0.9998     0.0000    -0.0001    14.4503    14.4501     0.0002    19.9810    20.0000     0.0000    44.1181    49.8313    18.7339    35.0003    35.0000     0.0000     0.000
     33     15.000   3916.000 578395.000     24.426    41.5367    -0.0000  -100.1305   -28.8377     0.6415    -0.0025    22.0000     7.0000     8.0000    22.0000    23.0000     3.0000     7.0000    23.0000    -3.0005     0.0010    20.7694    41.5370     1.3151     0.9998     0.0000    -0.0001    14.4503    14.4501     0.0002    19.9784    20.0000     0.0000    43.9615    49.6018    18.7298    35.0001    35.0000     0.0000     0.000
     34     15.000   3828.000 581093.000     24.540    41.5367     0.0000  -100.1305   -28.8377     0.6415    -0.0025    22.0000     7.0000     8.0000    22.0000    23.0000     3.0000     7.0000    23.0000    -3.0005     0.0010    20.7694    41.5370     1.3151     0.9998     0.0000    -0.0001    14.4503    14.4501     0.0002    19.9706    20.0000     0.0000    43.5353    49.1605    18.7244    35.0001    35.0000     0.0000     0.000
     35     15.000   3817.000 580234.000     24.504    41.5367    -0.0000  -100.1305   -28.8377     0.6415    -0.0025    22.0000     7.0000     8.0000    22.0000    23.0000     3.0000     7.0000    23.0000    -3.0005     0.0010    20.7694    41.5370     1.3151     0.9998     0.0000    -0.0001    14.4503    14.4501     0.0002    19.9731    20.0000     0.0000    43.3459    48.9416    18.7259    35.0000    35.0000     0.0000     0.000
     36     15.000   3855.000 579392.000     24.468    41.5367    -0.0000  -100.1305   -28.8377     0.6415    -0.0025    22.0000     7.0000     8.0000    22.0000    23.0000     3.0000     7.0000    23.0000    -3.0005     0.0010    20.7694    41.5370     1.3151     0.9998     0.0000    -0.0001    14.4503    14.4501     0.0002    19.9728    20.0000     0.0000    42.9222    48.4993    18.7333    35.0001    35.0000     0.0000     0.000
     37     15.000   3946.000 579222.000     24.461    41.5367     0.0001  -100.1305   -28.8377     0.6415    -0.0025    22.0000     7.0000     8.0000    22.0000    23.0000     3.0000     7.0000    23.0000    -3.0005     0.0010    20.7694    41.5370     1.3151     0.9998     0.0000    -0.0001    14.4503    14.4501     0.0002    19.9728    20.0000     0.0000    42.7239    48.2832    18.7316    35.0000    35.0000     0.0000     0.000
     38     15.000   3866.000 579887.000     24.489    41.5367    -0.0000  -100.1305   -28.8377     0.6415    -0.0025    22.0000     7.0000     8.0000    22.0000    23.0000     3.0000     7.0000    23.0000    -3.0005     0.0010    20.7694    41.5370     1.3151     0.9998     0.0000    -0.0001    14.4503    14.4501     0.0002    19.9695    20.0000     0.0000    42.3002    47.8368    18.7270    34.9999    35.0000     0.0000     0.000
     39     15.000   3838.000 580837.000     24.529    41.5367    -0.0000  -100.1305   -28.8377     0.6415    -0.0025    22.0000     7.0000     8.0000    22.0000    23.0000     3.0000     7.0000    23.0000    -3.0005     0.0010    20.7694    41.5370     1.3151     0.9998     0.0000    -0.0001    14.4503    14.4501     0.0002    19.9755    20.0000     0.0000    42.0967    47.6148    18.7314    35.0002    35.0000     0.0000     0.000
     40     15.000   3919.000 579520.000     24.473    41.5367    -0.0000  -100.1305   -28.8377     0.6415    -0.0025    22.0000     7.0000     8.0000    22.0000    23.0000     3.0000     7.0000    23.0000    -3.0005     0.0010    20.7694    41.5370     1.3151     0.9998     0.0000    -0.0001    14.4503    14.4501     0.0002    19.9751    20.0000     0.0000    41.6971    47.1844    18.7280    35.0001    35.0000     0.0000     0.000
     41     15.000   3807.000 580464.000     24.513    41.5367    -0.0000  -100.1305   -28.8377     0.6415    -0.0025    22.0000     7.0000     8.0000    22.0000    23.0000     3.0000     7.0000    23.0000    -3.0005     0.0010    20.7694    41.5370     1.3151     0.9998     0.0000    -0.0001    14.4503    14.4501     0.0002    19.9758    20.0000     0.0000    41.4593    46.9657    18.7253    35.0001    35.0000     0.0000     0.000
     42     15.000   3836.000 579823.000     24.486    41.5367    -0.0000  -100.1305   -28.8377     0.6415    -0.0025    22.0000     7.0000     8.0000    22.0000    23.0000     3.0000     7.0000    23.0000    -3.0005     0.0010    20.7694    41.5370     1.3151     0.9998     0.0000    -0.0001    14.4503    14.4501     0.0002    19.9818    20.0000     0.0000    41.0462    46.5287    18.7190    35.0001    35.0000     0.0000     0.000
     43     15.000   3807.000 580236.000     24.504    41.5367    -0.0000  -100.1305   -28.8377     0.6415    -0.0025    22.0000     7.0000     8.0000    22.0000    23.0000     3.0000     7.0000    23.0000    -3.0005     0.0010    20.7694    41.5370     1.3151     0.9998     0.0000    -0.0001    14.4503    14.4501     0.0002    19.9719    20.0000     0.0000    40.8036    46.3082    18.7173    34.9998    35.0000     0.0000     0.000
     44     15.000   3812.000 578895.000     24.447    41.5367    -0.0000  -100.1305   -28.8377     0.6415    -0.0025    22.0000     7.0000     8.0000    22.0000    23.0000     3.0000     7.0000    23.0000    -3.0005     0.0010    20.7694    41.5370     1.3151     0.9998     0.0000    -0.0001    14.4503    14.4501     0.0002    19.9714    20.0000     0.0000    40.3895    45.8714    18.7131    35.0001    35.0000     0.0000     0.000
     45     15.000   3820.000 578705.000     24.439    41.5367     0.0001  -100.1305   -28.8377     0.6415    -0.0025    22.0000     7.0000     8.0000    22.0000    23.0000     3.0000     7.0000    23.0000    -3.0005     0.0010    20.7694    41.5370     1.3151     0.9998     0.0000    -0.0001    14.4503    14.4501     0.0002    19.9751    20.0000     0.0000    40.2172    45.6557    18.7104    35.0001    35.0000     0.0000     0.000
     46     15.000   3795.000 579701.000     24.481    41.5367    -0.0000  -100.1305   -28.8377     0.6415    -0.0025    22.0000     7.0000     8.0000    22.0000    23.0000     3.0000     7.0000    23.0000    -3.0005     0.0010    20.7694    41.5370     1.3151     0.9998     0.0000    -0.0001    14.4503    14.4501     0.0002    19.9767    20.0000     0.0000    39.8299    45.2226    18.7103    35.0000    35.0000     0.0000     0.000
     47     15.000   3895.000 579299.000     24.464    41.5367    -0.0000  -100.1305   -28.8377     0.6415    -0.0025    22.0000     7.0000     8.0000    22.0000    23.0000     3.0000     7.0000    23.0000    -3.0005     0.0010    20.7694    41.5370     1.3151     0.9998     0.0000    -0.0001    14.4503    14.4501     0.0002    19.9788    20.0000     0.0000    39.6463    45.0111    18.7066    35.0001    35.0000     0.0000     0.000
     48     15.000   3931.000 580079.000     24.497    41.5367     0.0001  -100.1305   -28.8377     0.6415    -0.0025    22.0000     7.0000     8.0000    22.0000    23.0000     3.0000     7.0000    23.0000    -3.0005     0.0010    20.7694    41.5370     1.3151     0.9998     0.0000    -0.0001    14.4503    14.4501     0.0002    19.9736    20.0000     0.0000    39.2761    44.5834    18.7028    34.9999    35.0000     0.0000     0.000
     49     15.000   3835.000 579534.000     24.474    41.5367    -0.0000  -100.1305   -28.8377     0.6415    -0.0025    22.0000     7.0000     8.0000    22.0000    23.0000     3.0000     7.0000    23.0000    -3.0005     0.0010    20.7694    41.5370     1.3151     0.9998     0.0000    -0.0001    14.4503    14.4501     0.0002    19.9781    20.0000     0.0000    39.0856    44.3658    18.7022    35.0000    35.0000     0.0000     0.000
     50     15.000   3870.000 581303.000     24.549    41.5367    -0.0001  -100.1305   -28.8377     0.6415    -0.0025    22.0000     7.0000     8.0000    22.0000    23.0000     3.0000     7.0000    23.0000    -3.0005     0.0010    20.7694    41.5370     1.3151     0.9998     0.0000    -0.0001    14.4503    14.4501     0.0002    19.9832    20.0000     0.0000    38.7004    43.9286    18.7066    35.0003    35.0000     0.0000     0.000
     51     15.000   3869.000 578680.000     24.438    41.5367    -0.0000  -100.1305   -28.8377     0.6415    -0.0025    22.0000     7.0000     8.0000    22.0000    23.0000     3.0000     7.0000    23.0000    -3.0005     0.0010    20.7694    41.5370     1.3151     0.9998     0.0000    -0.0001    14.4503    14.4501     0.0002    19.9776    20.0000     0.0000    38.5214    43.7210    18.7045    35.0000    35.0000     0.0000     0.000
     52     15.000   3882.000 578588.000     24.434    41.5367     0.0000  -100.1305   -28.8377     0.6415    -0.0025    22.0000     7.0000     8.0000    22.0000    23.0000     3.0000     7.0000    23.0000    -3.0005     0.0010    20.7694    41.5370     1.3151     0.9998     0.0000    -0.0001    14.4503    14.4501     0.0002    19.9771    20.0000     0.0000    38.1195    43.2915    18.7063    35.0001    35.0000     0.0000     0.000
     53     15.000   3804.000 578575.000     24.433    41.5367    -0.0000  -100.1305   -28.8377     0.6415    -0.0025    22.0000     7.0000     8.0000    22.0000    23.0000     3.0000     7.0000    23.0000    -3.0005     0.0010    20.7694    41.5370     1.3151     0.9998     0.0000    -0.0001    14.4503    14.4501     0.0002    19.9742    20.0000     0.0000    37.9171    43.0788    18.7056    34.9999    35.0000     0.0000     0.000
     54     15.000   3838.000 578292.000     24.422    41.5367    -0.0000  -100.1305   -28.8377     0.6415    -0.0025    22.0000     7.0000     8.0000    22.0000    23.0000     3.0000     7.0000    23.0000    -3.0005     0.0010    20.7694    41.5370     1.3151     0.9998     0.0000    -0.0001    14.4503    14.4501     0.0002    19.9757    20.0000     0.0000    37.5072    42.6499    18.7054    34.9997    35.0000     0.0000     0.000
     55     15.000   3969.000 581053.000     24.538    41.5367    -0.0000  -100.1305   -28.8377     0.6415    -0.0025    22.0000     7.0000     8.0000    22.0000    23.0000     3.0000     7.0000    23.0000    -3.0005     0.0010    20.7694    41.5370     1.3151     0.9998     0.0000    -0.0001    14.4503    14.4501     0.0002    19.9761    20.0000     0.0000    37.3159    42.4299    18.7080    35.0001    35.0000     0.0000     0.000
     56     15.000   3944.000 579977.000     24.493    41.5367     0.0001  -100.1305   -28.8377     0.6415    -0.0025    22.0000     7.0000     8.0000    22.0000    23.0000     3.0000     7.0000    23.0000    -3.0005     0.0010    20.7694    41.5370     1.3151     0.9998     0.0000    -0.0001    14.4503    14.4501     0.0002    19.9777    20.0000     0.0000    36.8874    42.0026    18.7076    35.0002    35.0000     0.0000     0.000
     57     15.000   3864.000 578254.000     24.420    41.5367    -0.0000  -100.1305   -28.8377     0.6415    -0.0025    22.0000     7.0000     8.0000    22.0000    23.0000     3.0000     7.0000    23.0000    -3.0005     0.0010    20.7694    41.5370     1.3151     0.9998     0.0000    -0.0001    14.4503    14.4501     0.0002    19.9797    20.0000     0.0000    36.6847    41.7905    18.7039    35.0001    35.0000     0.0000     0.000
     58     15.000   3999.000 579465.000     24.471    41.5367     0.0000  -100.1305   -28.8377     0.6415    -0.0025    22.0000     7.0000     8.0000    22.0000    23.0000     3.0000     7.0000    23.0000    -3.0005     0.0010    20.7694    41.5370     1.3151     0.9998     0.0000    -0.0001    14.4503    14.4501     0.0002    19.9808    20.0000     0.0000    36.3273    41.3685    18.7006    35.0000    35.0000     0.0000     0.000
     59     15.000   3808.000 580218.000     24.503    41.5367    -0.0000  -100.1305   -28.8377     0.6415    -0.0025    22.0000     7.0000     8.0000    22.0000    23.0000     3.0000     7.0000    23.0000    -3.0005     0.0010    20.7694    41.5370     1.3151     0.9998     0.0000    -0.0001    14.4503    14.4501     0.0002    19.9841    20.0000     0.0000    36.1488    41.1572    18.7019    34.9998    35.0000     0.0000     0.000
     60     15.000   3915.000 579797.000     24.485    41.5367     0.0000  -100.1305   -28.8377     0.6415    -0.0025    22.0000     7.0000     8.0000    22.0000    23.0000     3.0000     7.0000    23.0000    -3.0005     0.0010    20.7694    41.5369     1.3151     0.9998     0.0000    -0.0001    14.4503    14.4501     0.0002    19.9907    20.0000     0.0000    35.7953    40.7253    18.7064    35.0002    35.0000     0.0000     0.000
     61     15.000   3903.000 580463.000     24.513    41.5367    -0.0001  -100.1305   -28.8377     0.6415    -0.0025    22.0000     7.0000     8.0000    22.0000    23.0000     3.0000     7.0000    23.0000    -3.0005     0.0010    20.7694    41.5370     1.3151     0.9998     0.0000    -0.0001    14.4503    14.4501     0.0002    19.9809    20.0000     0.0000    35.5953    40.5088    18.7024    34.9999    35.0000     0.0000     0.000
     62     15.000   3948.000 578992.000     24.451    41.5367    -0.0000  -100.1305   -28.8377     0.6415    -0.0025    22.0000     7.0000     8.0000    22.0000    23.0000     3.0000     7.0000    23.0000    -3.0005     0.0010    20.7694    41.5370     1.3151     0.9998     0.0000    -0.0001    14.4503    14.4501     0.0002    19.9767    20.0000     0.0000    35.2405    40.0895    18.6884    35.0000    35.0000     0.0000     0.000
     63     15.000   3907.000 578962.000     24.450    41.5367     0.0000  -100.1305   -28.8377     0.6415    -0.0025    22.0000     7.0000     8.0000    22.0000    23.0000     3.0000     7.0000    23.0000    -3.0005     0.0010    20.7694    41.5370     1.3151     0.9998     0.0000    -0.0001    14.4503    14.4501     0.0002    19.9750    20.0000     0.0000    35.0727    39.8813    18.6876    35.0000    35.0000     0.0000     0.000
     64     15.000   3859.000 579355.000     24.466    41.5367     0.0000  -100.1305   -28.8377     0.6415    -0.0025    22.0000     7.0000     8.0000    22.0000    23.0000     3.0000     7.0000    23.0000    -3.0005     0.0010    20.7694    41.5370     1.3151     0.9998     0.0000    -0.0001    14.4503    14.4501     0.0002    19.9760    20.0000     0.0000    34.6787    39.4612    18.6873    35.0000    35.0000     0.0000     0.000
     65     15.000   3903.000 580742.000     24.525    41.5367    -0.0000  -100.1305   -28.8377     0.6415    -0.0025    22.0000     7.0000     8.0000    22.0000    23.0000     3.0000     7.0000    23.0000    -3.0005     0.0010    20.7694    41.5370     1.3151     0.9998     0.0000    -0.0001    14.4503    14.4501     0.0002    19.9801    20.0000     0.0000    34.4962    39.2469    18.6887    35.0001    35.0000     0.0000     0.000
     66     15.000   3909.000 580625.000     24.520    41.5367     0.0001  -100.1305   -28.8377     0.6415    -0.0025    22.0000     7.0000     8.0000    22.0000    23.0000     3.0000     7.0000    23.0000    -3.0005     0.0010    20.7694    41.5370     1.3151     0.9998     0.0000    -0.0001    14.4503    14.4501     0.0002    19.9860    20.0000     0.0000    34.1101    38.8257    18.6906    35.0001    35.0000     0.0000     0.000
     67     15.000   3766.000 577815.000     24.401    41.5367    -0.0001  -100.1305   -28.8377     0.6415    -0.0025    22.0000     7.0000     8.0000    22.0000    23.0000     3.0000     7.0000    23.0000    -3.0005     0.0010    20.7694    41.5370     1.3151     0.9998     0.0000    -0.0001    14.4503    14.4501     0.0002    19.9846    20.0000     0.0000    33.9111    38.6080    18.6909    34.9999    35.0000     0.0000     0.000
     68     15.000   3927.000 579538.000     24.474    41.5367     0.0000  -100.1305   -28.8377     0.6415    -0.0025    22.0000     7.0000     8.0000    22.0000    23.0000     3.0000     7.0000    23.0000    -3.0005     0.0010    20.7694    41.5370     1.3151     0.9998     0.0000    -0.0001    14.4503    14.4501     0.0002    19.9807    20.0000     0.0000    33.5202    38.1964    18.6872    34.9999    35.0000     0.0000     0.000
     69     15.000   3936.000 581462.000     24.555    41.5367    -0.0000  -100.1305   -28.8377     0.6415    -0.0025    22.0000     7.0000     8.0000    22.0000    23.0000     3.0000     7.0000    23.0000    -3.0005     0.0010    20.7694    41.5370     1.3151     0.9998     0.0000    -0.0001    14.4503    14.4501     0.0002    19.9840    20.0000     0.0000    33.3298    37.9845    18.6862    35.0001    35.0000     0.0000     0.000
     70     15.000   3775.000 579342.000     24.466    41.5367     0.0001  -100.1305   -28.8377     0.6415    -0.0025    22.0000     7.0000     8.0000    22.0000    23.0000     3.0000     7.0000    23.0000    -3.0005     0.0010    20.7694    41.5370     1.3151     0.9998     0.0000    -0.0001    14.4503    14.4501     0.0002    19.9875    20.0000     0.0000    32.9580    37.5660    18.6826    34.9999    35.0000     0.0000     0.000
     71     15.000   3785.000 580911.000     24.532    41.5367    -0.0000  -100.1305   -28.8377     0.6415    -0.0025    22.0000     7.0000     8.0000    22.0000    23.0000     3.0000     7.0000    23.0000    -3.0005     0.0010    20.7694    41.5370     1.3151     0.9998     0.0000    -0.0001    14.4503    14.4501     0.0002    19.9821    20.0000     0.0000    32.7855    37.3533    18.6838    35.0002    35.0000     0.0000     0.000
     72     15.000   3740.000 579001.000     24.451    41.5367    -0.0000  -100.1305   -28.8377     0.6415    -0.0025    22.0000     7.0000     8.0000    22.0000    23.0000     3.0000     7.0000    23.0000    -3.0005     0.0010    20.7694    41.5370     1.3151     0.9998     0.0000    -0.0001    14.4503    14.4501     0.0002    19.9863    20.0000     0.0000    32.4392    36.9354    18.6830    34.9999    35.0000     0.0000     0.000
     73     15.000   3903.000 578426.000     24.427    41.5367    -0.0000  -100.1305   -28.8377     0.6415    -0.0025    22.0000     7.0000     8.0000    22.0000    23.0000     3.0000     7.0000    23.0000    -3.0005     0.0010    20.7694    41.5370     1.3151     0.9998     0.0000    -0.0001    14.4503    14.4501     0.0002    19.9820    20.0000     0.0000    32.2666    36.7314    18.6845    35.0002    35.0000     0.0000     0.000
     74     15.000   3784.000 580693.000     24.523    41.5367    -0.0000  -100.1305   -28.8377     0.6415    -0.0025    22.0000     7.0000     8.0000    22.0000    23.0000     3.0000     7.0000    23.0000    -3.0005     0.0010    20.7694    41.5370     1.3151     0.9998     0.0000    -0.0001    14.4503    14.4501     0.0002    19.9812    20.0000     0.0000    31.9114    36.3129    18.6789    34.9999    35.0000     0.0000     0.000
     75     15.000   3691.000 578014.000     24.410    41.5367    -0.0000  -100.1305   -28.8377     0.6415    -0.0025    22.0000     7.0000     8.0000    22.0000    23.0000     3.0000     7.0000    23.0000    -3.0005     0.0010    20.7694    41.5370     1.3151     0.9998     0.0000    -0.0001    14.4503    14.4501     0.0002    19.9906    20.0000     0.0000    31.7444    36.1077    18.6776    34.9999    35.0000     0.0000     0.000
     76     15.000   3765.000 578991.000     24.451    41.5367     0.0000  -100.1305   -28.8377     0.6415    -0.0025    22.0000     7.0000     8.0000    22.0000    23.0000     3.0000     7.0000    23.0000    -3.0005     0.0010    20.7694    41.5370     1.3151     0.9998     0.0000    -0.0001    14.4503    14.4501     0.0002    19.9904    20.0000     0.0000    31.3811    35.6927    18.6768    35.0002    35.0000     0.0000     0.000
     77     15.000   3808.000 578572.000     24.433    41.5367    -0.0000  -100.1305   -28.8377     0.6415    -0.0025    22.0000     7.0000     8.0000    22.0000    23.0000     3.0000     7.0000    23.0000    -3.0005     0.0010    20.7694    41.5370     1.3151     0.9998     0.0000    -0.0001    14.4503    14.4501     0.0002    19.9803    20.0000     0.0000    31.1824    35.4746    18.6745    35.0000    35.0000     0.0000     0.000
     78     15.000   3883.000 579261.000     24.462    41.5367     0.0001  -100.1305   -28.8377     0.6415    -0.0025    22.0000     7.0000     8.0000    22.0000    23.0000     3.0000     7.0000    23.0000    -3.0005     0.0010    20.7694    41.5370     1.3151     0.9998     0.0000    -0.0001    14.4503    14.4501     0.0002    19.9838    20.0000     0.0000    30.8323    35.0668    18.6748    35.0000    35.0000     0.0000     0.000
     79     15.000   3961.000 579257.000     24.462    41.5367     0.0000  -100.1305   -28.8377     0.6415    -0.0025    22.0000     7.0000     8.0000    22.0000    23.0000     3.0000     7.0000    23.0000    -3.0005     0.0010    20.7694    41.5370     1.3151     0.9998     0.0000    -0.0001    14.4503    14.4501     0.0002    19.9831    20.0000     0.0000    30.6420    34.8623    18.6742    34.9999    35.0000     0.0000     0.000
     80     15.000   3945.000 579921.000     24.490    41.5367     0.0000  -100.1305   -28.8377     0.6415    -0.0025    22.0000     7.0000     8.0000    22.0000    23.0000     3.0000     7.0000    23.0000    -3.0005     0.0010    20.7694    41.5370     1.3151     0.9998     0.0000    -0.0001    14.4503    14.4501     0.0002    19.9809    20.0000     0.0000    30.2619    34.4523    18.6781    35.0001    35.0000     0.0000     0.000
     81     15.000   3862.000 580765.000     24.526    41.5367    -0.0000  -100.1305   -28.8377     0.6415    -0.0025    22.0000     7.0000     8.0000    22.0000    23.0000     3.0000     7.0000    23.0000    -3.0005     0.0010    20.7694    41.5370     1.3151     0.9998     0.0000    -0.0001    14.4503    14.4501     0.0002    19.9823    20.0000     0.0000    30.0707    34.2350    18.6832    35.0001    35.0000     0.0000     0.000
     82     15.000   3903.000 581843.000     24.571    41.5367    -0.0000  -100.1305   -28.8377     0.6415    -0.0025    22.0000     7.0000     8.0000    22.0000    23.0000     3.0000     7.0000    23.0000    -3.0005     0.0010    20.7694    41.5370     1.3151     0.9998     0.0000    -0.0001    14.4503    14.4501     0.0002    19.9790    20.0000     0.0000    29.7255    33.8279    18.6755    35.0001    35.0000     0.0000     0.000
     83     15.000   3781.000 581156.000     24.542    41.5367     0.0001  -100.1305   -28.8377     0.6415    -0.0025    22.0000     7.0000     8.0000    22.0000    23.0000     3.0000     7.0000    23.0000    -3.0005     0.0010    20.7694    41.5370     1.3151     0.9998     0.0000    -0.0001    14.4503    14.4501     0.0002    19.9810    20.0000     0.0000    29.5615    33.6202    18.6738    34.9999    35.0000     0.0000     0.000
     84     15.000   3955.000 580384.000     24.510    41.5367     0.0000  -100.1305   -28.8377     0.6415    -0.0025    22.0000     7.0000     8.0000    22.0000    23.0000     3.0000     7.0000    23.0000    -3.0005     0.0010    20.7694    41.5370     1.3151     0.9998     0.0000    -0.0001    14.4503    14.4501     0.0002    19.9866    20.0000     0.0000    29.2420    33.2246    18.6721    35.0002    35.0000     0.0000     0.000
     85     15.000   3920.000 580474.000     24.514    41.5367     0.0001  -100.1305   -28.8377     0.6415    -0.0025    22.0000     7.0000     8.0000    22.0000    23.0000     3.0000     7.0000    23.0000    -3.0005     0.0010    20.7694    41.5370     1.3151     0.9998     0.0000    -0.0001    14.4503    14.4501     0.0002    19.9802    20.0000     0.0000    29.0602    33.0138    18.6736    35.0001    35.0000     0.0000     0.000
     86     15.000   3819.000 578837.000     24.445    41.5367    -0.0000  -100.1305   -28.8377     0.6415    -0.0025    22.0000     7.0000     8.0000    22.0000    23.0000     3.0000     7.0000    23.0000    -3.0005     0.0010    20.7694    41.5370     1.3151     0.9998     0.0000    -0.0001    14.4503    14.4501     0.0002    19.9945    20.0000     0.0000    28.7220    32.6005    18.6705    35.0000    35.0000     0.0000     0.000
     87     15.000   4040.000 579678.000     24.480    41.5367    -0.0000  -100.1305   -28.8377     0.6415    -0.0025    22.0000     7.0000     8.0000    22.0000    23.0000     3.0000     7.0000    23.0000    -3.0005     0.0010    20.7694    41.5370     1.3151     0.9998     0.0000    -0.0001    14.4503    14.4501     0.0002    19.9955    20.0000     0.0000    28.5539    32.3982    18.6684    34.9998    35.0000     0.0000     0.000
     88     15.000   3803.000 578590.000     24.434    41.5367    -0.0000  -100.1305   -28.8377     0.6415    -0.0025    22.0000     7.0000     8.0000    22.0000    23.0000     3.0000     7.0000    23.0000    -3.0005     0.0010    20.7694    41.5369     1.3151     0.9998     0.0000    -0.0001    14.4503    14.4501     0.0002    19.9828    20.0000     0.0000    28.2083    32.0097    18.6659    34.9999    35.0000     0.0000     0.000
     89     15.000   3898.000 580201.000     24.502    41.5367    -0.0000  -100.1305   -28.8377     0.6415    -0.0025    22.0000     7.0000     8.0000    22.0000    23.0000     3.0000     7.0000    23.0000    -3.0005     0.0010    20.7694    41.5370     1.3151     0.9998     0.0000    -0.0001    14.4503    14.4501     0.0002    19.9931    20.0000     0.0000    28.0294    31.8045    18.6666    34.9999    35.0000     0.0000     0.000
     90     15.000   3808.000 580887.000     24.531    41.5367    -0.0001  -100.1305   -28.8377     0.6415    -0.0025    22.0000     7.0000     8.0000    22.0000    23.0000     3.0000     7.0000    23.0000    -3.0005     0.0010    20.7694    41.5370     1.3151     0.9998     0.0000    -0.0001    14.4503    14.4501     0.0002    19.9819    20.0000     0.0000    27.6743    31.4099    18.6656    35.0001    35.0000     0.0000     0.000
     91     15.000   3894.000 578753.000     24.441    41.5367     0.0001  -100.1305   -28.8377     0.6415    -0.0025    22.0000     7.0000     8.0000    22.0000    23.0000     3.0000     7.0000    23.0000    -3.0005     0.0010    20.7694    41.5370     1.3151     0.9998     0.0000    -0.0001    14.4503    14.4501     0.0002    19.9899    20.0000     0.0000    27.5001    31.1998    18.6667    35.0005    35.0000     0.0000     0.000
     92     15.000   3831.000 581367.000     24.551    41.5367    -0.0001  -100.1305   -28.8377     0.6415    -0.0025    22.0000     7.0000     8.0000    22.0000    23.0000     3.0000     7.0000    23.0000    -3.0005     0.0010    20.7694    41.5370     1.3151     0.9998     0.0000    -0.0001    14.4503    14.4501     0.0002    19.9854    20.0000     0.0000    27.1347    30.8041    18.6667    35.0001    35.0000     0.0000     0.000
     93     15.000   3859.000 582101.000     24.582    41.5367     0.0000  -100.1305   -28.8377     0.6415    -0.0025    22.0000     7.0000     8.0000    22.0000    23.0000     3.0000     7.0000    23.0000    -3.0005     0.0010    20.7694    41.5370     1.3151     0.9998     0.0000    -0.0001    14.4503    14.4501     0.0002    19.9871    20.0000     0.0000    26.9811    30.6025    18.6675    35.0001    35.0000     0.0000     0.000
     94     15.000   3911.000 579657.000     24.479    41.5367    -0.0000  -100.1305   -28.8377     0.6415    -0.0025    22.0000     7.0000     8.0000    22.0000    23.0000     3.0000     7.0000    23.0000    -3.0005     0.0010    20.7694    41.5370     1.3151     0.9998     0.0000    -0.0001    14.4503    14.4501     0.0002    19.9888    20.0000     0.0000    26.6669    30.2127    18.6662    34.9999    35.0000     0.0000     0.000
     95     15.000   3829.000 579411.000     24.469    41.5367     0.0000  -100.1305   -28.8377     0.6415    -0.0025    22.0000     7.0000     8.0000    22.0000    23.0000     3.0000     7.0000    23.0000    -3.0005     0.0010    20.7694    41.5370     1.3151     0.9998     0.0000    -0.0001    14.4503    14.4501     0.0002    19.9897    20.0000     0.0000    26.5209    30.0280    18.6649    35.0000    35.0000     0.0000     0.000
     96     15.000   3846.000 579290.000     24.464    41.5367     0.0001  -100.1305   -28.8377     0.6415    -0.0025    22.0000     7.0000     8.0000    22.0000    23.0000     3.0000     7.0000    23.0000    -3.0005     0.0010    20.7694    41.5370     1.3151     0.9998     0.0000    -0.0001    14.4503    14.4501     0.0002    19.9856    20.0000     0.0000    26.1924    29.6258    18.6653    34.9998    35.0000     0.0000     0.000
     97     15.000   3861.000 578073.000     24.412    41.5367     0.0001  -100.1305   -28.8377     0.6415    -0.0025    22.0000     7.0000     8.0000    22.0000    23.0000     3.0000     7.0000    23.0000    -3.0005     0.0010    20.7694    41.5370     1.3151     0.9998     0.0000    -0.0001    14.4503    14.4501     0.0002    19.9804    20.0000     0.0000    26.0400    29.4307    18.6637    35.0001    35.0000     0.0000     0.000
     98     15.000   4008.000 580525.000     24.516    41.5367    -0.0000  -100.1305   -28.8377     0.6415    -0.0025    22.0000     7.0000     8.0000    22.0000    23.0000     3.0000     7.0000    23.0000    -3.0005     0.0010    20.7694    41.5370     1.3151     0.9998     0.0000    -0.0001    14.4503    14.4501     0.0002    19.9813    20.0000     0.0000    25.7273    29.0541    18.6623    34.9999    35.0000     0.0000     0.000
     99     15.000   3809.000 578916.000     24.448    41.5367    -0.0000  -100.1305   -28.8377     0.6415    -0.0025    22.0000     7.0000     8.0000    22.0000    23.0000     3.0000     7.0000    23.0000    -3.0005     0.0010    20.7694    41.5370     1.3151     0.9998     0.0000    -0.0001    14.4503    14.4501     0.0002    19.9827    20.0000     0.0000    25.5508    28.8670    18.6611    35.0000    35.0000     0.0000     0.000
    100     15.000   3891.000 580099.000     24.498    41.5367     0.0001  -100.1305   -28.8377     0.6415    -0.0025    22.0000     7.0000     8.0000    22.0000    23.0000     3.0000     7.0000    23.0000    -3.0005     0.0010    20.7694    41.5370     1.3151     0.9998     0.0000    -0.0001    14.4503    14.4501     0.0002    19.9890    20.0000     0.0000    25.2218    28.4886    18.6617    35.0002    35.0000     0.0000     0.000
    101     15.000   3860.000 578387.000     24.426    41.5367     0.0001  -100.1305   -28.8377     0.6415    -0.0025    22.0000     7.0000     8.0000    22.0000    23.0000     3.0000     7.0000    23.0000    -3.0005     0.0010    20.7694    41.5370     1.3151     0.9998     0.0000    -0.0001    14.4503    14.4501     0.0002    19.9852    20.0000     0.0000    25.0669    28.2987    18.6604    35.0000    35.0000     0.0000     0.000
# Sum of Counts = 389781
# Center of Mass = 51.077762+/-0.124762
# Full Width Half-Maximum = 58.284125+/-0.081971
# 5:09:30 PM  8/12/2024   scan completed.
