# scan = 216
# date = 3/12/2025
# time = 1:56:49 PM
# proposal = 35030
# experiment = CTAX Instrumental resolution benchmarking
# experiment_number = 445
# command = scan h 1 k 0 l 7.5 6.5 0.01 e -0.35 preset mcu 5
# builtin_command = scan h 1 k 0 l 7.5 6.5 0.01 e -0.35 preset mcu 5
# users = Tao Hong, Tao Hong, Bing Li
# local_contact = Tao Hong
# scan_title = (10L) scan at E=-0.35 meV and hori-focusing
# monochromator = PG002
# analyzer = Pg002
# sense = -+-
# collimation = 48-40-40-120
# samplename = LaN
# sampletype = crystal
# samplemosaic = 30.000000
# latticeconstants = 5.058628,5.058628,24.728465,90.000000,90.000000,120.000000
# ubmatrix = -0.002928,0.001986,-0.040430,-0.228168,-0.119258,0.000500,-0.005924,0.194622,0.000719
# mode = 0
# plane_normal = 0.017452,-0.026173,0.999505
# ubconf = UB10Mar2025_114214AM.ini
# preset_type = normal 
# preset_channel = mcu
# preset_value = 5.000000
# def_x = l
# def_y = detector
# col_headers = 
#   Pt.          h          k          l          e       time   detector    monitor        mcu focal_length         m1         m2       marc     mtrans     mfocus   vti_temp  smpl_temp         s1         s2        sgl        sgu        bbb        bbl        bbr        bbt        bab        bal        bar        bat        stl        stu         a1         a2     afocus        qm1        qm2        qm3        qm4        qm5        qm6        qm7        qm8        xm1        xm2        xm3        xm4        xm5        xm6        xm7        xm8          q         ei         ef
      1     1.0001    -0.0000     7.4998    -0.3500      4.823      4.000  11001.000      5.000   102.2341   140.2844   -79.4312     0.4200    -1.0000    27.5240     0.0000     0.0000    15.9150   105.9322    -1.0000    -1.5000     0.0000     0.0000     0.0000     0.0000    17.0000     8.0000     8.0000    17.0000     0.0000     0.0000   142.0306   -75.9388     0.0000    -4.2998    -2.9995    -1.8994    -0.6005     0.4003     1.8994     2.7994     3.8002    31.3400    22.1100    13.8400     6.4800    -5.6200   -10.4100   -14.3900   -16.8000     2.3851     4.4500     4.800
      2     0.9999    -0.0000     7.4903    -0.3500      4.740      2.000  11001.000      5.000   102.2341   140.2844   -79.4312     0.4200    -1.0000    27.5240     0.0000     0.0000    15.8175   105.8030    -1.0000    -1.5000     0.0000     0.0000     0.0000     0.0000    17.0000     8.0000     8.0000    17.0000     0.0000     0.0000   142.0306   -75.9388     0.0000    -4.2998    -2.9995    -1.8994    -0.6005     0.4003     1.8994     2.7994     3.8002    31.3400    22.1100    13.8400     6.4800    -5.6200   -10.4100   -14.3900   -16.8000     2.3830     4.4500     4.800
      3     0.9999    -0.0000     7.4804    -0.3500      4.739      1.000  11001.000      5.000   102.2341   140.2844   -79.4312     0.4200    -1.0000    27.5240     0.0000     0.0000    15.7150   105.6740    -1.0000    -1.5000     0.0000     0.0000     0.0000     0.0000    17.0000     8.0000     8.0000    17.0000     0.0000     0.0000   142.0306   -75.9388     0.0000    -4.2998    -2.9995    -1.8994    -0.6005     0.4003     1.8994     2.7994     3.8002    31.3400    22.1100    13.8400     6.4800    -5.6200   -10.4100   -14.3900   -16.8000     2.3810     4.4500     4.800
      4     1.0000    -0.0000     7.4700    -0.3500      4.823      1.000  11001.000      5.000   102.2341   140.2844   -79.4312     0.4200    -1.0000    27.5240     0.0000     0.0000    15.6075   105.5453    -1.0000    -1.5000     0.0000     0.0000     0.0000     0.0000    17.0000     8.0000     8.0000    17.0000     0.0000     0.0000   142.0306   -75.9388     0.0000    -4.2998    -2.9995    -1.8994    -0.6005     0.4003     1.8994     2.7994     3.8002    31.3400    22.1100    13.8400     6.4800    -5.6200   -10.4100   -14.3900   -16.8000     2.3790     4.4500     4.800
      5     1.0000    -0.0000     7.4600    -0.3500      4.836      2.000  11001.000      5.000   102.2341   140.2844   -79.4312     0.4200    -1.0000    27.5240     0.0000     0.0000    15.5050   105.4168    -1.0000    -1.5000     0.0000     0.0000     0.0000     0.0000    17.0000     8.0000     8.0000    17.0000     0.0000     0.0000   142.0306   -75.9388     0.0000    -4.2998    -2.9995    -1.8994    -0.6005     0.4003     1.8994     2.7994     3.8002    31.3400    22.1100    13.8400     6.4800    -5.6200   -10.4100   -14.3900   -16.8000     2.3769     4.4500     4.800
      6     0.9999    -0.0000     7.4503    -0.3500      4.834      2.000  11001.000      5.000   102.2341   140.2844   -79.4312     0.4200    -1.0000    27.5240     0.0000     0.0000    15.4050   105.2886    -1.0000    -1.5000     0.0000     0.0000     0.0000     0.0000    17.0000     8.0000     8.0000    17.0000     0.0000     0.0000   142.0306   -75.9388     0.0000    -4.2998    -2.9995    -1.8994    -0.6005     0.4003     1.8994     2.7994     3.8002    31.3400    22.1100    13.8400     6.4800    -5.6200   -10.4100   -14.3900   -16.8000     2.3749     4.4500     4.800
      7     1.0001    -0.0000     7.4396    -0.3500      4.708      1.000  11001.000      5.000   102.2341   140.2844   -79.4312     0.4200    -1.0000    27.5240     0.0000     0.0000    15.2950   105.1606    -1.0000    -1.5000     0.0000     0.0000     0.0000     0.0000    17.0000     8.0000     8.0000    17.0000     0.0000     0.0000   142.0306   -75.9388     0.0000    -4.2998    -2.9995    -1.8994    -0.6005     0.4003     1.8994     2.7994     3.8002    31.3400    22.1100    13.8400     6.4800    -5.6200   -10.4100   -14.3900   -16.8000     2.3729     4.4500     4.800
      8     0.9999    -0.0000     7.4304    -0.3500      4.821      2.000  11001.000      5.000   102.2341   140.2844   -79.4312     0.4200    -1.0000    27.5240     0.0000     0.0000    15.2000   105.0329    -1.0000    -1.5000     0.0000     0.0000     0.0000     0.0000    17.0000     8.0000     8.0000    17.0000     0.0000     0.0000   142.0306   -75.9388     0.0000    -4.2998    -2.9995    -1.8994    -0.6005     0.4003     1.8994     2.7994     3.8002    31.3400    22.1100    13.8400     6.4800    -5.6200   -10.4100   -14.3900   -16.8000     2.3709     4.4500     4.800
      9     1.0000    -0.0000     7.4199    -0.3500      4.917      0.000  11001.000      5.000   102.2341   140.2844   -79.4312     0.4200    -1.0000    27.5240     0.0000     0.0000    15.0925   104.9054    -1.0000    -1.5000     0.0000     0.0000     0.0000     0.0000    17.0000     8.0000     8.0000    17.0000     0.0000     0.0000   142.0306   -75.9388     0.0000    -4.2998    -2.9995    -1.8994    -0.6005     0.4003     1.8994     2.7994     3.8002    31.3400    22.1100    13.8400     6.4800    -5.6200   -10.4100   -14.3900   -16.8000     2.3688     4.4500     4.800
     10     0.9999    -0.0000     7.4102    -0.3500      4.810      3.000  11001.000      5.000   102.2341   140.2844   -79.4312     0.4200    -1.0000    27.5240     0.0000     0.0000    14.9925   104.7782    -1.0000    -1.5000     0.0000     0.0000     0.0000     0.0000    17.0000     8.0000     8.0000    17.0000     0.0000     0.0000   142.0306   -75.9388     0.0000    -4.2998    -2.9995    -1.8994    -0.6005     0.4003     1.8994     2.7994     3.8002    31.3400    22.1100    13.8400     6.4800    -5.6200   -10.4100   -14.3900   -16.8000     2.3668     4.4500     4.800
     11     1.0001    -0.0000     7.3997    -0.3500      4.796      7.000  11001.000      5.000   102.2341   140.2844   -79.4312     0.4200    -1.0000    27.5240     0.0000     0.0000    14.8850   104.6512    -1.0000    -1.5000     0.0000     0.0000     0.0000     0.0000    17.0000     8.0000     8.0000    17.0000     0.0000     0.0000   142.0306   -75.9388     0.0000    -4.2998    -2.9995    -1.8994    -0.6005     0.4003     1.8994     2.7994     3.8002    31.3400    22.1100    13.8400     6.4800    -5.6200   -10.4100   -14.3900   -16.8000     2.3648     4.4500     4.800
     12     1.0000    -0.0000     7.3900    -0.3500      4.770      3.000  11001.000      5.000   102.2341   140.2844   -79.4312     0.4200    -1.0000    27.5240     0.0000     0.0000    14.7850   104.5245    -1.0000    -1.5000     0.0000     0.0000     0.0000     0.0000    17.0000     8.0000     8.0000    17.0000     0.0000     0.0000   142.0306   -75.9388     0.0000    -4.2998    -2.9995    -1.8994    -0.6005     0.4003     1.8994     2.7994     3.8002    31.3400    22.1100    13.8400     6.4800    -5.6200   -10.4100   -14.3900   -16.8000     2.3628     4.4500     4.800
     13     0.9999    -0.0000     7.3803    -0.3500      4.841      5.000  11001.000      5.000   102.2341   140.2844   -79.4312     0.4200    -1.0000    27.5240     0.0000     0.0000    14.6850   104.3980    -1.0000    -1.5000     0.0000     0.0000     0.0000     0.0000    17.0000     8.0000     8.0000    17.0000     0.0000     0.0000   142.0306   -75.9388     0.0000    -4.2998    -2.9995    -1.8994    -0.6005     0.4003     1.8994     2.7994     3.8002    31.3400    22.1100    13.8400     6.4800    -5.6200   -10.4100   -14.3900   -16.8000     2.3608     4.4500     4.800
     14     1.0000    -0.0000     7.3700    -0.3500      4.791      2.000  11001.000      5.000   102.2341   140.2844   -79.4312     0.4200    -1.0000    27.5240     0.0000     0.0000    14.5800   104.2718    -1.0000    -1.5000     0.0000     0.0000     0.0000     0.0000    17.0000     8.0000     8.0000    17.0000     0.0000     0.0000   142.0306   -75.9388     0.0000    -4.2998    -2.9995    -1.8994    -0.6005     0.4003     1.8994     2.7994     3.8002    31.3400    22.1100    13.8400     6.4800    -5.6200   -10.4100   -14.3900   -16.8000     2.3588     4.4500     4.800
     15     0.9999    -0.0000     7.3603    -0.3500      4.890      3.000  11001.000      5.000   102.2341   140.2844   -79.4312     0.4200    -1.0000    27.5240     0.0000     0.0000    14.4800   104.1458    -1.0000    -1.5000     0.0000     0.0000     0.0000     0.0000    17.0000     8.0000     8.0000    17.0000     0.0000     0.0000   142.0306   -75.9388     0.0000    -4.2998    -2.9995    -1.8994    -0.6005     0.4003     1.8994     2.7994     3.8002    31.3400    22.1100    13.8400     6.4800    -5.6200   -10.4100   -14.3900   -16.8000     2.3567     4.4500     4.800
     16     1.0000    -0.0000     7.3500    -0.3500      4.854      4.000  11001.000      5.000   102.2341   140.2844   -79.4312     0.4200    -1.0000    27.5240     0.0000     0.0000    14.3750   104.0200    -1.0000    -1.5000     0.0000     0.0000     0.0000     0.0000    17.0000     8.0000     8.0000    17.0000     0.0000     0.0000   142.0306   -75.9388     0.0000    -4.2998    -2.9995    -1.8994    -0.6005     0.4003     1.8994     2.7994     3.8002    31.3400    22.1100    13.8400     6.4800    -5.6200   -10.4100   -14.3900   -16.8000     2.3547     4.4500     4.800
     17     0.9999    -0.0000     7.3402    -0.3500      4.914      2.000  11001.000      5.000   102.2341   140.2844   -79.4312     0.4200    -1.0000    27.5240     0.0000     0.0000    14.2750   103.8945    -1.0000    -1.5000     0.0000     0.0000     0.0000     0.0000    17.0000     8.0000     8.0000    17.0000     0.0000     0.0000   142.0306   -75.9388     0.0000    -4.2998    -2.9995    -1.8994    -0.6005     0.4003     1.8994     2.7994     3.8002    31.3400    22.1100    13.8400     6.4800    -5.6200   -10.4100   -14.3900   -16.8000     2.3527     4.4500     4.800
     18     1.0000    -0.0000     7.3300    -0.3500      4.751      1.000  11001.000      5.000   102.2341   140.2844   -79.4312     0.4200    -1.0000    27.5240     0.0000     0.0000    14.1700   103.7692    -1.0000    -1.5000     0.0000     0.0000     0.0000     0.0000    17.0000     8.0000     8.0000    17.0000     0.0000     0.0000   142.0306   -75.9388     0.0000    -4.2998    -2.9995    -1.8994    -0.6005     0.4003     1.8994     2.7994     3.8002    31.3400    22.1100    13.8400     6.4800    -5.6200   -10.4100   -14.3900   -16.8000     2.3507     4.4500     4.800
     19     1.0000    -0.0000     7.3200    -0.3500      4.813      5.000  11001.000      5.000   102.2341   140.2844   -79.4312     0.4200    -1.0000    27.5240     0.0000     0.0000    14.0675   103.6442    -1.0000    -1.5000     0.0000     0.0000     0.0000     0.0000    17.0000     8.0000     8.0000    17.0000     0.0000     0.0000   142.0306   -75.9388     0.0000    -4.2998    -2.9995    -1.8994    -0.6005     0.4003     1.8994     2.7994     3.8002    31.3400    22.1100    13.8400     6.4800    -5.6200   -10.4100   -14.3900   -16.8000     2.3487     4.4500     4.800
     20     1.0000    -0.0000     7.3099    -0.3500      4.789      0.000  11001.000      5.000   102.2341   140.2844   -79.4312     0.4200    -1.0000    27.5240     0.0000     0.0000    13.9650   103.5194    -1.0000    -1.5000     0.0000     0.0000     0.0000     0.0000    17.0000     8.0000     8.0000    17.0000     0.0000     0.0000   142.0306   -75.9388     0.0000    -4.2998    -2.9995    -1.8994    -0.6005     0.4003     1.8994     2.7994     3.8002    31.3400    22.1100    13.8400     6.4800    -5.6200   -10.4100   -14.3900   -16.8000     2.3467     4.4500     4.800
     21     1.0000    -0.0000     7.3001    -0.3500      4.840      6.000  11001.000      5.000   102.2341   140.2844   -79.4312     0.4200    -1.0000    27.5240     0.0000     0.0000    13.8650   103.3948    -1.0000    -1.5000     0.0000     0.0000     0.0000     0.0000    17.0000     8.0000     8.0000    17.0000     0.0000     0.0000   142.0306   -75.9388     0.0000    -4.2998    -2.9995    -1.8994    -0.6005     0.4003     1.8994     2.7994     3.8002    31.3400    22.1100    13.8400     6.4800    -5.6200   -10.4100   -14.3900   -16.8000     2.3447     4.4500     4.800
     22     1.0001    -0.0000     7.2896    -0.3500      4.868      5.000  11001.000      5.000   102.2341   140.2844   -79.4312     0.4200    -1.0000    27.5240     0.0000     0.0000    13.7575   103.2705    -1.0000    -1.5000     0.0000     0.0000     0.0000     0.0000    17.0000     8.0000     8.0000    17.0000     0.0000     0.0000   142.0306   -75.9388     0.0000    -4.2998    -2.9995    -1.8994    -0.6005     0.4003     1.8994     2.7994     3.8002    31.3400    22.1100    13.8400     6.4800    -5.6200   -10.4100   -14.3900   -16.8000     2.3426     4.4500     4.800
     23     1.0000    -0.0000     7.2800    -0.3500      4.907     12.000  11001.000      5.000   102.2341   140.2844   -79.4312     0.4200    -1.0000    27.5240     0.0000     0.0000    13.6600   103.1464    -1.0000    -1.5000     0.0000     0.0000     0.0000     0.0000    17.0000     8.0000     8.0000    17.0000     0.0000     0.0000   142.0306   -75.9388     0.0000    -4.2998    -2.9995    -1.8994    -0.6005     0.4003     1.8994     2.7994     3.8002    31.3400    22.1100    13.8400     6.4800    -5.6200   -10.4100   -14.3900   -16.8000     2.3406     4.4500     4.800
     24     1.0001    -0.0000     7.2698    -0.3500      4.846      8.000  11001.000      5.000   102.2341   140.2844   -79.4312     0.4200    -1.0000    27.5240     0.0000     0.0000    13.5550   103.0225    -1.0000    -1.5000     0.0000     0.0000     0.0000     0.0000    17.0000     8.0000     8.0000    17.0000     0.0000     0.0000   142.0306   -75.9388     0.0000    -4.2998    -2.9995    -1.8994    -0.6005     0.4003     1.8994     2.7994     3.8002    31.3400    22.1100    13.8400     6.4800    -5.6200   -10.4100   -14.3900   -16.8000     2.3386     4.4500     4.800
     25     1.0000    -0.0000     7.2599    -0.3500      4.894     32.000  11001.000      5.000   102.2341   140.2844   -79.4312     0.4200    -1.0000    27.5240     0.0000     0.0000    13.4550   102.8989    -1.0000    -1.5000     0.0000     0.0000     0.0000     0.0000    17.0000     8.0000     8.0000    17.0000     0.0000     0.0000   142.0306   -75.9388     0.0000    -4.2998    -2.9995    -1.8994    -0.6005     0.4003     1.8994     2.7994     3.8002    31.3400    22.1100    13.8400     6.4800    -5.6200   -10.4100   -14.3900   -16.8000     2.3366     4.4500     4.800
     26     0.9999    -0.0000     7.2504    -0.3500      4.830     49.000  11001.000      5.000   102.2341   140.2844   -79.4312     0.4200    -1.0000    27.5240     0.0000     0.0000    13.3575   102.7755    -1.0000    -1.5000     0.0000     0.0000     0.0000     0.0000    17.0000     8.0000     8.0000    17.0000     0.0000     0.0000   142.0306   -75.9388     0.0000    -4.2998    -2.9995    -1.8994    -0.6005     0.4003     1.8994     2.7994     3.8002    31.3400    22.1100    13.8400     6.4800    -5.6200   -10.4100   -14.3900   -16.8000     2.3346     4.4500     4.800
     27     1.0000    -0.0000     7.2401    -0.3500      4.832     91.000  11001.000      5.000   102.2341   140.2844   -79.4312     0.4200    -1.0000    27.5240     0.0000     0.0000    13.2525   102.6523    -1.0000    -1.5000     0.0000     0.0000     0.0000     0.0000    17.0000     8.0000     8.0000    17.0000     0.0000     0.0000   142.0306   -75.9388     0.0000    -4.2998    -2.9995    -1.8994    -0.6005     0.4003     1.8994     2.7994     3.8002    31.3400    22.1100    13.8400     6.4800    -5.6200   -10.4100   -14.3900   -16.8000     2.3326     4.4500     4.800
     28     1.0000    -0.0000     7.2300    -0.3500      4.860    101.000  11001.000      5.000   102.2341   140.2844   -79.4312     0.4200    -1.0000    27.5240     0.0000     0.0000    13.1500   102.5294    -1.0000    -1.5000     0.0000     0.0000     0.0000     0.0000    17.0000     8.0000     8.0000    17.0000     0.0000     0.0000   142.0306   -75.9388     0.0000    -4.2998    -2.9995    -1.8994    -0.6005     0.4003     1.8994     2.7994     3.8002    31.3400    22.1100    13.8400     6.4800    -5.6200   -10.4100   -14.3900   -16.8000     2.3306     4.4500     4.800
     29     1.0000    -0.0000     7.2202    -0.3500      4.809    127.000  11001.000      5.000   102.2341   140.2844   -79.4312     0.4200    -1.0000    27.5240     0.0000     0.0000    13.0500   102.4066    -1.0000    -1.5000     0.0000     0.0000     0.0000     0.0000    17.0000     8.0000     8.0000    17.0000     0.0000     0.0000   142.0306   -75.9388     0.0000    -4.2998    -2.9995    -1.8994    -0.6005     0.4003     1.8994     2.7994     3.8002    31.3400    22.1100    13.8400     6.4800    -5.6200   -10.4100   -14.3900   -16.8000     2.3286     4.4500     4.800
     30     1.0000    -0.0000     7.2098    -0.3500      4.785    147.000  11001.000      5.000   102.2341   140.2844   -79.4312     0.4200    -1.0000    27.5240     0.0000     0.0000    12.9450   102.2842    -1.0000    -1.5000     0.0000     0.0000     0.0000     0.0000    17.0000     8.0000     8.0000    17.0000     0.0000     0.0000   142.0306   -75.9388     0.0000    -4.2998    -2.9995    -1.8994    -0.6005     0.4003     1.8994     2.7994     3.8002    31.3400    22.1100    13.8400     6.4800    -5.6200   -10.4100   -14.3900   -16.8000     2.3266     4.4500     4.800
     31     1.0000    -0.0000     7.2000    -0.3500      4.872    111.000  11001.000      5.000   102.2341   140.2844   -79.4312     0.4200    -1.0000    27.5240     0.0000     0.0000    12.8450   102.1619    -1.0000    -1.5000     0.0000     0.0000     0.0000     0.0000    17.0000     8.0000     8.0000    17.0000     0.0000     0.0000   142.0306   -75.9388     0.0000    -4.2998    -2.9995    -1.8994    -0.6005     0.4003     1.8994     2.7994     3.8002    31.3400    22.1100    13.8400     6.4800    -5.6200   -10.4100   -14.3900   -16.8000     2.3246     4.4500     4.800
     32     1.0000    -0.0000     7.1902    -0.3500      4.767    100.000  11001.000      5.000   102.2341   140.2844   -79.4312     0.4200    -1.0000    27.5240     0.0000     0.0000    12.7450   102.0398    -1.0000    -1.5000     0.0000     0.0000     0.0000     0.0000    17.0000     8.0000     8.0000    17.0000     0.0000     0.0000   142.0306   -75.9388     0.0000    -4.2998    -2.9995    -1.8994    -0.6005     0.4003     1.8994     2.7994     3.8002    31.3400    22.1100    13.8400     6.4800    -5.6200   -10.4100   -14.3900   -16.8000     2.3226     4.4500     4.800
     33     1.0000    -0.0000     7.1801    -0.3500      4.870     41.000  11001.000      5.000   102.2341   140.2844   -79.4312     0.4200    -1.0000    27.5240     0.0000     0.0000    12.6425   101.9180    -1.0000    -1.5000     0.0000     0.0000     0.0000     0.0000    17.0000     8.0000     8.0000    17.0000     0.0000     0.0000   142.0306   -75.9388     0.0000    -4.2998    -2.9995    -1.8994    -0.6005     0.4003     1.8994     2.7994     3.8002    31.3400    22.1100    13.8400     6.4800    -5.6200   -10.4100   -14.3900   -16.8000     2.3206     4.4500     4.800
     34     1.0000    -0.0000     7.1700    -0.3500      4.764     20.000  11001.000      5.000   102.2341   140.2844   -79.4312     0.4200    -1.0000    27.5240     0.0000     0.0000    12.5400   101.7964    -1.0000    -1.5000     0.0000     0.0000     0.0000     0.0000    17.0000     8.0000     8.0000    17.0000     0.0000     0.0000   142.0306   -75.9388     0.0000    -4.2998    -2.9995    -1.8994    -0.6005     0.4003     1.8994     2.7994     3.8002    31.3400    22.1100    13.8400     6.4800    -5.6200   -10.4100   -14.3900   -16.8000     2.3186     4.4500     4.800
     35     1.0000    -0.0000     7.1601    -0.3500      4.811      6.000  11001.000      5.000   102.2341   140.2844   -79.4312     0.4200    -1.0000    27.5240     0.0000     0.0000    12.4400   101.6751    -1.0000    -1.5000     0.0000     0.0000     0.0000     0.0000    17.0000     8.0000     8.0000    17.0000     0.0000     0.0000   142.0306   -75.9388     0.0000    -4.2998    -2.9995    -1.8994    -0.6005     0.4003     1.8994     2.7994     3.8002    31.3400    22.1100    13.8400     6.4800    -5.6200   -10.4100   -14.3900   -16.8000     2.3166     4.4500     4.800
     36     1.0001    -0.0000     7.1498    -0.3500      4.854     10.000  11001.000      5.000   102.2341   140.2844   -79.4312     0.4200    -1.0000    27.5240     0.0000     0.0000    12.3350   101.5540    -1.0000    -1.5000     0.0000     0.0000     0.0000     0.0000    17.0000     8.0000     8.0000    17.0000     0.0000     0.0000   142.0306   -75.9388     0.0000    -4.2998    -2.9995    -1.8994    -0.6005     0.4003     1.8994     2.7994     3.8002    31.3400    22.1100    13.8400     6.4800    -5.6200   -10.4100   -14.3900   -16.8000     2.3146     4.4500     4.800
     37     1.0000    -0.0000     7.1401    -0.3500      4.815     11.000  11001.000      5.000   102.2341   140.2844   -79.4312     0.4200    -1.0000    27.5240     0.0000     0.0000    12.2375   101.4330    -1.0000    -1.5000     0.0000     0.0000     0.0000     0.0000    17.0000     8.0000     8.0000    17.0000     0.0000     0.0000   142.0306   -75.9388     0.0000    -4.2998    -2.9995    -1.8994    -0.6005     0.4003     1.8994     2.7994     3.8002    31.3400    22.1100    13.8400     6.4800    -5.6200   -10.4100   -14.3900   -16.8000     2.3126     4.4500     4.800
     38     1.0000    -0.0000     7.1300    -0.3500      4.910     10.000  11001.000      5.000   102.2341   140.2844   -79.4312     0.4200    -1.0000    27.5240     0.0000     0.0000    12.1350   101.3123    -1.0000    -1.5000     0.0000     0.0000     0.0000     0.0000    17.0000     8.0000     8.0000    17.0000     0.0000     0.0000   142.0306   -75.9388     0.0000    -4.2998    -2.9995    -1.8994    -0.6005     0.4003     1.8994     2.7994     3.8002    31.3400    22.1100    13.8400     6.4800    -5.6200   -10.4100   -14.3900   -16.8000     2.3106     4.4500     4.800
     39     1.0000    -0.0000     7.1202    -0.3500      4.765     11.000  11001.000      5.000   102.2341   140.2844   -79.4312     0.4200    -1.0000    27.5240     0.0000     0.0000    12.0350   101.1918    -1.0000    -1.5000     0.0000     0.0000     0.0000     0.0000    17.0000     8.0000     8.0000    17.0000     0.0000     0.0000   142.0306   -75.9388     0.0000    -4.2998    -2.9995    -1.8994    -0.6005     0.4003     1.8994     2.7994     3.8002    31.3400    22.1100    13.8400     6.4800    -5.6200   -10.4100   -14.3900   -16.8000     2.3086     4.4500     4.800
     40     1.0000    -0.0000     7.1100    -0.3500      4.886      9.000  11001.000      5.000   102.2341   140.2844   -79.4312     0.4200    -1.0000    27.5240     0.0000     0.0000    11.9325   101.0716    -1.0000    -1.5000     0.0000     0.0000     0.0000     0.0000    17.0000     8.0000     8.0000    17.0000     0.0000     0.0000   142.0306   -75.9388     0.0000    -4.2998    -2.9995    -1.8994    -0.6005     0.4003     1.8994     2.7994     3.8002    31.3400    22.1100    13.8400     6.4800    -5.6200   -10.4100   -14.3900   -16.8000     2.3067     4.4500     4.800
     41     1.0000    -0.0000     7.0999    -0.3500      4.842      8.000  11001.000      5.000   102.2341   140.2844   -79.4312     0.4200    -1.0000    27.5240     0.0000     0.0000    11.8300   100.9515    -1.0000    -1.5000     0.0000     0.0000     0.0000     0.0000    17.0000     8.0000     8.0000    17.0000     0.0000     0.0000   142.0306   -75.9388     0.0000    -4.2998    -2.9995    -1.8994    -0.6005     0.4003     1.8994     2.7994     3.8002    31.3400    22.1100    13.8400     6.4800    -5.6200   -10.4100   -14.3900   -16.8000     2.3047     4.4500     4.800
     42     0.9999    -0.0000     7.0903    -0.3500      4.870      9.000  11001.000      5.000   102.2341   140.2844   -79.4312     0.4200    -1.0000    27.5240     0.0000     0.0000    11.7325   100.8317    -1.0000    -1.5000     0.0000     0.0000     0.0000     0.0000    17.0000     8.0000     8.0000    17.0000     0.0000     0.0000   142.0306   -75.9388     0.0000    -4.2998    -2.9995    -1.8994    -0.6005     0.4003     1.8994     2.7994     3.8002    31.3400    22.1100    13.8400     6.4800    -5.6200   -10.4100   -14.3900   -16.8000     2.3027     4.4500     4.800
     43     1.0000    -0.0000     7.0799    -0.3500      4.780      7.000  11001.000      5.000   102.2341   140.2844   -79.4312     0.4200    -1.0000    27.5240     0.0000     0.0000    11.6275   100.7121    -1.0000    -1.5000     0.0000     0.0000     0.0000     0.0000    17.0000     8.0000     8.0000    17.0000     0.0000     0.0000   142.0306   -75.9388     0.0000    -4.2998    -2.9995    -1.8994    -0.6005     0.4003     1.8994     2.7994     3.8002    31.3400    22.1100    13.8400     6.4800    -5.6200   -10.4100   -14.3900   -16.8000     2.3007     4.4500     4.800
     44     1.0000    -0.0000     7.0700    -0.3500      4.912     11.000  11001.000      5.000   102.2341   140.2844   -79.4312     0.4200    -1.0000    27.5240     0.0000     0.0000    11.5275   100.5927    -1.0000    -1.5000     0.0000     0.0000     0.0000     0.0000    17.0000     8.0000     8.0000    17.0000     0.0000     0.0000   142.0306   -75.9388     0.0000    -4.2998    -2.9995    -1.8994    -0.6005     0.4003     1.8994     2.7994     3.8002    31.3400    22.1100    13.8400     6.4800    -5.6200   -10.4100   -14.3900   -16.8000     2.2987     4.4500     4.800
     45     1.0000    -0.0000     7.0601    -0.3500      4.869      8.000  11001.000      5.000   102.2341   140.2844   -79.4312     0.4200    -1.0000    27.5240     0.0000     0.0000    11.4275   100.4735    -1.0000    -1.5000     0.0000     0.0000     0.0000     0.0000    17.0000     8.0000     8.0000    17.0000     0.0000     0.0000   142.0306   -75.9388     0.0000    -4.2998    -2.9995    -1.8994    -0.6005     0.4003     1.8994     2.7994     3.8002    31.3400    22.1100    13.8400     6.4800    -5.6200   -10.4100   -14.3900   -16.8000     2.2967     4.4500     4.800
     46     1.0000    -0.0000     7.0499    -0.3500      4.805      7.000  11001.000      5.000   102.2341   140.2844   -79.4312     0.4200    -1.0000    27.5240     0.0000     0.0000    11.3250   100.3546    -1.0000    -1.5000     0.0000     0.0000     0.0000     0.0000    17.0000     8.0000     8.0000    17.0000     0.0000     0.0000   142.0306   -75.9388     0.0000    -4.2998    -2.9995    -1.8994    -0.6005     0.4003     1.8994     2.7994     3.8002    31.3400    22.1100    13.8400     6.4800    -5.6200   -10.4100   -14.3900   -16.8000     2.2947     4.4500     4.800
     47     1.0000    -0.0000     7.0400    -0.3500      4.865      5.000  11001.000      5.000   102.2341   140.2844   -79.4312     0.4200    -1.0000    27.5240     0.0000     0.0000    11.2250   100.2358    -1.0000    -1.5000     0.0000     0.0000     0.0000     0.0000    17.0000     8.0000     8.0000    17.0000     0.0000     0.0000   142.0306   -75.9388     0.0000    -4.2998    -2.9995    -1.8994    -0.6005     0.4003     1.8994     2.7994     3.8002    31.3400    22.1100    13.8400     6.4800    -5.6200   -10.4100   -14.3900   -16.8000     2.2927     4.4500     4.800
     48     1.0000    -0.0000     7.0301    -0.3500      4.857      8.000  11001.000      5.000   102.2341   140.2844   -79.4312     0.4200    -1.0000    27.5240     0.0000     0.0000    11.1250   100.1173    -1.0000    -1.5000     0.0000     0.0000     0.0000     0.0000    17.0000     8.0000     8.0000    17.0000     0.0000     0.0000   142.0306   -75.9388     0.0000    -4.2998    -2.9995    -1.8994    -0.6005     0.4003     1.8994     2.7994     3.8002    31.3400    22.1100    13.8400     6.4800    -5.6200   -10.4100   -14.3900   -16.8000     2.2908     4.4500     4.800
     49     1.0001    -0.0000     7.0197    -0.3500      4.796      8.000  11001.000      5.000   102.2341   140.2844   -79.4312     0.4200    -1.0000    27.5240     0.0000     0.0000    11.0200    99.9990    -1.0000    -1.5000     0.0000     0.0000     0.0000     0.0000    17.0000     8.0000     8.0000    17.0000     0.0000     0.0000   142.0306   -75.9388     0.0000    -4.2998    -2.9995    -1.8994    -0.6005     0.4003     1.8994     2.7994     3.8002    31.3400    22.1100    13.8400     6.4800    -5.6200   -10.4100   -14.3900   -16.8000     2.2888     4.4500     4.800
     50     1.0000    -0.0000     7.0101    -0.3500      4.815      7.000  11001.000      5.000   102.2341   140.2844   -79.4312     0.4200    -1.0000    27.5240     0.0000     0.0000    10.9225    99.8808    -1.0000    -1.5000     0.0000     0.0000     0.0000     0.0000    17.0000     8.0000     8.0000    17.0000     0.0000     0.0000   142.0306   -75.9388     0.0000    -4.2998    -2.9995    -1.8994    -0.6005     0.4003     1.8994     2.7994     3.8002    31.3400    22.1100    13.8400     6.4800    -5.6200   -10.4100   -14.3900   -16.8000     2.2868     4.4500     4.800
     51     1.0000    -0.0000     6.9999    -0.3500      4.772      7.000  11001.000      5.000   102.2341   140.2844   -79.4312     0.4200    -1.0000    27.5240     0.0000     0.0000    10.8200    99.7629    -1.0000    -1.5000     0.0000     0.0000     0.0000     0.0000    17.0000     8.0000     8.0000    17.0000     0.0000     0.0000   142.0306   -75.9388     0.0000    -4.2998    -2.9995    -1.8994    -0.6005     0.4003     1.8994     2.7994     3.8002    31.3400    22.1100    13.8400     6.4800    -5.6200   -10.4100   -14.3900   -16.8000     2.2848     4.4500     4.800
     52     1.0000    -0.0000     6.9900    -0.3500      4.910      3.000  11001.000      5.000   102.2341   140.2844   -79.4312     0.4200    -1.0000    27.5240     0.0000     0.0000    10.7200    99.6452    -1.0000    -1.5000     0.0000     0.0000     0.0000     0.0000    17.0000     8.0000     8.0000    17.0000     0.0000     0.0000   142.0306   -75.9388     0.0000    -4.2998    -2.9995    -1.8994    -0.6005     0.4003     1.8994     2.7994     3.8002    31.3400    22.1100    13.8400     6.4800    -5.6200   -10.4100   -14.3900   -16.8000     2.2829     4.4500     4.800
     53     1.0000    -0.0000     6.9800    -0.3500      4.852      6.000  11001.000      5.000   102.2341   140.2844   -79.4312     0.4200    -1.0000    27.5240     0.0000     0.0000    10.6200    99.5278    -1.0000    -1.5000     0.0000     0.0000     0.0000     0.0000    17.0000     8.0000     8.0000    17.0000     0.0000     0.0000   142.0306   -75.9388     0.0000    -4.2998    -2.9995    -1.8994    -0.6005     0.4003     1.8994     2.7994     3.8002    31.3400    22.1100    13.8400     6.4800    -5.6200   -10.4100   -14.3900   -16.8000     2.2809     4.4500     4.800
     54     1.0000    -0.0000     6.9701    -0.3500      4.752      7.000  11001.000      5.000   102.2341   140.2844   -79.4312     0.4200    -1.0000    27.5240     0.0000     0.0000    10.5200    99.4105    -1.0000    -1.5000     0.0000     0.0000     0.0000     0.0000    17.0000     8.0000     8.0000    17.0000     0.0000     0.0000   142.0306   -75.9388     0.0000    -4.2998    -2.9995    -1.8994    -0.6005     0.4003     1.8994     2.7994     3.8002    31.3400    22.1100    13.8400     6.4800    -5.6200   -10.4100   -14.3900   -16.8000     2.2789     4.4500     4.800
     55     1.0000    -0.0000     6.9599    -0.3500      4.817      1.000  11001.000      5.000   102.2341   140.2844   -79.4312     0.4200    -1.0000    27.5240     0.0000     0.0000    10.4175    99.2934    -1.0000    -1.5000     0.0000     0.0000     0.0000     0.0000    17.0000     8.0000     8.0000    17.0000     0.0000     0.0000   142.0306   -75.9388     0.0000    -4.2998    -2.9995    -1.8994    -0.6005     0.4003     1.8994     2.7994     3.8002    31.3400    22.1100    13.8400     6.4800    -5.6200   -10.4100   -14.3900   -16.8000     2.2769     4.4500     4.800
     56     1.0000    -0.0000     6.9500    -0.3500      4.808      5.000  11001.000      5.000   102.2341   140.2844   -79.4312     0.4200    -1.0000    27.5240     0.0000     0.0000    10.3175    99.1766    -1.0000    -1.5000     0.0000     0.0000     0.0000     0.0000    17.0000     8.0000     8.0000    17.0000     0.0000     0.0000   142.0306   -75.9388     0.0000    -4.2998    -2.9995    -1.8994    -0.6005     0.4003     1.8994     2.7994     3.8002    31.3400    22.1100    13.8400     6.4800    -5.6200   -10.4100   -14.3900   -16.8000     2.2750     4.4500     4.800
     57     1.0000    -0.0000     6.9401    -0.3500      4.868      8.000  11001.000      5.000   102.2341   140.2844   -79.4312     0.4200    -1.0000    27.5240     0.0000     0.0000    10.2175    99.0599    -1.0000    -1.5000     0.0000     0.0000     0.0000     0.0000    17.0000     8.0000     8.0000    17.0000     0.0000     0.0000   142.0306   -75.9388     0.0000    -4.2998    -2.9995    -1.8994    -0.6005     0.4003     1.8994     2.7994     3.8002    31.3400    22.1100    13.8400     6.4800    -5.6200   -10.4100   -14.3900   -16.8000     2.2730     4.4500     4.800
     58     1.0000    -0.0000     6.9299    -0.3500      4.825      3.000  11001.000      5.000   102.2341   140.2844   -79.4312     0.4200    -1.0000    27.5240     0.0000     0.0000    10.1150    98.9434    -1.0000    -1.5000     0.0000     0.0000     0.0000     0.0000    17.0000     8.0000     8.0000    17.0000     0.0000     0.0000   142.0306   -75.9388     0.0000    -4.2998    -2.9995    -1.8994    -0.6005     0.4003     1.8994     2.7994     3.8002    31.3400    22.1100    13.8400     6.4800    -5.6200   -10.4100   -14.3900   -16.8000     2.2710     4.4500     4.800
     59     1.0000    -0.0000     6.9199    -0.3500      4.876      3.000  11001.000      5.000   102.2341   140.2844   -79.4312     0.4200    -1.0000    27.5240     0.0000     0.0000    10.0150    98.8272    -1.0000    -1.5000     0.0000     0.0000     0.0000     0.0000    17.0000     8.0000     8.0000    17.0000     0.0000     0.0000   142.0306   -75.9388     0.0000    -4.2998    -2.9995    -1.8994    -0.6005     0.4003     1.8994     2.7994     3.8002    31.3400    22.1100    13.8400     6.4800    -5.6200   -10.4100   -14.3900   -16.8000     2.2690     4.4500     4.800
     60     1.0000    -0.0000     6.9102    -0.3500      4.874      0.000  11001.000      5.000   102.2341   140.2844   -79.4312     0.4200    -1.0000    27.5240     0.0000     0.0000     9.9175    98.7112    -1.0000    -1.5000     0.0000     0.0000     0.0000     0.0000    17.0000     8.0000     8.0000    17.0000     0.0000     0.0000   142.0306   -75.9388     0.0000    -4.2998    -2.9995    -1.8994    -0.6005     0.4003     1.8994     2.7994     3.8002    31.3400    22.1100    13.8400     6.4800    -5.6200   -10.4100   -14.3900   -16.8000     2.2671     4.4500     4.800
     61     1.0000    -0.0000     6.9000    -0.3500      4.818      2.000  11001.000      5.000   102.2341   140.2844   -79.4312     0.4200    -1.0000    27.5240     0.0000     0.0000     9.8150    98.5954    -1.0000    -1.5000     0.0000     0.0000     0.0000     0.0000    17.0000     8.0000     8.0000    17.0000     0.0000     0.0000   142.0306   -75.9388     0.0000    -4.2998    -2.9995    -1.8994    -0.6005     0.4003     1.8994     2.7994     3.8002    31.3400    22.1100    13.8400     6.4800    -5.6200   -10.4100   -14.3900   -16.8000     2.2651     4.4500     4.800
     62     1.0000    -0.0000     6.8901    -0.3500      4.791      3.000  11001.000      5.000   102.2341   140.2844   -79.4312     0.4200    -1.0000    27.5240     0.0000     0.0000     9.7150    98.4797    -1.0000    -1.5000     0.0000     0.0000     0.0000     0.0000    17.0000     8.0000     8.0000    17.0000     0.0000     0.0000   142.0306   -75.9388     0.0000    -4.2998    -2.9995    -1.8994    -0.6005     0.4003     1.8994     2.7994     3.8002    31.3400    22.1100    13.8400     6.4800    -5.6200   -10.4100   -14.3900   -16.8000     2.2631     4.4500     4.800
     63     1.0000    -0.0000     6.8799    -0.3500      4.842      2.000  11001.000      5.000   102.2341   140.2844   -79.4312     0.4200    -1.0000    27.5240     0.0000     0.0000     9.6125    98.3643    -1.0000    -1.5000     0.0000     0.0000     0.0000     0.0000    17.0000     8.0000     8.0000    17.0000     0.0000     0.0000   142.0306   -75.9388     0.0000    -4.2998    -2.9995    -1.8994    -0.6005     0.4003     1.8994     2.7994     3.8002    31.3400    22.1100    13.8400     6.4800    -5.6200   -10.4100   -14.3900   -16.8000     2.2612     4.4500     4.800
     64     1.0000    -0.0000     6.8701    -0.3500      4.732      1.000  11001.000      5.000   102.2341   140.2844   -79.4312     0.4200    -1.0000    27.5240     0.0000     0.0000     9.5150    98.2490    -1.0000    -1.5000     0.0000     0.0000     0.0000     0.0000    17.0000     8.0000     8.0000    17.0000     0.0000     0.0000   142.0306   -75.9388     0.0000    -4.2998    -2.9995    -1.8994    -0.6005     0.4003     1.8994     2.7994     3.8002    31.3400    22.1100    13.8400     6.4800    -5.6200   -10.4100   -14.3900   -16.8000     2.2592     4.4500     4.800
     65     1.0001    -0.0000     6.8597    -0.3500      4.818      1.000  11001.000      5.000   102.2341   140.2844   -79.4312     0.4200    -1.0000    27.5240     0.0000     0.0000     9.4100    98.1340    -1.0000    -1.5000     0.0000     0.0000     0.0000     0.0000    17.0000     8.0000     8.0000    17.0000     0.0000     0.0000   142.0306   -75.9388     0.0000    -4.2998    -2.9995    -1.8994    -0.6005     0.4003     1.8994     2.7994     3.8002    31.3400    22.1100    13.8400     6.4800    -5.6200   -10.4100   -14.3900   -16.8000     2.2572     4.4500     4.800
     66     1.0000    -0.0000     6.8502    -0.3500      4.811      2.000  11001.000      5.000   102.2341   140.2844   -79.4312     0.4200    -1.0000    27.5240     0.0000     0.0000     9.3150    98.0192    -1.0000    -1.5000     0.0000     0.0000     0.0000     0.0000    17.0000     8.0000     8.0000    17.0000     0.0000     0.0000   142.0306   -75.9388     0.0000    -4.2998    -2.9995    -1.8994    -0.6005     0.4003     1.8994     2.7994     3.8002    31.3400    22.1100    13.8400     6.4800    -5.6200   -10.4100   -14.3900   -16.8000     2.2553     4.4500     4.800
     67     1.0000    -0.0000     6.8400    -0.3500      4.778      3.000  11001.000      5.000   102.2341   140.2844   -79.4312     0.4200    -1.0000    27.5240     0.0000     0.0000     9.2125    97.9046    -1.0000    -1.5000     0.0000     0.0000     0.0000     0.0000    17.0000     8.0000     8.0000    17.0000     0.0000     0.0000   142.0306   -75.9388     0.0000    -4.2998    -2.9995    -1.8994    -0.6005     0.4003     1.8994     2.7994     3.8002    31.3400    22.1100    13.8400     6.4800    -5.6200   -10.4100   -14.3900   -16.8000     2.2533     4.4500     4.800
     68     1.0000    -0.0000     6.8300    -0.3500      4.823      3.000  11001.000      5.000   102.2341   140.2844   -79.4312     0.4200    -1.0000    27.5240     0.0000     0.0000     9.1125    97.7902    -1.0000    -1.5000     0.0000     0.0000     0.0000     0.0000    17.0000     8.0000     8.0000    17.0000     0.0000     0.0000   142.0306   -75.9388     0.0000    -4.2998    -2.9995    -1.8994    -0.6005     0.4003     1.8994     2.7994     3.8002    31.3400    22.1100    13.8400     6.4800    -5.6200   -10.4100   -14.3900   -16.8000     2.2514     4.4500     4.800
     69     1.0000    -0.0000     6.8200    -0.3500      4.851      4.000  11001.000      5.000   102.2341   140.2844   -79.4312     0.4200    -1.0000    27.5240     0.0000     0.0000     9.0125    97.6759    -1.0000    -1.5000     0.0000     0.0000     0.0000     0.0000    17.0000     8.0000     8.0000    17.0000     0.0000     0.0000   142.0306   -75.9388     0.0000    -4.2998    -2.9995    -1.8994    -0.6005     0.4003     1.8994     2.7994     3.8002    31.3400    22.1100    13.8400     6.4800    -5.6200   -10.4100   -14.3900   -16.8000     2.2494     4.4500     4.800
     70     1.0000    -0.0000     6.8098    -0.3500      4.896      0.000  11001.000      5.000   102.2341   140.2844   -79.4312     0.4200    -1.0000    27.5240     0.0000     0.0000     8.9100    97.5619    -1.0000    -1.5000     0.0000     0.0000     0.0000     0.0000    17.0000     8.0000     8.0000    17.0000     0.0000     0.0000   142.0306   -75.9388     0.0000    -4.2998    -2.9995    -1.8994    -0.6005     0.4003     1.8994     2.7994     3.8002    31.3400    22.1100    13.8400     6.4800    -5.6200   -10.4100   -14.3900   -16.8000     2.2475     4.4500     4.800
     71     1.0000    -0.0000     6.8001    -0.3500      4.855      1.000  11001.000      5.000   102.2341   140.2844   -79.4312     0.4200    -1.0000    27.5240     0.0000     0.0000     8.8125    97.4480    -1.0000    -1.5000     0.0000     0.0000     0.0000     0.0000    17.0000     8.0000     8.0000    17.0000     0.0000     0.0000   142.0306   -75.9388     0.0000    -4.2998    -2.9995    -1.8994    -0.6005     0.4003     1.8994     2.7994     3.8002    31.3400    22.1100    13.8400     6.4800    -5.6200   -10.4100   -14.3900   -16.8000     2.2455     4.4500     4.800
     72     1.0000    -0.0000     6.7899    -0.3500      4.785      5.000  11001.000      5.000   102.2341   140.2844   -79.4312     0.4200    -1.0000    27.5240     0.0000     0.0000     8.7100    97.3344    -1.0000    -1.5000     0.0000     0.0000     0.0000     0.0000    17.0000     8.0000     8.0000    17.0000     0.0000     0.0000   142.0306   -75.9388     0.0000    -4.2998    -2.9995    -1.8994    -0.6005     0.4003     1.8994     2.7994     3.8002    31.3400    22.1100    13.8400     6.4800    -5.6200   -10.4100   -14.3900   -16.8000     2.2435     4.4500     4.800
     73     1.0000    -0.0000     6.7801    -0.3500      4.818      0.000  11001.000      5.000   102.2341   140.2844   -79.4312     0.4200    -1.0000    27.5240     0.0000     0.0000     8.6125    97.2210    -1.0000    -1.5000     0.0000     0.0000     0.0000     0.0000    17.0000     8.0000     8.0000    17.0000     0.0000     0.0000   142.0306   -75.9388     0.0000    -4.2998    -2.9995    -1.8994    -0.6005     0.4003     1.8994     2.7994     3.8002    31.3400    22.1100    13.8400     6.4800    -5.6200   -10.4100   -14.3900   -16.8000     2.2416     4.4500     4.800
     74     1.0000    -0.0000     6.7701    -0.3500      4.786      2.000  11001.000      5.000   102.2341   140.2844   -79.4312     0.4200    -1.0000    27.5240     0.0000     0.0000     8.5125    97.1077    -1.0000    -1.5000     0.0000     0.0000     0.0000     0.0000    17.0000     8.0000     8.0000    17.0000     0.0000     0.0000   142.0306   -75.9388     0.0000    -4.2998    -2.9995    -1.8994    -0.6005     0.4003     1.8994     2.7994     3.8002    31.3400    22.1100    13.8400     6.4800    -5.6200   -10.4100   -14.3900   -16.8000     2.2396     4.4500     4.800
     75     1.0000    -0.0000     6.7599    -0.3500      4.918      3.000  11001.000      5.000   102.2341   140.2844   -79.4312     0.4200    -1.0000    27.5240     0.0000     0.0000     8.4100    96.9947    -1.0000    -1.5000     0.0000     0.0000     0.0000     0.0000    17.0000     8.0000     8.0000    17.0000     0.0000     0.0000   142.0306   -75.9388     0.0000    -4.2998    -2.9995    -1.8994    -0.6005     0.4003     1.8994     2.7994     3.8002    31.3400    22.1100    13.8400     6.4800    -5.6200   -10.4100   -14.3900   -16.8000     2.2377     4.4500     4.800
     76     1.0000    -0.0000     6.7501    -0.3500      4.787      2.000  11001.000      5.000   102.2341   140.2844   -79.4312     0.4200    -1.0000    27.5240     0.0000     0.0000     8.3125    96.8818    -1.0000    -1.5000     0.0000     0.0000     0.0000     0.0000    17.0000     8.0000     8.0000    17.0000     0.0000     0.0000   142.0306   -75.9388     0.0000    -4.2998    -2.9995    -1.8994    -0.6005     0.4003     1.8994     2.7994     3.8002    31.3400    22.1100    13.8400     6.4800    -5.6200   -10.4100   -14.3900   -16.8000     2.2357     4.4500     4.800
     77     1.0000    -0.0000     6.7399    -0.3500      4.909      0.000  11001.000      5.000   102.2341   140.2844   -79.4312     0.4200    -1.0000    27.5240     0.0000     0.0000     8.2100    96.7692    -1.0000    -1.5000     0.0000     0.0000     0.0000     0.0000    17.0000     8.0000     8.0000    17.0000     0.0000     0.0000   142.0306   -75.9388     0.0000    -4.2998    -2.9995    -1.8994    -0.6005     0.4003     1.8994     2.7994     3.8002    31.3400    22.1100    13.8400     6.4800    -5.6200   -10.4100   -14.3900   -16.8000     2.2338     4.4500     4.800
     78     1.0000    -0.0000     6.7302    -0.3500      4.827      1.000  11001.000      5.000   102.2341   140.2844   -79.4312     0.4200    -1.0000    27.5240     0.0000     0.0000     8.1125    96.6567    -1.0000    -1.5000     0.0000     0.0000     0.0000     0.0000    17.0000     8.0000     8.0000    17.0000     0.0000     0.0000   142.0306   -75.9388     0.0000    -4.2998    -2.9995    -1.8994    -0.6005     0.4003     1.8994     2.7994     3.8002    31.3400    22.1100    13.8400     6.4800    -5.6200   -10.4100   -14.3900   -16.8000     2.2318     4.4500     4.800
     79     1.0000    -0.0000     6.7202    -0.3500      4.826      1.000  11001.000      5.000   102.2341   140.2844   -79.4312     0.4200    -1.0000    27.5240     0.0000     0.0000     8.0125    96.5444    -1.0000    -1.5000     0.0000     0.0000     0.0000     0.0000    17.0000     8.0000     8.0000    17.0000     0.0000     0.0000   142.0306   -75.9388     0.0000    -4.2998    -2.9995    -1.8994    -0.6005     0.4003     1.8994     2.7994     3.8002    31.3400    22.1100    13.8400     6.4800    -5.6200   -10.4100   -14.3900   -16.8000     2.2299     4.4500     4.800
     80     1.0000    -0.0000     6.7099    -0.3500      4.796      2.000  11001.000      5.000   102.2341   140.2844   -79.4312     0.4200    -1.0000    27.5240     0.0000     0.0000     7.9100    96.4324    -1.0000    -1.5000     0.0000     0.0000     0.0000     0.0000    17.0000     8.0000     8.0000    17.0000     0.0000     0.0000   142.0306   -75.9388     0.0000    -4.2998    -2.9995    -1.8994    -0.6005     0.4003     1.8994     2.7994     3.8002    31.3400    22.1100    13.8400     6.4800    -5.6200   -10.4100   -14.3900   -16.8000     2.2280     4.4500     4.800
     81     1.0000    -0.0000     6.6999    -0.3500      4.804      1.000  11001.000      5.000   102.2341   140.2844   -79.4312     0.4200    -1.0000    27.5240     0.0000     0.0000     7.8100    96.3204    -1.0000    -1.5000     0.0000     0.0000     0.0000     0.0000    17.0000     8.0000     8.0000    17.0000     0.0000     0.0000   142.0306   -75.9388     0.0000    -4.2998    -2.9995    -1.8994    -0.6005     0.4003     1.8994     2.7994     3.8002    31.3400    22.1100    13.8400     6.4800    -5.6200   -10.4100   -14.3900   -16.8000     2.2260     4.4500     4.800
     82     1.0000    -0.0000     6.6899    -0.3500      4.830      3.000  11001.000      5.000   102.2341   140.2844   -79.4312     0.4200    -1.0000    27.5240     0.0000     0.0000     7.7100    96.2088    -1.0000    -1.5000     0.0000     0.0000     0.0000     0.0000    17.0000     8.0000     8.0000    17.0000     0.0000     0.0000   142.0306   -75.9388     0.0000    -4.2998    -2.9995    -1.8994    -0.6005     0.4003     1.8994     2.7994     3.8002    31.3400    22.1100    13.8400     6.4800    -5.6200   -10.4100   -14.3900   -16.8000     2.2241     4.4500     4.800
     83     1.0000    -0.0000     6.6801    -0.3500      4.801      1.000  11001.000      5.000   102.2341   140.2844   -79.4312     0.4200    -1.0000    27.5240     0.0000     0.0000     7.6125    96.0972    -1.0000    -1.5000     0.0000     0.0000     0.0000     0.0000    17.0000     8.0000     8.0000    17.0000     0.0000     0.0000   142.0306   -75.9388     0.0000    -4.2998    -2.9995    -1.8994    -0.6005     0.4003     1.8994     2.7994     3.8002    31.3400    22.1100    13.8400     6.4800    -5.6200   -10.4100   -14.3900   -16.8000     2.2221     4.4500     4.800
     84     1.0000    -0.0000     6.6701    -0.3500      4.797      1.000  11001.000      5.000   102.2341   140.2844   -79.4312     0.4200    -1.0000    27.5240     0.0000     0.0000     7.5125    95.9859    -1.0000    -1.5000     0.0000     0.0000     0.0000     0.0000    17.0000     8.0000     8.0000    17.0000     0.0000     0.0000   142.0306   -75.9388     0.0000    -4.2998    -2.9995    -1.8994    -0.6005     0.4003     1.8994     2.7994     3.8002    31.3400    22.1100    13.8400     6.4800    -5.6200   -10.4100   -14.3900   -16.8000     2.2202     4.4500     4.800
     85     1.0000    -0.0000     6.6601    -0.3500      4.886      0.000  11001.000      5.000   102.2341   140.2844   -79.4312     0.4200    -1.0000    27.5240     0.0000     0.0000     7.4125    95.8748    -1.0000    -1.5000     0.0000     0.0000     0.0000     0.0000    17.0000     8.0000     8.0000    17.0000     0.0000     0.0000   142.0306   -75.9388     0.0000    -4.2998    -2.9995    -1.8994    -0.6005     0.4003     1.8994     2.7994     3.8002    31.3400    22.1100    13.8400     6.4800    -5.6200   -10.4100   -14.3900   -16.8000     2.2182     4.4500     4.800
     86     1.0000    -0.0000     6.6498    -0.3500      4.850      0.000  11001.000      5.000   102.2341   140.2844   -79.4312     0.4200    -1.0000    27.5240     0.0000     0.0000     7.3100    95.7638    -1.0000    -1.5000     0.0000     0.0000     0.0000     0.0000    17.0000     8.0000     8.0000    17.0000     0.0000     0.0000   142.0306   -75.9388     0.0000    -4.2998    -2.9995    -1.8994    -0.6005     0.4003     1.8994     2.7994     3.8002    31.3400    22.1100    13.8400     6.4800    -5.6200   -10.4100   -14.3900   -16.8000     2.2163     4.4500     4.800
     87     1.0000    -0.0000     6.6401    -0.3500      4.830      1.000  11001.000      5.000   102.2341   140.2844   -79.4312     0.4200    -1.0000    27.5240     0.0000     0.0000     7.2125    95.6531    -1.0000    -1.5000     0.0000     0.0000     0.0000     0.0000    17.0000     8.0000     8.0000    17.0000     0.0000     0.0000   142.0306   -75.9388     0.0000    -4.2998    -2.9995    -1.8994    -0.6005     0.4003     1.8994     2.7994     3.8002    31.3400    22.1100    13.8400     6.4800    -5.6200   -10.4100   -14.3900   -16.8000     2.2144     4.4500     4.800
     88     1.0000    -0.0000     6.6301    -0.3500      4.921      0.000  11001.000      5.000   102.2341   140.2844   -79.4312     0.4200    -1.0000    27.5240     0.0000     0.0000     7.1125    95.5425    -1.0000    -1.5000     0.0000     0.0000     0.0000     0.0000    17.0000     8.0000     8.0000    17.0000     0.0000     0.0000   142.0306   -75.9388     0.0000    -4.2998    -2.9995    -1.8994    -0.6005     0.4003     1.8994     2.7994     3.8002    31.3400    22.1100    13.8400     6.4800    -5.6200   -10.4100   -14.3900   -16.8000     2.2124     4.4500     4.800
     89     1.0000    -0.0000     6.6200    -0.3500      4.797      1.000  11001.000      5.000   102.2341   140.2844   -79.4312     0.4200    -1.0000    27.5240     0.0000     0.0000     7.0125    95.4322    -1.0000    -1.5000     0.0000     0.0000     0.0000     0.0000    17.0000     8.0000     8.0000    17.0000     0.0000     0.0000   142.0306   -75.9388     0.0000    -4.2998    -2.9995    -1.8994    -0.6005     0.4003     1.8994     2.7994     3.8002    31.3400    22.1100    13.8400     6.4800    -5.6200   -10.4100   -14.3900   -16.8000     2.2105     4.4500     4.800
     90     1.0000    -0.0000     6.6098    -0.3500      4.841      0.000  11001.000      5.000   102.2341   140.2844   -79.4312     0.4200    -1.0000    27.5240     0.0000     0.0000     6.9100    95.3220    -1.0000    -1.5000     0.0000     0.0000     0.0000     0.0000    17.0000     8.0000     8.0000    17.0000     0.0000     0.0000   142.0306   -75.9388     0.0000    -4.2998    -2.9995    -1.8994    -0.6005     0.4003     1.8994     2.7994     3.8002    31.3400    22.1100    13.8400     6.4800    -5.6200   -10.4100   -14.3900   -16.8000     2.2086     4.4500     4.800
     91     1.0000    -0.0000     6.6002    -0.3500      4.853      1.000  11001.000      5.000   102.2341   140.2844   -79.4312     0.4200    -1.0000    27.5240     0.0000     0.0000     6.8150    95.2120    -1.0000    -1.5000     0.0000     0.0000     0.0000     0.0000    17.0000     8.0000     8.0000    17.0000     0.0000     0.0000   142.0306   -75.9388     0.0000    -4.2998    -2.9995    -1.8994    -0.6005     0.4003     1.8994     2.7994     3.8002    31.3400    22.1100    13.8400     6.4800    -5.6200   -10.4100   -14.3900   -16.8000     2.2066     4.4500     4.800
     92     1.0001    -0.0000     6.5897    -0.3500      4.777      2.000  11001.000      5.000   102.2341   140.2844   -79.4312     0.4200    -1.0000    27.5240     0.0000     0.0000     6.7100    95.1021    -1.0000    -1.5000     0.0000     0.0000     0.0000     0.0000    17.0000     8.0000     8.0000    17.0000     0.0000     0.0000   142.0306   -75.9388     0.0000    -4.2998    -2.9995    -1.8994    -0.6005     0.4003     1.8994     2.7994     3.8002    31.3400    22.1100    13.8400     6.4800    -5.6200   -10.4100   -14.3900   -16.8000     2.2047     4.4500     4.800
     93     1.0000    -0.0000     6.5802    -0.3500      4.886      2.000  11001.000      5.000   102.2341   140.2844   -79.4312     0.4200    -1.0000    27.5240     0.0000     0.0000     6.6150    94.9925    -1.0000    -1.5000     0.0000     0.0000     0.0000     0.0000    17.0000     8.0000     8.0000    17.0000     0.0000     0.0000   142.0306   -75.9388     0.0000    -4.2998    -2.9995    -1.8994    -0.6005     0.4003     1.8994     2.7994     3.8002    31.3400    22.1100    13.8400     6.4800    -5.6200   -10.4100   -14.3900   -16.8000     2.2028     4.4500     4.800
     94     1.0000    -0.0000     6.5699    -0.3500      4.849      1.000  11001.000      5.000   102.2341   140.2844   -79.4312     0.4200    -1.0000    27.5240     0.0000     0.0000     6.5125    94.8830    -1.0000    -1.5000     0.0000     0.0000     0.0000     0.0000    17.0000     8.0000     8.0000    17.0000     0.0000     0.0000   142.0306   -75.9388     0.0000    -4.2998    -2.9995    -1.8994    -0.6005     0.4003     1.8994     2.7994     3.8002    31.3400    22.1100    13.8400     6.4800    -5.6200   -10.4100   -14.3900   -16.8000     2.2008     4.4500     4.800
     95     1.0000    -0.0000     6.5599    -0.3500      4.820      2.000  11001.000      5.000   102.2341   140.2844   -79.4312     0.4200    -1.0000    27.5240     0.0000     0.0000     6.4125    94.7738    -1.0000    -1.5000     0.0000     0.0000     0.0000     0.0000    17.0000     8.0000     8.0000    17.0000     0.0000     0.0000   142.0306   -75.9388     0.0000    -4.2998    -2.9995    -1.8994    -0.6005     0.4003     1.8994     2.7994     3.8002    31.3400    22.1100    13.8400     6.4800    -5.6200   -10.4100   -14.3900   -16.8000     2.1989     4.4500     4.800
     96     1.0000    -0.0000     6.5501    -0.3500      4.812      4.000  11001.000      5.000   102.2341   140.2844   -79.4312     0.4200    -1.0000    27.5240     0.0000     0.0000     6.3150    94.6647    -1.0000    -1.5000     0.0000     0.0000     0.0000     0.0000    17.0000     8.0000     8.0000    17.0000     0.0000     0.0000   142.0306   -75.9388     0.0000    -4.2998    -2.9995    -1.8994    -0.6005     0.4003     1.8994     2.7994     3.8002    31.3400    22.1100    13.8400     6.4800    -5.6200   -10.4100   -14.3900   -16.8000     2.1970     4.4500     4.800
     97     1.0000    -0.0000     6.5400    -0.3500      4.760      4.000  11001.000      5.000   102.2341   140.2844   -79.4312     0.4200    -1.0000    27.5240     0.0000     0.0000     6.2150    94.5558    -1.0000    -1.5000     0.0000     0.0000     0.0000     0.0000    17.0000     8.0000     8.0000    17.0000     0.0000     0.0000   142.0306   -75.9388     0.0000    -4.2998    -2.9995    -1.8994    -0.6005     0.4003     1.8994     2.7994     3.8002    31.3400    22.1100    13.8400     6.4800    -5.6200   -10.4100   -14.3900   -16.8000     2.1951     4.4500     4.800
     98     1.0000    -0.0000     6.5300    -0.3500      4.757      0.000  11001.000      5.000   102.2341   140.2844   -79.4312     0.4200    -1.0000    27.5240     0.0000     0.0000     6.1150    94.4471    -1.0000    -1.5000     0.0000     0.0000     0.0000     0.0000    17.0000     8.0000     8.0000    17.0000     0.0000     0.0000   142.0306   -75.9388     0.0000    -4.2998    -2.9995    -1.8994    -0.6005     0.4003     1.8994     2.7994     3.8002    31.3400    22.1100    13.8400     6.4800    -5.6200   -10.4100   -14.3900   -16.8000     2.1931     4.4500     4.800
     99     1.0000    -0.0000     6.5200    -0.3500      4.727      4.000  11001.000      5.000   102.2341   140.2844   -79.4312     0.4200    -1.0000    27.5240     0.0000     0.0000     6.0150    94.3386    -1.0000    -1.5000     0.0000     0.0000     0.0000     0.0000    17.0000     8.0000     8.0000    17.0000     0.0000     0.0000   142.0306   -75.9388     0.0000    -4.2998    -2.9995    -1.8994    -0.6005     0.4003     1.8994     2.7994     3.8002    31.3400    22.1100    13.8400     6.4800    -5.6200   -10.4100   -14.3900   -16.8000     2.1912     4.4500     4.800
    100     1.0000    -0.0000     6.5099    -0.3500      4.887      2.000  11001.000      5.000   102.2341   140.2844   -79.4312     0.4200    -1.0000    27.5240     0.0000     0.0000     5.9150    94.2302    -1.0000    -1.5000     0.0000     0.0000     0.0000     0.0000    17.0000     8.0000     8.0000    17.0000     0.0000     0.0000   142.0306   -75.9388     0.0000    -4.2998    -2.9995    -1.8994    -0.6005     0.4003     1.8994     2.7994     3.8002    31.3400    22.1100    13.8400     6.4800    -5.6200   -10.4100   -14.3900   -16.8000     2.1893     4.4500     4.800
    101     1.0000    -0.0000     6.4999    -0.3500      4.812      3.000  11001.000      5.000   102.2341   140.2844   -79.4312     0.4200    -1.0000    27.5240     0.0000     0.0000     5.8150    94.1220    -1.0000    -1.5000     0.0000     0.0000     0.0000     0.0000    17.0000     8.0000     8.0000    17.0000     0.0000     0.0000   142.0306   -75.9388     0.0000    -4.2998    -2.9995    -1.8994    -0.6005     0.4003     1.8994     2.7994     3.8002    31.3400    22.1100    13.8400     6.4800    -5.6200   -10.4100   -14.3900   -16.8000     2.1874     4.4500     4.800
# Sum of Counts = 1149
# Center of Mass = 7.169327+/-0.299143
# Full Width Half-Maximum = 0.295356+/-0.060339
# 2:09:25 PM  3/12/2025   scan completed.
