# scan = 149
# date = 3/11/2025
# time = 8:49:33 PM
# proposal = 35030
# experiment = CTAX Instrumental resolution benchmarking
# experiment_number = 445
# command = scanrel sgl -8 8 0.5
# builtin_command = scan sgl @(sgl)+-8 @(sgl)+8 0.500000
# users = Tao Hong, Tao Hong, Bing Li
# local_contact = Tao Hong
# scan_title = (006) scans-hori-focusing
# monochromator = PG002
# analyzer = Pg002
# sense = -+-
# collimation = 48-40-40-120
# samplename = LaN
# sampletype = crystal
# samplemosaic = 30.000000
# latticeconstants = 5.058628,5.058628,24.728465,90.000000,90.000000,120.000000
# ubmatrix = -0.002928,0.001986,-0.040430,-0.228168,-0.119258,0.000500,-0.005924,0.194622,0.000719
# mode = 0
# plane_normal = 0.017452,-0.026173,0.999505
# ubconf = UB10Mar2025_114214AM.ini
# preset_type = normal 
# preset_channel = mcu
# preset_value = 2.000000
# def_x = sgl
# def_y = detector
# col_headers = 
#   Pt.        sgl       time   detector    monitor        mcu focal_length         m1         m2       marc     mtrans     mfocus   vti_temp  smpl_temp         s1         s2        sgu        bbb        bbl        bbr        bbt        bab        bal        bar        bat        stl        stu         a1         a2     afocus        qm1        qm2        qm3        qm4        qm5        qm6        qm7        qm8        xm1        xm2        xm3        xm4        xm5        xm6        xm7        xm8          q          h          k          l         ei         ef          e
      1    -9.0000      1.860     44.000   4401.000      2.000    98.4288   142.0306   -75.9387     0.4200    -1.0000    28.2560     0.0000     0.0000    30.7475    60.1316    -1.5000     0.0000     0.0000     0.0000     0.0000    17.0000     8.0000     8.0000    17.0000     0.0000     0.0000   142.0306   -75.9388     0.0000    -4.2998    -2.9995    -1.8994    -0.6005     0.4003     1.8994     2.7994     3.8002    31.3400    22.1100    13.8400     6.4800    -5.6200   -10.4100   -14.3900   -16.8000     1.5250    -0.0846     0.1709     5.9436     4.8000     4.8000     0.000
      2    -8.5000      1.886     42.000   4401.000      2.000    98.4288   142.0306   -75.9387     0.4200    -1.0000    28.2560     0.0000     0.0000    30.7475    60.1316    -1.5000     0.0000     0.0000     0.0000     0.0000    17.0000     8.0000     8.0000    17.0000     0.0000     0.0000   142.0306   -75.9388     0.0000    -4.2998    -2.9995    -1.8994    -0.6005     0.4003     1.8994     2.7994     3.8002    31.3400    22.1100    13.8400     6.4800    -5.6200   -10.4100   -14.3900   -16.8000     1.5250    -0.0793     0.1602     5.9506     4.8000     4.8000     0.000
      3    -8.0000      1.888     39.000   4401.000      2.000    98.4288   142.0306   -75.9387     0.4200    -1.0000    28.2560     0.0000     0.0000    30.7475    60.1316    -1.5000     0.0000     0.0000     0.0000     0.0000    17.0000     8.0000     8.0000    17.0000     0.0000     0.0000   142.0306   -75.9388     0.0000    -4.2998    -2.9995    -1.8994    -0.6005     0.4003     1.8994     2.7994     3.8002    31.3400    22.1100    13.8400     6.4800    -5.6200   -10.4100   -14.3900   -16.8000     1.5250    -0.0739     0.1496     5.9572     4.8000     4.8000     0.000
      4    -7.5000      1.842    100.000   4401.000      2.000    98.4288   142.0306   -75.9387     0.4200    -1.0000    28.2560     0.0000     0.0000    30.7475    60.1316    -1.5000     0.0000     0.0000     0.0000     0.0000    17.0000     8.0000     8.0000    17.0000     0.0000     0.0000   142.0306   -75.9388     0.0000    -4.2998    -2.9995    -1.8994    -0.6005     0.4003     1.8994     2.7994     3.8002    31.3400    22.1100    13.8400     6.4800    -5.6200   -10.4100   -14.3900   -16.8000     1.5250    -0.0686     0.1390     5.9634     4.8000     4.8000     0.000
      5    -7.0000      1.890    289.000   4401.000      2.000    98.4288   142.0306   -75.9387     0.4200    -1.0000    28.2560     0.0000     0.0000    30.7475    60.1316    -1.5000     0.0000     0.0000     0.0000     0.0000    17.0000     8.0000     8.0000    17.0000     0.0000     0.0000   142.0306   -75.9388     0.0000    -4.2998    -2.9995    -1.8994    -0.6005     0.4003     1.8994     2.7994     3.8002    31.3400    22.1100    13.8400     6.4800    -5.6200   -10.4100   -14.3900   -16.8000     1.5250    -0.0633     0.1283     5.9691     4.8000     4.8000     0.000
      6    -6.5000      1.889    583.000   4401.000      2.000    98.4288   142.0306   -75.9387     0.4200    -1.0000    28.2560     0.0000     0.0000    30.7475    60.1316    -1.5000     0.0000     0.0000     0.0000     0.0000    17.0000     8.0000     8.0000    17.0000     0.0000     0.0000   142.0306   -75.9388     0.0000    -4.2998    -2.9995    -1.8994    -0.6005     0.4003     1.8994     2.7994     3.8002    31.3400    22.1100    13.8400     6.4800    -5.6200   -10.4100   -14.3900   -16.8000     1.5250    -0.0579     0.1177     5.9743     4.8000     4.8000     0.000
      7    -6.0000      1.889   1102.000   4401.000      2.000    98.4288   142.0306   -75.9387     0.4200    -1.0000    28.2560     0.0000     0.0000    30.7475    60.1316    -1.5000     0.0000     0.0000     0.0000     0.0000    17.0000     8.0000     8.0000    17.0000     0.0000     0.0000   142.0306   -75.9388     0.0000    -4.2998    -2.9995    -1.8994    -0.6005     0.4003     1.8994     2.7994     3.8002    31.3400    22.1100    13.8400     6.4800    -5.6200   -10.4100   -14.3900   -16.8000     1.5250    -0.0526     0.1070     5.9791     4.8000     4.8000     0.000
      8    -5.5000      1.910   1476.000   4401.000      2.000    98.4288   142.0306   -75.9387     0.4200    -1.0000    28.2560     0.0000     0.0000    30.7475    60.1316    -1.5000     0.0000     0.0000     0.0000     0.0000    17.0000     8.0000     8.0000    17.0000     0.0000     0.0000   142.0306   -75.9388     0.0000    -4.2998    -2.9995    -1.8994    -0.6005     0.4003     1.8994     2.7994     3.8002    31.3400    22.1100    13.8400     6.4800    -5.6200   -10.4100   -14.3900   -16.8000     1.5250    -0.0472     0.0963     5.9835     4.8000     4.8000     0.000
      9    -5.0000      1.882   2106.000   4401.000      2.000    98.4288   142.0306   -75.9387     0.4200    -1.0000    28.2560     0.0000     0.0000    30.7475    60.1316    -1.5000     0.0000     0.0000     0.0000     0.0000    17.0000     8.0000     8.0000    17.0000     0.0000     0.0000   142.0306   -75.9388     0.0000    -4.2998    -2.9995    -1.8994    -0.6005     0.4003     1.8994     2.7994     3.8002    31.3400    22.1100    13.8400     6.4800    -5.6200   -10.4100   -14.3900   -16.8000     1.5250    -0.0419     0.0856     5.9873     4.8000     4.8000     0.000
     10    -4.5000      1.863   2791.000   4401.000      2.000    98.4288   142.0306   -75.9387     0.4200    -1.0000    28.2560     0.0000     0.0000    30.7475    60.1316    -1.5000     0.0000     0.0000     0.0000     0.0000    17.0000     8.0000     8.0000    17.0000     0.0000     0.0000   142.0306   -75.9388     0.0000    -4.2998    -2.9995    -1.8994    -0.6005     0.4003     1.8994     2.7994     3.8002    31.3400    22.1100    13.8400     6.4800    -5.6200   -10.4100   -14.3900   -16.8000     1.5250    -0.0365     0.0750     5.9908     4.8000     4.8000     0.000
     11    -4.0000      1.900   3326.000   4401.000      2.000    98.4288   142.0306   -75.9387     0.4200    -1.0000    28.2560     0.0000     0.0000    30.7475    60.1316    -1.5000     0.0000     0.0000     0.0000     0.0000    17.0000     8.0000     8.0000    17.0000     0.0000     0.0000   142.0306   -75.9388     0.0000    -4.2998    -2.9995    -1.8994    -0.6005     0.4003     1.8994     2.7994     3.8002    31.3400    22.1100    13.8400     6.4800    -5.6200   -10.4100   -14.3900   -16.8000     1.5250    -0.0312     0.0643     5.9937     4.8000     4.8000     0.000
     12    -3.5000      1.829   3721.000   4401.000      2.000    98.4288   142.0306   -75.9387     0.4200    -1.0000    28.2560     0.0000     0.0000    30.7475    60.1316    -1.5000     0.0000     0.0000     0.0000     0.0000    17.0000     8.0000     8.0000    17.0000     0.0000     0.0000   142.0306   -75.9388     0.0000    -4.2998    -2.9995    -1.8994    -0.6005     0.4003     1.8994     2.7994     3.8002    31.3400    22.1100    13.8400     6.4800    -5.6200   -10.4100   -14.3900   -16.8000     1.5250    -0.0258     0.0536     5.9962     4.8000     4.8000     0.000
     13    -3.0000      1.863   4094.000   4401.000      2.000    98.4288   142.0306   -75.9387     0.4200    -1.0000    28.2560     0.0000     0.0000    30.7475    60.1316    -1.5000     0.0000     0.0000     0.0000     0.0000    17.0000     8.0000     8.0000    17.0000     0.0000     0.0000   142.0306   -75.9388     0.0000    -4.2998    -2.9995    -1.8994    -0.6005     0.4003     1.8994     2.7994     3.8002    31.3400    22.1100    13.8400     6.4800    -5.6200   -10.4100   -14.3900   -16.8000     1.5250    -0.0204     0.0428     5.9983     4.8000     4.8000     0.000
     14    -2.5000      1.908   4731.000   4401.000      2.000    98.4288   142.0306   -75.9387     0.4200    -1.0000    28.2560     0.0000     0.0000    30.7475    60.1316    -1.5000     0.0000     0.0000     0.0000     0.0000    17.0000     8.0000     8.0000    17.0000     0.0000     0.0000   142.0306   -75.9388     0.0000    -4.2998    -2.9995    -1.8994    -0.6005     0.4003     1.8994     2.7994     3.8002    31.3400    22.1100    13.8400     6.4800    -5.6200   -10.4100   -14.3900   -16.8000     1.5250    -0.0151     0.0321     5.9999     4.8000     4.8000     0.000
     15    -2.0000      1.897   5096.000   4401.000      2.000    98.4288   142.0306   -75.9387     0.4200    -1.0000    28.2560     0.0000     0.0000    30.7475    60.1316    -1.5000     0.0000     0.0000     0.0000     0.0000    17.0000     8.0000     8.0000    17.0000     0.0000     0.0000   142.0306   -75.9388     0.0000    -4.2998    -2.9995    -1.8994    -0.6005     0.4003     1.8994     2.7994     3.8002    31.3400    22.1100    13.8400     6.4800    -5.6200   -10.4100   -14.3900   -16.8000     1.5250    -0.0097     0.0214     6.0010     4.8000     4.8000     0.000
     16    -1.5000      1.879   5218.000   4401.000      2.000    98.4288   142.0306   -75.9387     0.4200    -1.0000    28.2560     0.0000     0.0000    30.7475    60.1316    -1.5000     0.0000     0.0000     0.0000     0.0000    17.0000     8.0000     8.0000    17.0000     0.0000     0.0000   142.0306   -75.9388     0.0000    -4.2998    -2.9995    -1.8994    -0.6005     0.4003     1.8994     2.7994     3.8002    31.3400    22.1100    13.8400     6.4800    -5.6200   -10.4100   -14.3900   -16.8000     1.5250    -0.0044     0.0107     6.0017     4.8000     4.8000     0.000
     17    -1.0000      1.899   5497.000   4401.000      2.000    98.4288   142.0306   -75.9387     0.4200    -1.0000    28.2560     0.0000     0.0000    30.7475    60.1316    -1.5000     0.0000     0.0000     0.0000     0.0000    17.0000     8.0000     8.0000    17.0000     0.0000     0.0000   142.0306   -75.9388     0.0000    -4.2998    -2.9995    -1.8994    -0.6005     0.4003     1.8994     2.7994     3.8002    31.3400    22.1100    13.8400     6.4800    -5.6200   -10.4100   -14.3900   -16.8000     1.5250     0.0010     0.0000     6.0020     4.8000     4.8000     0.000
     18    -0.5000      1.867   5347.000   4401.000      2.000    98.4288   142.0306   -75.9387     0.4200    -1.0000    28.2560     0.0000     0.0000    30.7475    60.1316    -1.5000     0.0000     0.0000     0.0000     0.0000    17.0000     8.0000     8.0000    17.0000     0.0000     0.0000   142.0306   -75.9388     0.0000    -4.2998    -2.9995    -1.8994    -0.6005     0.4003     1.8994     2.7994     3.8002    31.3400    22.1100    13.8400     6.4800    -5.6200   -10.4100   -14.3900   -16.8000     1.5250     0.0063    -0.0107     6.0017     4.8000     4.8000     0.000
     19     0.0000      1.856   5409.000   4401.000      2.000    98.4288   142.0306   -75.9387     0.4200    -1.0000    28.2560     0.0000     0.0000    30.7475    60.1316    -1.5000     0.0000     0.0000     0.0000     0.0000    17.0000     8.0000     8.0000    17.0000     0.0000     0.0000   142.0306   -75.9388     0.0000    -4.2998    -2.9995    -1.8994    -0.6005     0.4003     1.8994     2.7994     3.8002    31.3400    22.1100    13.8400     6.4800    -5.6200   -10.4100   -14.3900   -16.8000     1.5250     0.0117    -0.0214     6.0010     4.8000     4.8000     0.000
     20     0.5000      1.870   5374.000   4401.000      2.000    98.4288   142.0306   -75.9387     0.4200    -1.0000    28.2560     0.0000     0.0000    30.7475    60.1316    -1.5000     0.0000     0.0000     0.0000     0.0000    17.0000     8.0000     8.0000    17.0000     0.0000     0.0000   142.0306   -75.9388     0.0000    -4.2998    -2.9995    -1.8994    -0.6005     0.4003     1.8994     2.7994     3.8002    31.3400    22.1100    13.8400     6.4800    -5.6200   -10.4100   -14.3900   -16.8000     1.5250     0.0171    -0.0321     5.9999     4.8000     4.8000     0.000
     21     1.0000      1.846   4904.000   4401.000      2.000    98.4288   142.0306   -75.9387     0.4200    -1.0000    28.2560     0.0000     0.0000    30.7475    60.1316    -1.5000     0.0000     0.0000     0.0000     0.0000    17.0000     8.0000     8.0000    17.0000     0.0000     0.0000   142.0306   -75.9388     0.0000    -4.2998    -2.9995    -1.8994    -0.6005     0.4003     1.8994     2.7994     3.8002    31.3400    22.1100    13.8400     6.4800    -5.6200   -10.4100   -14.3900   -16.8000     1.5250     0.0224    -0.0428     5.9983     4.8000     4.8000     0.000
     22     1.5000      1.887   4365.000   4401.000      2.000    98.4288   142.0306   -75.9387     0.4200    -1.0000    28.2560     0.0000     0.0000    30.7475    60.1316    -1.5000     0.0000     0.0000     0.0000     0.0000    17.0000     8.0000     8.0000    17.0000     0.0000     0.0000   142.0306   -75.9388     0.0000    -4.2998    -2.9995    -1.8994    -0.6005     0.4003     1.8994     2.7994     3.8002    31.3400    22.1100    13.8400     6.4800    -5.6200   -10.4100   -14.3900   -16.8000     1.5250     0.0278    -0.0536     5.9962     4.8000     4.8000     0.000
     23     2.0000      1.910   3946.000   4401.000      2.000    98.4288   142.0306   -75.9387     0.4200    -1.0000    28.2560     0.0000     0.0000    30.7475    60.1316    -1.5000     0.0000     0.0000     0.0000     0.0000    17.0000     8.0000     8.0000    17.0000     0.0000     0.0000   142.0306   -75.9388     0.0000    -4.2998    -2.9995    -1.8994    -0.6005     0.4003     1.8994     2.7994     3.8002    31.3400    22.1100    13.8400     6.4800    -5.6200   -10.4100   -14.3900   -16.8000     1.5250     0.0331    -0.0643     5.9937     4.8000     4.8000     0.000
     24     2.5000      1.819   3016.000   4401.000      2.000    98.4288   142.0306   -75.9387     0.4200    -1.0000    28.2560     0.0000     0.0000    30.7475    60.1316    -1.5000     0.0000     0.0000     0.0000     0.0000    17.0000     8.0000     8.0000    17.0000     0.0000     0.0000   142.0306   -75.9388     0.0000    -4.2998    -2.9995    -1.8994    -0.6005     0.4003     1.8994     2.7994     3.8002    31.3400    22.1100    13.8400     6.4800    -5.6200   -10.4100   -14.3900   -16.8000     1.5250     0.0384    -0.0750     5.9908     4.8000     4.8000     0.000
     25     3.0000      1.878   2564.000   4401.000      2.000    98.4288   142.0306   -75.9387     0.4200    -1.0000    28.2560     0.0000     0.0000    30.7475    60.1316    -1.5000     0.0000     0.0000     0.0000     0.0000    17.0000     8.0000     8.0000    17.0000     0.0000     0.0000   142.0306   -75.9388     0.0000    -4.2998    -2.9995    -1.8994    -0.6005     0.4003     1.8994     2.7994     3.8002    31.3400    22.1100    13.8400     6.4800    -5.6200   -10.4100   -14.3900   -16.8000     1.5250     0.0438    -0.0856     5.9873     4.8000     4.8000     0.000
     26     3.5000      1.881   1887.000   4401.000      2.000    98.4288   142.0306   -75.9387     0.4200    -1.0000    28.2560     0.0000     0.0000    30.7475    60.1316    -1.5000     0.0000     0.0000     0.0000     0.0000    17.0000     8.0000     8.0000    17.0000     0.0000     0.0000   142.0306   -75.9388     0.0000    -4.2998    -2.9995    -1.8994    -0.6005     0.4003     1.8994     2.7994     3.8002    31.3400    22.1100    13.8400     6.4800    -5.6200   -10.4100   -14.3900   -16.8000     1.5250     0.0491    -0.0963     5.9835     4.8000     4.8000     0.000
     27     4.0000      1.862   1365.000   4401.000      2.000    98.4288   142.0306   -75.9387     0.4200    -1.0000    28.2560     0.0000     0.0000    30.7475    60.1316    -1.5000     0.0000     0.0000     0.0000     0.0000    17.0000     8.0000     8.0000    17.0000     0.0000     0.0000   142.0306   -75.9388     0.0000    -4.2998    -2.9995    -1.8994    -0.6005     0.4003     1.8994     2.7994     3.8002    31.3400    22.1100    13.8400     6.4800    -5.6200   -10.4100   -14.3900   -16.8000     1.5250     0.0544    -0.1070     5.9791     4.8000     4.8000     0.000
     28     4.5000      1.886    892.000   4401.000      2.000    98.4288   142.0306   -75.9387     0.4200    -1.0000    28.2560     0.0000     0.0000    30.7475    60.1316    -1.5000     0.0000     0.0000     0.0000     0.0000    17.0000     8.0000     8.0000    17.0000     0.0000     0.0000   142.0306   -75.9388     0.0000    -4.2998    -2.9995    -1.8994    -0.6005     0.4003     1.8994     2.7994     3.8002    31.3400    22.1100    13.8400     6.4800    -5.6200   -10.4100   -14.3900   -16.8000     1.5250     0.0598    -0.1177     5.9743     4.8000     4.8000     0.000
     29     5.0000      1.871    380.000   4401.000      2.000    98.4288   142.0306   -75.9387     0.4200    -1.0000    28.2560     0.0000     0.0000    30.7475    60.1316    -1.5000     0.0000     0.0000     0.0000     0.0000    17.0000     8.0000     8.0000    17.0000     0.0000     0.0000   142.0306   -75.9388     0.0000    -4.2998    -2.9995    -1.8994    -0.6005     0.4003     1.8994     2.7994     3.8002    31.3400    22.1100    13.8400     6.4800    -5.6200   -10.4100   -14.3900   -16.8000     1.5250     0.0651    -0.1283     5.9691     4.8000     4.8000     0.000
     30     5.5000      1.895    147.000   4401.000      2.000    98.4288   142.0306   -75.9387     0.4200    -1.0000    28.2560     0.0000     0.0000    30.7475    60.1316    -1.5000     0.0000     0.0000     0.0000     0.0000    17.0000     8.0000     8.0000    17.0000     0.0000     0.0000   142.0306   -75.9388     0.0000    -4.2998    -2.9995    -1.8994    -0.6005     0.4003     1.8994     2.7994     3.8002    31.3400    22.1100    13.8400     6.4800    -5.6200   -10.4100   -14.3900   -16.8000     1.5250     0.0704    -0.1390     5.9634     4.8000     4.8000     0.000
     31     6.0000      1.886     37.000   4401.000      2.000    98.4288   142.0306   -75.9387     0.4200    -1.0000    28.2560     0.0000     0.0000    30.7475    60.1316    -1.5000     0.0000     0.0000     0.0000     0.0000    17.0000     8.0000     8.0000    17.0000     0.0000     0.0000   142.0306   -75.9388     0.0000    -4.2998    -2.9995    -1.8994    -0.6005     0.4003     1.8994     2.7994     3.8002    31.3400    22.1100    13.8400     6.4800    -5.6200   -10.4100   -14.3900   -16.8000     1.5250     0.0757    -0.1496     5.9572     4.8000     4.8000     0.000
     32     6.5000      1.890     41.000   4401.000      2.000    98.4288   142.0306   -75.9387     0.4200    -1.0000    28.2560     0.0000     0.0000    30.7475    60.1316    -1.5000     0.0000     0.0000     0.0000     0.0000    17.0000     8.0000     8.0000    17.0000     0.0000     0.0000   142.0306   -75.9388     0.0000    -4.2998    -2.9995    -1.8994    -0.6005     0.4003     1.8994     2.7994     3.8002    31.3400    22.1100    13.8400     6.4800    -5.6200   -10.4100   -14.3900   -16.8000     1.5250     0.0810    -0.1602     5.9506     4.8000     4.8000     0.000
     33     7.0000      1.855     24.000   4401.000      2.000    98.4288   142.0306   -75.9387     0.4200    -1.0000    28.2560     0.0000     0.0000    30.7475    60.1316    -1.5000     0.0000     0.0000     0.0000     0.0000    17.0000     8.0000     8.0000    17.0000     0.0000     0.0000   142.0306   -75.9388     0.0000    -4.2998    -2.9995    -1.8994    -0.6005     0.4003     1.8994     2.7994     3.8002    31.3400    22.1100    13.8400     6.4800    -5.6200   -10.4100   -14.3900   -16.8000     1.5250     0.0863    -0.1709     5.9436     4.8000     4.8000     0.000
# Sum of Counts = 79953
# Center of Mass = -0.817574+/-0.010158
# Full Width Half-Maximum = 5.258512+/-0.017690
# 8:53:07 PM  3/11/2025   scan completed.
