# scan = 182
# date = 3/12/2025
# time = 1:51:05 AM
# proposal = 35030
# experiment = CTAX Instrumental resolution benchmarking
# experiment_number = 445
# command = th2th 4 -4 0.2
# builtin_command = scan s2 @(s2)+4 @(s2)+-4 0.200000 s1 @(s1)+(4/2) @(s1)+(-4/2) 0.100000
# users = Tao Hong, Tao Hong, Bing Li
# local_contact = Tao Hong
# scan_title = (105) scans-hori-focusing
# monochromator = PG002
# analyzer = Pg002
# sense = -+-
# collimation = 48-40-40-120
# samplename = LaN
# sampletype = crystal
# samplemosaic = 30.000000
# latticeconstants = 5.058628,5.058628,24.728465,90.000000,90.000000,120.000000
# ubmatrix = -0.002928,0.001986,-0.040430,-0.228168,-0.119258,0.000500,-0.005924,0.194622,0.000719
# mode = 0
# plane_normal = 0.017452,-0.026173,0.999505
# ubconf = UB10Mar2025_114214AM.ini
# preset_type = normal 
# preset_channel = mcu
# preset_value = 10.000000
# def_x = s2
# def_y = detector
# col_headers = 
#   Pt.         s2         s1       time   detector    monitor        mcu focal_length         m1         m2       marc     mtrans     mfocus   vti_temp  smpl_temp        sgl        sgu        bbb        bbl        bbr        bbt        bab        bal        bar        bat        stl        stu         a1         a2     afocus        qm1        qm2        qm3        qm4        qm5        qm6        qm7        qm8        xm1        xm2        xm3        xm4        xm5        xm6        xm7        xm8          q          h          k          l         ei         ef          e
      1    82.0166    -6.7425      9.441     85.000  22001.000     10.000    98.4288   142.0306   -75.9387     0.4200    -1.0000    28.2560     0.0000     0.0000    -1.0000    -1.5000     0.0000     0.0000     0.0000     0.0000    17.0000     8.0000     8.0000    17.0000     0.0000     0.0000   142.0306   -75.9388     0.0000    -4.2998    -2.9995    -1.8994    -0.6005     0.4003     1.8994     2.7994     3.8002    31.3400    22.1100    13.8400     6.4800    -5.6200   -10.4100   -14.3900   -16.8000     1.9974     1.0428    -0.0000     5.2103     4.8000     4.8000     0.000
      2    81.8166    -6.8450      9.341     74.000  22001.000     10.000    98.4288   142.0306   -75.9387     0.4200    -1.0000    28.2560     0.0000     0.0000    -1.0000    -1.5000     0.0000     0.0000     0.0000     0.0000    17.0000     8.0000     8.0000    17.0000     0.0000     0.0000   142.0306   -75.9388     0.0000    -4.2998    -2.9995    -1.8994    -0.6005     0.4003     1.8994     2.7994     3.8002    31.3400    22.1100    13.8400     6.4800    -5.6200   -10.4100   -14.3900   -16.8000     1.9934     1.0407     0.0000     5.1996     4.8000     4.8000     0.000
      3    81.6166    -6.9425      9.350     80.000  22001.000     10.000    98.4288   142.0306   -75.9387     0.4200    -1.0000    28.2560     0.0000     0.0000    -1.0000    -1.5000     0.0000     0.0000     0.0000     0.0000    17.0000     8.0000     8.0000    17.0000     0.0000     0.0000   142.0306   -75.9388     0.0000    -4.2998    -2.9995    -1.8994    -0.6005     0.4003     1.8994     2.7994     3.8002    31.3400    22.1100    13.8400     6.4800    -5.6200   -10.4100   -14.3900   -16.8000     1.9893     1.0386     0.0000     5.1893     4.8000     4.8000     0.000
      4    81.4166    -7.0425      9.466     86.000  22001.000     10.000    98.4288   142.0306   -75.9387     0.4200    -1.0000    28.2560     0.0000     0.0000    -1.0000    -1.5000     0.0000     0.0000     0.0000     0.0000    17.0000     8.0000     8.0000    17.0000     0.0000     0.0000   142.0306   -75.9388     0.0000    -4.2998    -2.9995    -1.8994    -0.6005     0.4003     1.8994     2.7994     3.8002    31.3400    22.1100    13.8400     6.4800    -5.6200   -10.4100   -14.3900   -16.8000     1.9853     1.0365     0.0000     5.1788     4.8000     4.8000     0.000
      5    81.2166    -7.1475      9.369     67.000  22001.000     10.000    98.4288   142.0306   -75.9387     0.4200    -1.0000    28.2560     0.0000     0.0000    -1.0000    -1.5000     0.0000     0.0000     0.0000     0.0000    17.0000     8.0000     8.0000    17.0000     0.0000     0.0000   142.0306   -75.9388     0.0000    -4.2998    -2.9995    -1.8994    -0.6005     0.4003     1.8994     2.7994     3.8002    31.3400    22.1100    13.8400     6.4800    -5.6200   -10.4100   -14.3900   -16.8000     1.9813     1.0345    -0.0000     5.1678     4.8000     4.8000     0.000
      6    81.0166    -7.2400      9.396     82.000  22001.000     10.000    98.4288   142.0306   -75.9387     0.4200    -1.0000    28.2560     0.0000     0.0000    -1.0000    -1.5000     0.0000     0.0000     0.0000     0.0000    17.0000     8.0000     8.0000    17.0000     0.0000     0.0000   142.0306   -75.9388     0.0000    -4.2998    -2.9995    -1.8994    -0.6005     0.4003     1.8994     2.7994     3.8002    31.3400    22.1100    13.8400     6.4800    -5.6200   -10.4100   -14.3900   -16.8000     1.9772     1.0323     0.0000     5.1580     4.8000     4.8000     0.000
      7    80.8166    -7.3400      9.268     87.000  22001.000     10.000    98.4288   142.0306   -75.9387     0.4200    -1.0000    28.2560     0.0000     0.0000    -1.0000    -1.5000     0.0000     0.0000     0.0000     0.0000    17.0000     8.0000     8.0000    17.0000     0.0000     0.0000   142.0306   -75.9388     0.0000    -4.2998    -2.9995    -1.8994    -0.6005     0.4003     1.8994     2.7994     3.8002    31.3400    22.1100    13.8400     6.4800    -5.6200   -10.4100   -14.3900   -16.8000     1.9732     1.0301     0.0000     5.1475     4.8000     4.8000     0.000
      8    80.6166    -7.4400      9.248     93.000  22001.000     10.000    98.4288   142.0306   -75.9387     0.4200    -1.0000    28.2560     0.0000     0.0000    -1.0000    -1.5000     0.0000     0.0000     0.0000     0.0000    17.0000     8.0000     8.0000    17.0000     0.0000     0.0000   142.0306   -75.9388     0.0000    -4.2998    -2.9995    -1.8994    -0.6005     0.4003     1.8994     2.7994     3.8002    31.3400    22.1100    13.8400     6.4800    -5.6200   -10.4100   -14.3900   -16.8000     1.9692     1.0280    -0.0000     5.1369     4.8000     4.8000     0.000
      9    80.4166    -7.5425      9.468     86.000  22001.000     10.000    98.4288   142.0306   -75.9387     0.4200    -1.0000    28.2560     0.0000     0.0000    -1.0000    -1.5000     0.0000     0.0000     0.0000     0.0000    17.0000     8.0000     8.0000    17.0000     0.0000     0.0000   142.0306   -75.9388     0.0000    -4.2998    -2.9995    -1.8994    -0.6005     0.4003     1.8994     2.7994     3.8002    31.3400    22.1100    13.8400     6.4800    -5.6200   -10.4100   -14.3900   -16.8000     1.9651     1.0260     0.0000     5.1261     4.8000     4.8000     0.000
     10    80.2166    -7.6425      9.468     95.000  22001.000     10.000    98.4288   142.0306   -75.9387     0.4200    -1.0000    28.2560     0.0000     0.0000    -1.0000    -1.5000     0.0000     0.0000     0.0000     0.0000    17.0000     8.0000     8.0000    17.0000     0.0000     0.0000   142.0306   -75.9388     0.0000    -4.2998    -2.9995    -1.8994    -0.6005     0.4003     1.8994     2.7994     3.8002    31.3400    22.1100    13.8400     6.4800    -5.6200   -10.4100   -14.3900   -16.8000     1.9610     1.0238     0.0000     5.1155     4.8000     4.8000     0.000
     11    80.0166    -7.7400      9.339     91.000  22001.000     10.000    98.4288   142.0306   -75.9387     0.4200    -1.0000    28.2560     0.0000     0.0000    -1.0000    -1.5000     0.0000     0.0000     0.0000     0.0000    17.0000     8.0000     8.0000    17.0000     0.0000     0.0000   142.0306   -75.9388     0.0000    -4.2998    -2.9995    -1.8994    -0.6005     0.4003     1.8994     2.7994     3.8002    31.3400    22.1100    13.8400     6.4800    -5.6200   -10.4100   -14.3900   -16.8000     1.9570     1.0217    -0.0000     5.1052     4.8000     4.8000     0.000
     12    79.8166    -7.8425      9.446     95.000  22001.000     10.000    98.4288   142.0306   -75.9387     0.4200    -1.0000    28.2560     0.0000     0.0000    -1.0000    -1.5000     0.0000     0.0000     0.0000     0.0000    17.0000     8.0000     8.0000    17.0000     0.0000     0.0000   142.0306   -75.9388     0.0000    -4.2998    -2.9995    -1.8994    -0.6005     0.4003     1.8994     2.7994     3.8002    31.3400    22.1100    13.8400     6.4800    -5.6200   -10.4100   -14.3900   -16.8000     1.9529     1.0196    -0.0000     5.0943     4.8000     4.8000     0.000
     13    79.6166    -7.9425      9.478     99.000  22001.000     10.000    98.4288   142.0306   -75.9387     0.4200    -1.0000    28.2560     0.0000     0.0000    -1.0000    -1.5000     0.0000     0.0000     0.0000     0.0000    17.0000     8.0000     8.0000    17.0000     0.0000     0.0000   142.0306   -75.9388     0.0000    -4.2998    -2.9995    -1.8994    -0.6005     0.4003     1.8994     2.7994     3.8002    31.3400    22.1100    13.8400     6.4800    -5.6200   -10.4100   -14.3900   -16.8000     1.9488     1.0175     0.0000     5.0837     4.8000     4.8000     0.000
     14    79.4166    -8.0425      9.452     86.000  22001.000     10.000    98.4288   142.0306   -75.9387     0.4200    -1.0000    28.2560     0.0000     0.0000    -1.0000    -1.5000     0.0000     0.0000     0.0000     0.0000    17.0000     8.0000     8.0000    17.0000     0.0000     0.0000   142.0306   -75.9388     0.0000    -4.2998    -2.9995    -1.8994    -0.6005     0.4003     1.8994     2.7994     3.8002    31.3400    22.1100    13.8400     6.4800    -5.6200   -10.4100   -14.3900   -16.8000     1.9447     1.0153    -0.0000     5.0730     4.8000     4.8000     0.000
     15    79.2166    -8.1425      9.357    111.000  22001.000     10.000    98.4288   142.0306   -75.9387     0.4200    -1.0000    28.2560     0.0000     0.0000    -1.0000    -1.5000     0.0000     0.0000     0.0000     0.0000    17.0000     8.0000     8.0000    17.0000     0.0000     0.0000   142.0306   -75.9388     0.0000    -4.2998    -2.9995    -1.8994    -0.6005     0.4003     1.8994     2.7994     3.8002    31.3400    22.1100    13.8400     6.4800    -5.6200   -10.4100   -14.3900   -16.8000     1.9406     1.0132     0.0000     5.0623     4.8000     4.8000     0.000
     16    79.0166    -8.2400      9.438     77.000  22001.000     10.000    98.4288   142.0306   -75.9387     0.4200    -1.0000    28.2560     0.0000     0.0000    -1.0000    -1.5000     0.0000     0.0000     0.0000     0.0000    17.0000     8.0000     8.0000    17.0000     0.0000     0.0000   142.0306   -75.9388     0.0000    -4.2998    -2.9995    -1.8994    -0.6005     0.4003     1.8994     2.7994     3.8002    31.3400    22.1100    13.8400     6.4800    -5.6200   -10.4100   -14.3900   -16.8000     1.9366     1.0110    -0.0000     5.0519     4.8000     4.8000     0.000
     17    78.8166    -8.3425      9.416     96.000  22001.000     10.000    98.4288   142.0306   -75.9387     0.4200    -1.0000    28.2560     0.0000     0.0000    -1.0000    -1.5000     0.0000     0.0000     0.0000     0.0000    17.0000     8.0000     8.0000    17.0000     0.0000     0.0000   142.0306   -75.9388     0.0000    -4.2998    -2.9995    -1.8994    -0.6005     0.4003     1.8994     2.7994     3.8002    31.3400    22.1100    13.8400     6.4800    -5.6200   -10.4100   -14.3900   -16.8000     1.9325     1.0089     0.0000     5.0409     4.8000     4.8000     0.000
     18    78.6166    -8.4425      9.468    119.000  22001.000     10.000    98.4288   142.0306   -75.9387     0.4200    -1.0000    28.2560     0.0000     0.0000    -1.0000    -1.5000     0.0000     0.0000     0.0000     0.0000    17.0000     8.0000     8.0000    17.0000     0.0000     0.0000   142.0306   -75.9388     0.0000    -4.2998    -2.9995    -1.8994    -0.6005     0.4003     1.8994     2.7994     3.8002    31.3400    22.1100    13.8400     6.4800    -5.6200   -10.4100   -14.3900   -16.8000     1.9283     1.0068     0.0000     5.0302     4.8000     4.8000     0.000
     19    78.4166    -8.5425      9.382    131.000  22001.000     10.000    98.4288   142.0306   -75.9387     0.4200    -1.0000    28.2560     0.0000     0.0000    -1.0000    -1.5000     0.0000     0.0000     0.0000     0.0000    17.0000     8.0000     8.0000    17.0000     0.0000     0.0000   142.0306   -75.9388     0.0000    -4.2998    -2.9995    -1.8994    -0.6005     0.4003     1.8994     2.7994     3.8002    31.3400    22.1100    13.8400     6.4800    -5.6200   -10.4100   -14.3900   -16.8000     1.9242     1.0046     0.0000     5.0195     4.8000     4.8000     0.000
     20    78.2166    -8.6425      9.369    176.000  22001.000     10.000    98.4288   142.0306   -75.9387     0.4200    -1.0000    28.2560     0.0000     0.0000    -1.0000    -1.5000     0.0000     0.0000     0.0000     0.0000    17.0000     8.0000     8.0000    17.0000     0.0000     0.0000   142.0306   -75.9388     0.0000    -4.2998    -2.9995    -1.8994    -0.6005     0.4003     1.8994     2.7994     3.8002    31.3400    22.1100    13.8400     6.4800    -5.6200   -10.4100   -14.3900   -16.8000     1.9201     1.0025    -0.0000     5.0088     4.8000     4.8000     0.000
     21    78.0166    -8.7400      9.352    316.000  22001.000     10.000    98.4288   142.0306   -75.9387     0.4200    -1.0000    28.2560     0.0000     0.0000    -1.0000    -1.5000     0.0000     0.0000     0.0000     0.0000    17.0000     8.0000     8.0000    17.0000     0.0000     0.0000   142.0306   -75.9388     0.0000    -4.2998    -2.9995    -1.8994    -0.6005     0.4003     1.8994     2.7994     3.8002    31.3400    22.1100    13.8400     6.4800    -5.6200   -10.4100   -14.3900   -16.8000     1.9160     1.0003    -0.0000     4.9982     4.8000     4.8000     0.000
     22    77.8166    -8.8425      9.357    434.000  22001.000     10.000    98.4288   142.0306   -75.9387     0.4200    -1.0000    28.2560     0.0000     0.0000    -1.0000    -1.5000     0.0000     0.0000     0.0000     0.0000    17.0000     8.0000     8.0000    17.0000     0.0000     0.0000   142.0306   -75.9388     0.0000    -4.2998    -2.9995    -1.8994    -0.6005     0.4003     1.8994     2.7994     3.8002    31.3400    22.1100    13.8400     6.4800    -5.6200   -10.4100   -14.3900   -16.8000     1.9119     0.9982     0.0000     4.9872     4.8000     4.8000     0.000
     23    77.6166    -8.9450      9.300    396.000  22001.000     10.000    98.4288   142.0306   -75.9387     0.4200    -1.0000    28.2560     0.0000     0.0000    -1.0000    -1.5000     0.0000     0.0000     0.0000     0.0000    17.0000     8.0000     8.0000    17.0000     0.0000     0.0000   142.0306   -75.9388     0.0000    -4.2998    -2.9995    -1.8994    -0.6005     0.4003     1.8994     2.7994     3.8002    31.3400    22.1100    13.8400     6.4800    -5.6200   -10.4100   -14.3900   -16.8000     1.9077     0.9960    -0.0000     4.9762     4.8000     4.8000     0.000
     24    77.4166    -9.0400      9.331    276.000  22001.000     10.000    98.4288   142.0306   -75.9387     0.4200    -1.0000    28.2560     0.0000     0.0000    -1.0000    -1.5000     0.0000     0.0000     0.0000     0.0000    17.0000     8.0000     8.0000    17.0000     0.0000     0.0000   142.0306   -75.9388     0.0000    -4.2998    -2.9995    -1.8994    -0.6005     0.4003     1.8994     2.7994     3.8002    31.3400    22.1100    13.8400     6.4800    -5.6200   -10.4100   -14.3900   -16.8000     1.9036     0.9938    -0.0000     4.9659     4.8000     4.8000     0.000
     25    77.2166    -9.1450      9.367    146.000  22001.000     10.000    98.4288   142.0306   -75.9387     0.4200    -1.0000    28.2560     0.0000     0.0000    -1.0000    -1.5000     0.0000     0.0000     0.0000     0.0000    17.0000     8.0000     8.0000    17.0000     0.0000     0.0000   142.0306   -75.9388     0.0000    -4.2998    -2.9995    -1.8994    -0.6005     0.4003     1.8994     2.7994     3.8002    31.3400    22.1100    13.8400     6.4800    -5.6200   -10.4100   -14.3900   -16.8000     1.8994     0.9917     0.0000     4.9545     4.8000     4.8000     0.000
     26    77.0166    -9.2400      9.264     94.000  22001.000     10.000    98.4288   142.0306   -75.9387     0.4200    -1.0000    28.2560     0.0000     0.0000    -1.0000    -1.5000     0.0000     0.0000     0.0000     0.0000    17.0000     8.0000     8.0000    17.0000     0.0000     0.0000   142.0306   -75.9388     0.0000    -4.2998    -2.9995    -1.8994    -0.6005     0.4003     1.8994     2.7994     3.8002    31.3400    22.1100    13.8400     6.4800    -5.6200   -10.4100   -14.3900   -16.8000     1.8953     0.9895     0.0000     4.9442     4.8000     4.8000     0.000
     27    76.8166    -9.3425      9.355     96.000  22001.000     10.000    98.4288   142.0306   -75.9387     0.4200    -1.0000    28.2560     0.0000     0.0000    -1.0000    -1.5000     0.0000     0.0000     0.0000     0.0000    17.0000     8.0000     8.0000    17.0000     0.0000     0.0000   142.0306   -75.9388     0.0000    -4.2998    -2.9995    -1.8994    -0.6005     0.4003     1.8994     2.7994     3.8002    31.3400    22.1100    13.8400     6.4800    -5.6200   -10.4100   -14.3900   -16.8000     1.8911     0.9873    -0.0000     4.9331     4.8000     4.8000     0.000
     28    76.6166    -9.4425      9.338     79.000  22001.000     10.000    98.4288   142.0306   -75.9387     0.4200    -1.0000    28.2560     0.0000     0.0000    -1.0000    -1.5000     0.0000     0.0000     0.0000     0.0000    17.0000     8.0000     8.0000    17.0000     0.0000     0.0000   142.0306   -75.9388     0.0000    -4.2998    -2.9995    -1.8994    -0.6005     0.4003     1.8994     2.7994     3.8002    31.3400    22.1100    13.8400     6.4800    -5.6200   -10.4100   -14.3900   -16.8000     1.8869     0.9852     0.0000     4.9222     4.8000     4.8000     0.000
     29    76.4166    -9.5425      9.435     93.000  22001.000     10.000    98.4288   142.0306   -75.9387     0.4200    -1.0000    28.2560     0.0000     0.0000    -1.0000    -1.5000     0.0000     0.0000     0.0000     0.0000    17.0000     8.0000     8.0000    17.0000     0.0000     0.0000   142.0306   -75.9388     0.0000    -4.2998    -2.9995    -1.8994    -0.6005     0.4003     1.8994     2.7994     3.8002    31.3400    22.1100    13.8400     6.4800    -5.6200   -10.4100   -14.3900   -16.8000     1.8828     0.9830     0.0000     4.9114     4.8000     4.8000     0.000
     30    76.2166    -9.6400      9.360     90.000  22001.000     10.000    98.4288   142.0306   -75.9387     0.4200    -1.0000    28.2560     0.0000     0.0000    -1.0000    -1.5000     0.0000     0.0000     0.0000     0.0000    17.0000     8.0000     8.0000    17.0000     0.0000     0.0000   142.0306   -75.9388     0.0000    -4.2998    -2.9995    -1.8994    -0.6005     0.4003     1.8994     2.7994     3.8002    31.3400    22.1100    13.8400     6.4800    -5.6200   -10.4100   -14.3900   -16.8000     1.8786     0.9808    -0.0000     4.9007     4.8000     4.8000     0.000
     31    76.0166    -9.7425      9.397     85.000  22001.000     10.000    98.4288   142.0306   -75.9387     0.4200    -1.0000    28.2560     0.0000     0.0000    -1.0000    -1.5000     0.0000     0.0000     0.0000     0.0000    17.0000     8.0000     8.0000    17.0000     0.0000     0.0000   142.0306   -75.9388     0.0000    -4.2998    -2.9995    -1.8994    -0.6005     0.4003     1.8994     2.7994     3.8002    31.3400    22.1100    13.8400     6.4800    -5.6200   -10.4100   -14.3900   -16.8000     1.8744     0.9786    -0.0000     4.8895     4.8000     4.8000     0.000
     32    75.8166    -9.8425      9.427     74.000  22001.000     10.000    98.4288   142.0306   -75.9387     0.4200    -1.0000    28.2560     0.0000     0.0000    -1.0000    -1.5000     0.0000     0.0000     0.0000     0.0000    17.0000     8.0000     8.0000    17.0000     0.0000     0.0000   142.0306   -75.9388     0.0000    -4.2998    -2.9995    -1.8994    -0.6005     0.4003     1.8994     2.7994     3.8002    31.3400    22.1100    13.8400     6.4800    -5.6200   -10.4100   -14.3900   -16.8000     1.8702     0.9764     0.0000     4.8786     4.8000     4.8000     0.000
     33    75.6166    -9.9425      9.419     81.000  22001.000     10.000    98.4288   142.0306   -75.9387     0.4200    -1.0000    28.2560     0.0000     0.0000    -1.0000    -1.5000     0.0000     0.0000     0.0000     0.0000    17.0000     8.0000     8.0000    17.0000     0.0000     0.0000   142.0306   -75.9388     0.0000    -4.2998    -2.9995    -1.8994    -0.6005     0.4003     1.8994     2.7994     3.8002    31.3400    22.1100    13.8400     6.4800    -5.6200   -10.4100   -14.3900   -16.8000     1.8660     0.9742    -0.0000     4.8677     4.8000     4.8000     0.000
     34    75.4166   -10.0425      9.365     69.000  22001.000     10.000    98.4288   142.0306   -75.9387     0.4200    -1.0000    28.2560     0.0000     0.0000    -1.0000    -1.5000     0.0000     0.0000     0.0000     0.0000    17.0000     8.0000     8.0000    17.0000     0.0000     0.0000   142.0306   -75.9388     0.0000    -4.2998    -2.9995    -1.8994    -0.6005     0.4003     1.8994     2.7994     3.8002    31.3400    22.1100    13.8400     6.4800    -5.6200   -10.4100   -14.3900   -16.8000     1.8618     0.9720    -0.0000     4.8567     4.8000     4.8000     0.000
     35    75.2166   -10.1425      9.405     75.000  22001.000     10.000    98.4288   142.0306   -75.9387     0.4200    -1.0000    28.2560     0.0000     0.0000    -1.0000    -1.5000     0.0000     0.0000     0.0000     0.0000    17.0000     8.0000     8.0000    17.0000     0.0000     0.0000   142.0306   -75.9388     0.0000    -4.2998    -2.9995    -1.8994    -0.6005     0.4003     1.8994     2.7994     3.8002    31.3400    22.1100    13.8400     6.4800    -5.6200   -10.4100   -14.3900   -16.8000     1.8576     0.9698     0.0000     4.8457     4.8000     4.8000     0.000
     36    75.0166   -10.2425      9.431     84.000  22001.000     10.000    98.4288   142.0306   -75.9387     0.4200    -1.0000    28.2560     0.0000     0.0000    -1.0000    -1.5000     0.0000     0.0000     0.0000     0.0000    17.0000     8.0000     8.0000    17.0000     0.0000     0.0000   142.0306   -75.9388     0.0000    -4.2998    -2.9995    -1.8994    -0.6005     0.4003     1.8994     2.7994     3.8002    31.3400    22.1100    13.8400     6.4800    -5.6200   -10.4100   -14.3900   -16.8000     1.8534     0.9676     0.0000     4.8348     4.8000     4.8000     0.000
     37    74.8166   -10.3425      9.473     74.000  22001.000     10.000    98.4288   142.0306   -75.9387     0.4200    -1.0000    28.2560     0.0000     0.0000    -1.0000    -1.5000     0.0000     0.0000     0.0000     0.0000    17.0000     8.0000     8.0000    17.0000     0.0000     0.0000   142.0306   -75.9388     0.0000    -4.2998    -2.9995    -1.8994    -0.6005     0.4003     1.8994     2.7994     3.8002    31.3400    22.1100    13.8400     6.4800    -5.6200   -10.4100   -14.3900   -16.8000     1.8492     0.9654    -0.0000     4.8238     4.8000     4.8000     0.000
     38    74.6166   -10.4450      9.364     75.000  22001.000     10.000    98.4288   142.0306   -75.9387     0.4200    -1.0000    28.2560     0.0000     0.0000    -1.0000    -1.5000     0.0000     0.0000     0.0000     0.0000    17.0000     8.0000     8.0000    17.0000     0.0000     0.0000   142.0306   -75.9388     0.0000    -4.2998    -2.9995    -1.8994    -0.6005     0.4003     1.8994     2.7994     3.8002    31.3400    22.1100    13.8400     6.4800    -5.6200   -10.4100   -14.3900   -16.8000     1.8450     0.9633    -0.0000     4.8125     4.8000     4.8000     0.000
     39    74.4166   -10.5400      9.308     67.000  22001.000     10.000    98.4288   142.0306   -75.9387     0.4200    -1.0000    28.2560     0.0000     0.0000    -1.0000    -1.5000     0.0000     0.0000     0.0000     0.0000    17.0000     8.0000     8.0000    17.0000     0.0000     0.0000   142.0306   -75.9388     0.0000    -4.2998    -2.9995    -1.8994    -0.6005     0.4003     1.8994     2.7994     3.8002    31.3400    22.1100    13.8400     6.4800    -5.6200   -10.4100   -14.3900   -16.8000     1.8407     0.9610     0.0000     4.8019     4.8000     4.8000     0.000
     40    74.2166   -10.6425      9.379     85.000  22001.000     10.000    98.4288   142.0306   -75.9387     0.4200    -1.0000    28.2560     0.0000     0.0000    -1.0000    -1.5000     0.0000     0.0000     0.0000     0.0000    17.0000     8.0000     8.0000    17.0000     0.0000     0.0000   142.0306   -75.9388     0.0000    -4.2998    -2.9995    -1.8994    -0.6005     0.4003     1.8994     2.7994     3.8002    31.3400    22.1100    13.8400     6.4800    -5.6200   -10.4100   -14.3900   -16.8000     1.8365     0.9588    -0.0000     4.7907     4.8000     4.8000     0.000
     41    74.0166   -10.7400      9.427     80.000  22001.000     10.000    98.4288   142.0306   -75.9387     0.4200    -1.0000    28.2560     0.0000     0.0000    -1.0000    -1.5000     0.0000     0.0000     0.0000     0.0000    17.0000     8.0000     8.0000    17.0000     0.0000     0.0000   142.0306   -75.9388     0.0000    -4.2998    -2.9995    -1.8994    -0.6005     0.4003     1.8994     2.7994     3.8002    31.3400    22.1100    13.8400     6.4800    -5.6200   -10.4100   -14.3900   -16.8000     1.8323     0.9566     0.0000     4.7798     4.8000     4.8000     0.000
# Sum of Counts = 4785
# Center of Mass = 78.003601+/-1.594993
# Full Width Half-Maximum = 3.961946+/-0.427371
# 1:59:05 AM  3/12/2025   scan completed.
