# scan = 257
# date = 3/13/2025
# time = 5:58:07 AM
# proposal = 35030
# experiment = CTAX Instrumental resolution benchmarking
# experiment_number = 445
# command = scan h 0 k 0 l 4.5 3.5 0.01 e -0.4 preset mcu 5
# builtin_command = scan h 0 k 0 l 4.5 3.5 0.01 e -0.4 preset mcu 5
# users = Tao Hong, Tao Hong, Bing Li
# local_contact = Tao Hong
# scan_title = (00L) scan at E=-0.4 meV and hori-focusing
# monochromator = PG002
# analyzer = Pg002
# sense = -+-
# collimation = 48-40-40-120
# samplename = LaN
# sampletype = crystal
# samplemosaic = 30.000000
# latticeconstants = 5.058628,5.058628,24.728465,90.000000,90.000000,120.000000
# ubmatrix = -0.002928,0.001986,-0.040430,-0.228168,-0.119258,0.000500,-0.005924,0.194622,0.000719
# mode = 0
# plane_normal = 0.017452,-0.026173,0.999505
# ubconf = UB10Mar2025_114214AM.ini
# preset_type = normal 
# preset_channel = mcu
# preset_value = 5.000000
# def_x = l
# def_y = detector
# col_headers = 
#   Pt.          h          k          l          e       time   detector    monitor        mcu focal_length         m1         m2       marc     mtrans     mfocus   vti_temp  smpl_temp         s1         s2        sgl        sgu        bbb        bbl        bbr        bbt        bab        bal        bar        bat        stl        stu         a1         a2     afocus        qm1        qm2        qm3        qm4        qm5        qm6        qm7        qm8        xm1        xm2        xm3        xm4        xm5        xm6        xm7        xm8          q         ei         ef
      1     0.0000    -0.0000     4.5000    -0.4000      4.703      1.000  11001.000      5.000   102.8206   140.0142   -79.9715     0.4200    -1.0000    27.4160     0.0000     0.0000    20.2700    45.0724    -1.0000    -1.5000     0.0000     0.0000     0.0000     0.0000    17.0000     8.0000     8.0000    17.0000     0.0000     0.0000   142.0306   -75.9388     0.0000    -4.2998    -2.9995    -1.8994    -0.6005     0.4003     1.8994     2.7994     3.8002    31.3400    22.1100    13.8400     6.4800    -5.6200   -10.4100   -14.3900   -16.8000     1.1434     4.4000     4.800
      2    -0.0000    -0.0000     4.4900    -0.4000      4.800      1.000  11001.000      5.000   102.8206   140.0142   -79.9715     0.4200    -1.0000    27.4160     0.0000     0.0000    20.2125    44.9664    -1.0000    -1.5000     0.0000     0.0000     0.0000     0.0000    17.0000     8.0000     8.0000    17.0000     0.0000     0.0000   142.0306   -75.9388     0.0000    -4.2998    -2.9995    -1.8994    -0.6005     0.4003     1.8994     2.7994     3.8002    31.3400    22.1100    13.8400     6.4800    -5.6200   -10.4100   -14.3900   -16.8000     1.1409     4.4000     4.800
      3    -0.0000    -0.0000     4.4800    -0.4000      4.878      1.000  11001.000      5.000   102.8206   140.0142   -79.9715     0.4200    -1.0000    27.4160     0.0000     0.0000    20.1500    44.8604    -1.0000    -1.5000     0.0000     0.0000     0.0000     0.0000    17.0000     8.0000     8.0000    17.0000     0.0000     0.0000   142.0306   -75.9388     0.0000    -4.2998    -2.9995    -1.8994    -0.6005     0.4003     1.8994     2.7994     3.8002    31.3400    22.1100    13.8400     6.4800    -5.6200   -10.4100   -14.3900   -16.8000     1.1383     4.4000     4.800
      4     0.0000    -0.0000     4.4700    -0.4000      4.718      2.000  11001.000      5.000   102.8206   140.0142   -79.9715     0.4200    -1.0000    27.4160     0.0000     0.0000    20.0875    44.7545    -1.0000    -1.5000     0.0000     0.0000     0.0000     0.0000    17.0000     8.0000     8.0000    17.0000     0.0000     0.0000   142.0306   -75.9388     0.0000    -4.2998    -2.9995    -1.8994    -0.6005     0.4003     1.8994     2.7994     3.8002    31.3400    22.1100    13.8400     6.4800    -5.6200   -10.4100   -14.3900   -16.8000     1.1358     4.4000     4.800
      5     0.0000    -0.0000     4.4600    -0.4000      4.819      1.000  11001.000      5.000   102.8206   140.0142   -79.9715     0.4200    -1.0000    27.4160     0.0000     0.0000    20.0250    44.6486    -1.0000    -1.5000     0.0000     0.0000     0.0000     0.0000    17.0000     8.0000     8.0000    17.0000     0.0000     0.0000   142.0306   -75.9388     0.0000    -4.2998    -2.9995    -1.8994    -0.6005     0.4003     1.8994     2.7994     3.8002    31.3400    22.1100    13.8400     6.4800    -5.6200   -10.4100   -14.3900   -16.8000     1.1332     4.4000     4.800
      6    -0.0000    -0.0000     4.4500    -0.4000      4.768      2.000  11001.000      5.000   102.8206   140.0142   -79.9715     0.4200    -1.0000    27.4160     0.0000     0.0000    19.9700    44.5428    -1.0000    -1.5000     0.0000     0.0000     0.0000     0.0000    17.0000     8.0000     8.0000    17.0000     0.0000     0.0000   142.0306   -75.9388     0.0000    -4.2998    -2.9995    -1.8994    -0.6005     0.4003     1.8994     2.7994     3.8002    31.3400    22.1100    13.8400     6.4800    -5.6200   -10.4100   -14.3900   -16.8000     1.1307     4.4000     4.800
      7     0.0000    -0.0000     4.4400    -0.4000      4.846      4.000  11001.000      5.000   102.8206   140.0142   -79.9715     0.4200    -1.0000    27.4160     0.0000     0.0000    19.9025    44.4370    -1.0000    -1.5000     0.0000     0.0000     0.0000     0.0000    17.0000     8.0000     8.0000    17.0000     0.0000     0.0000   142.0306   -75.9388     0.0000    -4.2998    -2.9995    -1.8994    -0.6005     0.4003     1.8994     2.7994     3.8002    31.3400    22.1100    13.8400     6.4800    -5.6200   -10.4100   -14.3900   -16.8000     1.1281     4.4000     4.800
      8    -0.0000    -0.0000     4.4300    -0.4000      4.697      1.000  11001.000      5.000   102.8206   140.0142   -79.9715     0.4200    -1.0000    27.4160     0.0000     0.0000    19.8475    44.3313    -1.0000    -1.5000     0.0000     0.0000     0.0000     0.0000    17.0000     8.0000     8.0000    17.0000     0.0000     0.0000   142.0306   -75.9388     0.0000    -4.2998    -2.9995    -1.8994    -0.6005     0.4003     1.8994     2.7994     3.8002    31.3400    22.1100    13.8400     6.4800    -5.6200   -10.4100   -14.3900   -16.8000     1.1256     4.4000     4.800
      9    -0.0000    -0.0000     4.4200    -0.4000      4.840      5.000  11001.000      5.000   102.8206   140.0142   -79.9715     0.4200    -1.0000    27.4160     0.0000     0.0000    19.7850    44.2256    -1.0000    -1.5000     0.0000     0.0000     0.0000     0.0000    17.0000     8.0000     8.0000    17.0000     0.0000     0.0000   142.0306   -75.9388     0.0000    -4.2998    -2.9995    -1.8994    -0.6005     0.4003     1.8994     2.7994     3.8002    31.3400    22.1100    13.8400     6.4800    -5.6200   -10.4100   -14.3900   -16.8000     1.1231     4.4000     4.800
     10     0.0000    -0.0000     4.4100    -0.4000      4.827      2.000  11001.000      5.000   102.8206   140.0142   -79.9715     0.4200    -1.0000    27.4160     0.0000     0.0000    19.7225    44.1199    -1.0000    -1.5000     0.0000     0.0000     0.0000     0.0000    17.0000     8.0000     8.0000    17.0000     0.0000     0.0000   142.0306   -75.9388     0.0000    -4.2998    -2.9995    -1.8994    -0.6005     0.4003     1.8994     2.7994     3.8002    31.3400    22.1100    13.8400     6.4800    -5.6200   -10.4100   -14.3900   -16.8000     1.1205     4.4000     4.800
     11    -0.0000    -0.0000     4.4000    -0.4000      4.849      2.000  11001.000      5.000   102.8206   140.0142   -79.9715     0.4200    -1.0000    27.4160     0.0000     0.0000    19.6625    44.0143    -1.0000    -1.5000     0.0000     0.0000     0.0000     0.0000    17.0000     8.0000     8.0000    17.0000     0.0000     0.0000   142.0306   -75.9388     0.0000    -4.2998    -2.9995    -1.8994    -0.6005     0.4003     1.8994     2.7994     3.8002    31.3400    22.1100    13.8400     6.4800    -5.6200   -10.4100   -14.3900   -16.8000     1.1180     4.4000     4.800
     12     0.0000    -0.0000     4.3900    -0.4000      4.801      0.000  11001.000      5.000   102.8206   140.0142   -79.9715     0.4200    -1.0000    27.4160     0.0000     0.0000    19.6000    43.9087    -1.0000    -1.5000     0.0000     0.0000     0.0000     0.0000    17.0000     8.0000     8.0000    17.0000     0.0000     0.0000   142.0306   -75.9388     0.0000    -4.2998    -2.9995    -1.8994    -0.6005     0.4003     1.8994     2.7994     3.8002    31.3400    22.1100    13.8400     6.4800    -5.6200   -10.4100   -14.3900   -16.8000     1.1154     4.4000     4.800
     13     0.0000    -0.0000     4.3800    -0.4000      4.806      0.000  11001.000      5.000   102.8206   140.0142   -79.9715     0.4200    -1.0000    27.4160     0.0000     0.0000    19.5375    43.8031    -1.0000    -1.5000     0.0000     0.0000     0.0000     0.0000    17.0000     8.0000     8.0000    17.0000     0.0000     0.0000   142.0306   -75.9388     0.0000    -4.2998    -2.9995    -1.8994    -0.6005     0.4003     1.8994     2.7994     3.8002    31.3400    22.1100    13.8400     6.4800    -5.6200   -10.4100   -14.3900   -16.8000     1.1129     4.4000     4.800
     14    -0.0000    -0.0000     4.3700    -0.4000      4.780      3.000  11001.000      5.000   102.8206   140.0142   -79.9715     0.4200    -1.0000    27.4160     0.0000     0.0000    19.4825    43.6976    -1.0000    -1.5000     0.0000     0.0000     0.0000     0.0000    17.0000     8.0000     8.0000    17.0000     0.0000     0.0000   142.0306   -75.9388     0.0000    -4.2998    -2.9995    -1.8994    -0.6005     0.4003     1.8994     2.7994     3.8002    31.3400    22.1100    13.8400     6.4800    -5.6200   -10.4100   -14.3900   -16.8000     1.1104     4.4000     4.800
     15     0.0000    -0.0000     4.3600    -0.4000      4.849      3.000  11001.000      5.000   102.8206   140.0142   -79.9715     0.4200    -1.0000    27.4160     0.0000     0.0000    19.4175    43.5921    -1.0000    -1.5000     0.0000     0.0000     0.0000     0.0000    17.0000     8.0000     8.0000    17.0000     0.0000     0.0000   142.0306   -75.9388     0.0000    -4.2998    -2.9995    -1.8994    -0.6005     0.4003     1.8994     2.7994     3.8002    31.3400    22.1100    13.8400     6.4800    -5.6200   -10.4100   -14.3900   -16.8000     1.1078     4.4000     4.800
     16     0.0000    -0.0000     4.3500    -0.4000      4.838      0.000  11001.000      5.000   102.8206   140.0142   -79.9715     0.4200    -1.0000    27.4160     0.0000     0.0000    19.3550    43.4867    -1.0000    -1.5000     0.0000     0.0000     0.0000     0.0000    17.0000     8.0000     8.0000    17.0000     0.0000     0.0000   142.0306   -75.9388     0.0000    -4.2998    -2.9995    -1.8994    -0.6005     0.4003     1.8994     2.7994     3.8002    31.3400    22.1100    13.8400     6.4800    -5.6200   -10.4100   -14.3900   -16.8000     1.1053     4.4000     4.800
     17    -0.0000    -0.0000     4.3400    -0.4000      4.852      2.000  11001.000      5.000   102.8206   140.0142   -79.9715     0.4200    -1.0000    27.4160     0.0000     0.0000    19.2975    43.3813    -1.0000    -1.5000     0.0000     0.0000     0.0000     0.0000    17.0000     8.0000     8.0000    17.0000     0.0000     0.0000   142.0306   -75.9388     0.0000    -4.2998    -2.9995    -1.8994    -0.6005     0.4003     1.8994     2.7994     3.8002    31.3400    22.1100    13.8400     6.4800    -5.6200   -10.4100   -14.3900   -16.8000     1.1027     4.4000     4.800
     18    -0.0000    -0.0000     4.3300    -0.4000      4.798      6.000  11001.000      5.000   102.8206   140.0142   -79.9715     0.4200    -1.0000    27.4160     0.0000     0.0000    19.2350    43.2759    -1.0000    -1.5000     0.0000     0.0000     0.0000     0.0000    17.0000     8.0000     8.0000    17.0000     0.0000     0.0000   142.0306   -75.9388     0.0000    -4.2998    -2.9995    -1.8994    -0.6005     0.4003     1.8994     2.7994     3.8002    31.3400    22.1100    13.8400     6.4800    -5.6200   -10.4100   -14.3900   -16.8000     1.1002     4.4000     4.800
     19    -0.0000    -0.0000     4.3200    -0.4000      4.866      2.000  11001.000      5.000   102.8206   140.0142   -79.9715     0.4200    -1.0000    27.4160     0.0000     0.0000    19.1750    43.1706    -1.0000    -1.5000     0.0000     0.0000     0.0000     0.0000    17.0000     8.0000     8.0000    17.0000     0.0000     0.0000   142.0306   -75.9388     0.0000    -4.2998    -2.9995    -1.8994    -0.6005     0.4003     1.8994     2.7994     3.8002    31.3400    22.1100    13.8400     6.4800    -5.6200   -10.4100   -14.3900   -16.8000     1.0977     4.4000     4.800
     20     0.0000    -0.0000     4.3100    -0.4000      4.748      5.000  11001.000      5.000   102.8206   140.0142   -79.9715     0.4200    -1.0000    27.4160     0.0000     0.0000    19.1100    43.0653    -1.0000    -1.5000     0.0000     0.0000     0.0000     0.0000    17.0000     8.0000     8.0000    17.0000     0.0000     0.0000   142.0306   -75.9388     0.0000    -4.2998    -2.9995    -1.8994    -0.6005     0.4003     1.8994     2.7994     3.8002    31.3400    22.1100    13.8400     6.4800    -5.6200   -10.4100   -14.3900   -16.8000     1.0951     4.4000     4.800
     21    -0.0000    -0.0000     4.3000    -0.4000      4.856      2.000  11001.000      5.000   102.8206   140.0142   -79.9715     0.4200    -1.0000    27.4160     0.0000     0.0000    19.0525    42.9600    -1.0000    -1.5000     0.0000     0.0000     0.0000     0.0000    17.0000     8.0000     8.0000    17.0000     0.0000     0.0000   142.0306   -75.9388     0.0000    -4.2998    -2.9995    -1.8994    -0.6005     0.4003     1.8994     2.7994     3.8002    31.3400    22.1100    13.8400     6.4800    -5.6200   -10.4100   -14.3900   -16.8000     1.0926     4.4000     4.800
     22     0.0000    -0.0000     4.2900    -0.4000      4.744      2.000  11001.000      5.000   102.8206   140.0142   -79.9715     0.4200    -1.0000    27.4160     0.0000     0.0000    18.9900    42.8548    -1.0000    -1.5000     0.0000     0.0000     0.0000     0.0000    17.0000     8.0000     8.0000    17.0000     0.0000     0.0000   142.0306   -75.9388     0.0000    -4.2998    -2.9995    -1.8994    -0.6005     0.4003     1.8994     2.7994     3.8002    31.3400    22.1100    13.8400     6.4800    -5.6200   -10.4100   -14.3900   -16.8000     1.0900     4.4000     4.800
     23    -0.0000    -0.0000     4.2800    -0.4000      4.774      0.000  11001.000      5.000   102.8206   140.0142   -79.9715     0.4200    -1.0000    27.4160     0.0000     0.0000    18.9300    42.7496    -1.0000    -1.5000     0.0000     0.0000     0.0000     0.0000    17.0000     8.0000     8.0000    17.0000     0.0000     0.0000   142.0306   -75.9388     0.0000    -4.2998    -2.9995    -1.8994    -0.6005     0.4003     1.8994     2.7994     3.8002    31.3400    22.1100    13.8400     6.4800    -5.6200   -10.4100   -14.3900   -16.8000     1.0875     4.4000     4.800
     24     0.0000    -0.0000     4.2700    -0.4000      4.877      3.000  11001.000      5.000   102.8206   140.0142   -79.9715     0.4200    -1.0000    27.4160     0.0000     0.0000    18.8675    42.6445    -1.0000    -1.5000     0.0000     0.0000     0.0000     0.0000    17.0000     8.0000     8.0000    17.0000     0.0000     0.0000   142.0306   -75.9388     0.0000    -4.2998    -2.9995    -1.8994    -0.6005     0.4003     1.8994     2.7994     3.8002    31.3400    22.1100    13.8400     6.4800    -5.6200   -10.4100   -14.3900   -16.8000     1.0850     4.4000     4.800
     25    -0.0000    -0.0000     4.2600    -0.4000      4.775      0.000  11001.000      5.000   102.8206   140.0142   -79.9715     0.4200    -1.0000    27.4160     0.0000     0.0000    18.8075    42.5394    -1.0000    -1.5000     0.0000     0.0000     0.0000     0.0000    17.0000     8.0000     8.0000    17.0000     0.0000     0.0000   142.0306   -75.9388     0.0000    -4.2998    -2.9995    -1.8994    -0.6005     0.4003     1.8994     2.7994     3.8002    31.3400    22.1100    13.8400     6.4800    -5.6200   -10.4100   -14.3900   -16.8000     1.0824     4.4000     4.800
     26     0.0000    -0.0000     4.2500    -0.4000      4.851      2.000  11001.000      5.000   102.8206   140.0142   -79.9715     0.4200    -1.0000    27.4160     0.0000     0.0000    18.7450    42.4343    -1.0000    -1.5000     0.0000     0.0000     0.0000     0.0000    17.0000     8.0000     8.0000    17.0000     0.0000     0.0000   142.0306   -75.9388     0.0000    -4.2998    -2.9995    -1.8994    -0.6005     0.4003     1.8994     2.7994     3.8002    31.3400    22.1100    13.8400     6.4800    -5.6200   -10.4100   -14.3900   -16.8000     1.0799     4.4000     4.800
     27    -0.0000    -0.0000     4.2400    -0.4000      4.781      3.000  11001.000      5.000   102.8206   140.0142   -79.9715     0.4200    -1.0000    27.4160     0.0000     0.0000    18.6850    42.3293    -1.0000    -1.5000     0.0000     0.0000     0.0000     0.0000    17.0000     8.0000     8.0000    17.0000     0.0000     0.0000   142.0306   -75.9388     0.0000    -4.2998    -2.9995    -1.8994    -0.6005     0.4003     1.8994     2.7994     3.8002    31.3400    22.1100    13.8400     6.4800    -5.6200   -10.4100   -14.3900   -16.8000     1.0773     4.4000     4.800
     28    -0.0000    -0.0000     4.2300    -0.4000      4.782      2.000  11001.000      5.000   102.8206   140.0142   -79.9715     0.4200    -1.0000    27.4160     0.0000     0.0000    18.6250    42.2243    -1.0000    -1.5000     0.0000     0.0000     0.0000     0.0000    17.0000     8.0000     8.0000    17.0000     0.0000     0.0000   142.0306   -75.9388     0.0000    -4.2998    -2.9995    -1.8994    -0.6005     0.4003     1.8994     2.7994     3.8002    31.3400    22.1100    13.8400     6.4800    -5.6200   -10.4100   -14.3900   -16.8000     1.0748     4.4000     4.800
     29     0.0000    -0.0000     4.2200    -0.4000      4.786      3.000  11001.000      5.000   102.8206   140.0142   -79.9715     0.4200    -1.0000    27.4160     0.0000     0.0000    18.5600    42.1193    -1.0000    -1.5000     0.0000     0.0000     0.0000     0.0000    17.0000     8.0000     8.0000    17.0000     0.0000     0.0000   142.0306   -75.9388     0.0000    -4.2998    -2.9995    -1.8994    -0.6005     0.4003     1.8994     2.7994     3.8002    31.3400    22.1100    13.8400     6.4800    -5.6200   -10.4100   -14.3900   -16.8000     1.0722     4.4000     4.800
     30    -0.0000    -0.0000     4.2100    -0.4000      4.726      1.000  11001.000      5.000   102.8206   140.0142   -79.9715     0.4200    -1.0000    27.4160     0.0000     0.0000    18.5025    42.0144    -1.0000    -1.5000     0.0000     0.0000     0.0000     0.0000    17.0000     8.0000     8.0000    17.0000     0.0000     0.0000   142.0306   -75.9388     0.0000    -4.2998    -2.9995    -1.8994    -0.6005     0.4003     1.8994     2.7994     3.8002    31.3400    22.1100    13.8400     6.4800    -5.6200   -10.4100   -14.3900   -16.8000     1.0697     4.4000     4.800
     31     0.0000    -0.0000     4.2000    -0.4000      4.870      5.000  11001.000      5.000   102.8206   140.0142   -79.9715     0.4200    -1.0000    27.4160     0.0000     0.0000    18.4375    41.9095    -1.0000    -1.5000     0.0000     0.0000     0.0000     0.0000    17.0000     8.0000     8.0000    17.0000     0.0000     0.0000   142.0306   -75.9388     0.0000    -4.2998    -2.9995    -1.8994    -0.6005     0.4003     1.8994     2.7994     3.8002    31.3400    22.1100    13.8400     6.4800    -5.6200   -10.4100   -14.3900   -16.8000     1.0672     4.4000     4.800
     32    -0.0000    -0.0000     4.1900    -0.4000      4.848      4.000  11001.000      5.000   102.8206   140.0142   -79.9715     0.4200    -1.0000    27.4160     0.0000     0.0000    18.3800    41.8046    -1.0000    -1.5000     0.0000     0.0000     0.0000     0.0000    17.0000     8.0000     8.0000    17.0000     0.0000     0.0000   142.0306   -75.9388     0.0000    -4.2998    -2.9995    -1.8994    -0.6005     0.4003     1.8994     2.7994     3.8002    31.3400    22.1100    13.8400     6.4800    -5.6200   -10.4100   -14.3900   -16.8000     1.0646     4.4000     4.800
     33     0.0000    -0.0000     4.1800    -0.4000      4.815      0.000  11001.000      5.000   102.8206   140.0142   -79.9715     0.4200    -1.0000    27.4160     0.0000     0.0000    18.3150    41.6998    -1.0000    -1.5000     0.0000     0.0000     0.0000     0.0000    17.0000     8.0000     8.0000    17.0000     0.0000     0.0000   142.0306   -75.9388     0.0000    -4.2998    -2.9995    -1.8994    -0.6005     0.4003     1.8994     2.7994     3.8002    31.3400    22.1100    13.8400     6.4800    -5.6200   -10.4100   -14.3900   -16.8000     1.0621     4.4000     4.800
     34     0.0000    -0.0000     4.1700    -0.4000      4.771      4.000  11001.000      5.000   102.8206   140.0142   -79.9715     0.4200    -1.0000    27.4160     0.0000     0.0000    18.2525    41.5950    -1.0000    -1.5000     0.0000     0.0000     0.0000     0.0000    17.0000     8.0000     8.0000    17.0000     0.0000     0.0000   142.0306   -75.9388     0.0000    -4.2998    -2.9995    -1.8994    -0.6005     0.4003     1.8994     2.7994     3.8002    31.3400    22.1100    13.8400     6.4800    -5.6200   -10.4100   -14.3900   -16.8000     1.0595     4.4000     4.800
     35    -0.0000    -0.0000     4.1600    -0.4000      4.808      3.000  11001.000      5.000   102.8206   140.0142   -79.9715     0.4200    -1.0000    27.4160     0.0000     0.0000    18.1950    41.4903    -1.0000    -1.5000     0.0000     0.0000     0.0000     0.0000    17.0000     8.0000     8.0000    17.0000     0.0000     0.0000   142.0306   -75.9388     0.0000    -4.2998    -2.9995    -1.8994    -0.6005     0.4003     1.8994     2.7994     3.8002    31.3400    22.1100    13.8400     6.4800    -5.6200   -10.4100   -14.3900   -16.8000     1.0570     4.4000     4.800
     36    -0.0000    -0.0000     4.1500    -0.4000      4.765      1.000  11001.000      5.000   102.8206   140.0142   -79.9715     0.4200    -1.0000    27.4160     0.0000     0.0000    18.1350    41.3856    -1.0000    -1.5000     0.0000     0.0000     0.0000     0.0000    17.0000     8.0000     8.0000    17.0000     0.0000     0.0000   142.0306   -75.9388     0.0000    -4.2998    -2.9995    -1.8994    -0.6005     0.4003     1.8994     2.7994     3.8002    31.3400    22.1100    13.8400     6.4800    -5.6200   -10.4100   -14.3900   -16.8000     1.0545     4.4000     4.800
     37     0.0000    -0.0000     4.1400    -0.4000      4.821      3.000  11001.000      5.000   102.8206   140.0142   -79.9715     0.4200    -1.0000    27.4160     0.0000     0.0000    18.0700    41.2809    -1.0000    -1.5000     0.0000     0.0000     0.0000     0.0000    17.0000     8.0000     8.0000    17.0000     0.0000     0.0000   142.0306   -75.9388     0.0000    -4.2998    -2.9995    -1.8994    -0.6005     0.4003     1.8994     2.7994     3.8002    31.3400    22.1100    13.8400     6.4800    -5.6200   -10.4100   -14.3900   -16.8000     1.0519     4.4000     4.800
     38     0.0000    -0.0000     4.1300    -0.4000      4.766      2.000  11001.000      5.000   102.8206   140.0142   -79.9715     0.4200    -1.0000    27.4160     0.0000     0.0000    18.0075    41.1762    -1.0000    -1.5000     0.0000     0.0000     0.0000     0.0000    17.0000     8.0000     8.0000    17.0000     0.0000     0.0000   142.0306   -75.9388     0.0000    -4.2998    -2.9995    -1.8994    -0.6005     0.4003     1.8994     2.7994     3.8002    31.3400    22.1100    13.8400     6.4800    -5.6200   -10.4100   -14.3900   -16.8000     1.0494     4.4000     4.800
     39    -0.0000    -0.0000     4.1200    -0.4000      4.854      4.000  11001.000      5.000   102.8206   140.0142   -79.9715     0.4200    -1.0000    27.4160     0.0000     0.0000    17.9500    41.0716    -1.0000    -1.5000     0.0000     0.0000     0.0000     0.0000    17.0000     8.0000     8.0000    17.0000     0.0000     0.0000   142.0306   -75.9388     0.0000    -4.2998    -2.9995    -1.8994    -0.6005     0.4003     1.8994     2.7994     3.8002    31.3400    22.1100    13.8400     6.4800    -5.6200   -10.4100   -14.3900   -16.8000     1.0468     4.4000     4.800
     40     0.0000    -0.0000     4.1100    -0.4000      4.826      2.000  11001.000      5.000   102.8206   140.0142   -79.9715     0.4200    -1.0000    27.4160     0.0000     0.0000    17.8850    40.9671    -1.0000    -1.5000     0.0000     0.0000     0.0000     0.0000    17.0000     8.0000     8.0000    17.0000     0.0000     0.0000   142.0306   -75.9388     0.0000    -4.2998    -2.9995    -1.8994    -0.6005     0.4003     1.8994     2.7994     3.8002    31.3400    22.1100    13.8400     6.4800    -5.6200   -10.4100   -14.3900   -16.8000     1.0443     4.4000     4.800
     41    -0.0000    -0.0000     4.1000    -0.4000      4.852      3.000  11001.000      5.000   102.8206   140.0142   -79.9715     0.4200    -1.0000    27.4160     0.0000     0.0000    17.8250    40.8625    -1.0000    -1.5000     0.0000     0.0000     0.0000     0.0000    17.0000     8.0000     8.0000    17.0000     0.0000     0.0000   142.0306   -75.9388     0.0000    -4.2998    -2.9995    -1.8994    -0.6005     0.4003     1.8994     2.7994     3.8002    31.3400    22.1100    13.8400     6.4800    -5.6200   -10.4100   -14.3900   -16.8000     1.0418     4.4000     4.800
     42    -0.0000    -0.0000     4.0900    -0.4000      4.820      3.000  11001.000      5.000   102.8206   140.0142   -79.9715     0.4200    -1.0000    27.4160     0.0000     0.0000    17.7650    40.7580    -1.0000    -1.5000     0.0000     0.0000     0.0000     0.0000    17.0000     8.0000     8.0000    17.0000     0.0000     0.0000   142.0306   -75.9388     0.0000    -4.2998    -2.9995    -1.8994    -0.6005     0.4003     1.8994     2.7994     3.8002    31.3400    22.1100    13.8400     6.4800    -5.6200   -10.4100   -14.3900   -16.8000     1.0392     4.4000     4.800
     43    -0.0000    -0.0000     4.0800    -0.4000      4.881      2.000  11001.000      5.000   102.8206   140.0142   -79.9715     0.4200    -1.0000    27.4160     0.0000     0.0000    17.7025    40.6536    -1.0000    -1.5000     0.0000     0.0000     0.0000     0.0000    17.0000     8.0000     8.0000    17.0000     0.0000     0.0000   142.0306   -75.9388     0.0000    -4.2998    -2.9995    -1.8994    -0.6005     0.4003     1.8994     2.7994     3.8002    31.3400    22.1100    13.8400     6.4800    -5.6200   -10.4100   -14.3900   -16.8000     1.0367     4.4000     4.800
     44     0.0000    -0.0000     4.0700    -0.4000      4.829      0.000  11001.000      5.000   102.8206   140.0142   -79.9715     0.4200    -1.0000    27.4160     0.0000     0.0000    17.6400    40.5491    -1.0000    -1.5000     0.0000     0.0000     0.0000     0.0000    17.0000     8.0000     8.0000    17.0000     0.0000     0.0000   142.0306   -75.9388     0.0000    -4.2998    -2.9995    -1.8994    -0.6005     0.4003     1.8994     2.7994     3.8002    31.3400    22.1100    13.8400     6.4800    -5.6200   -10.4100   -14.3900   -16.8000     1.0341     4.4000     4.800
     45     0.0000    -0.0000     4.0600    -0.4000      4.829      2.000  11001.000      5.000   102.8206   140.0142   -79.9715     0.4200    -1.0000    27.4160     0.0000     0.0000    17.5775    40.4447    -1.0000    -1.5000     0.0000     0.0000     0.0000     0.0000    17.0000     8.0000     8.0000    17.0000     0.0000     0.0000   142.0306   -75.9388     0.0000    -4.2998    -2.9995    -1.8994    -0.6005     0.4003     1.8994     2.7994     3.8002    31.3400    22.1100    13.8400     6.4800    -5.6200   -10.4100   -14.3900   -16.8000     1.0316     4.4000     4.800
     46     0.0000    -0.0000     4.0500    -0.4000      4.807      1.000  11001.000      5.000   102.8206   140.0142   -79.9715     0.4200    -1.0000    27.4160     0.0000     0.0000    17.5150    40.3404    -1.0000    -1.5000     0.0000     0.0000     0.0000     0.0000    17.0000     8.0000     8.0000    17.0000     0.0000     0.0000   142.0306   -75.9388     0.0000    -4.2998    -2.9995    -1.8994    -0.6005     0.4003     1.8994     2.7994     3.8002    31.3400    22.1100    13.8400     6.4800    -5.6200   -10.4100   -14.3900   -16.8000     1.0291     4.4000     4.800
     47    -0.0000    -0.0000     4.0400    -0.4000      4.794      1.000  11001.000      5.000   102.8206   140.0142   -79.9715     0.4200    -1.0000    27.4160     0.0000     0.0000    17.4575    40.2360    -1.0000    -1.5000     0.0000     0.0000     0.0000     0.0000    17.0000     8.0000     8.0000    17.0000     0.0000     0.0000   142.0306   -75.9388     0.0000    -4.2998    -2.9995    -1.8994    -0.6005     0.4003     1.8994     2.7994     3.8002    31.3400    22.1100    13.8400     6.4800    -5.6200   -10.4100   -14.3900   -16.8000     1.0265     4.4000     4.800
     48     0.0000    -0.0000     4.0300    -0.4000      4.798      0.000  11001.000      5.000   102.8206   140.0142   -79.9715     0.4200    -1.0000    27.4160     0.0000     0.0000    17.3925    40.1317    -1.0000    -1.5000     0.0000     0.0000     0.0000     0.0000    17.0000     8.0000     8.0000    17.0000     0.0000     0.0000   142.0306   -75.9388     0.0000    -4.2998    -2.9995    -1.8994    -0.6005     0.4003     1.8994     2.7994     3.8002    31.3400    22.1100    13.8400     6.4800    -5.6200   -10.4100   -14.3900   -16.8000     1.0240     4.4000     4.800
     49    -0.0000    -0.0000     4.0200    -0.4000      4.817      5.000  11001.000      5.000   102.8206   140.0142   -79.9715     0.4200    -1.0000    27.4160     0.0000     0.0000    17.3325    40.0275    -1.0000    -1.5000     0.0000     0.0000     0.0000     0.0000    17.0000     8.0000     8.0000    17.0000     0.0000     0.0000   142.0306   -75.9388     0.0000    -4.2998    -2.9995    -1.8994    -0.6005     0.4003     1.8994     2.7994     3.8002    31.3400    22.1100    13.8400     6.4800    -5.6200   -10.4100   -14.3900   -16.8000     1.0214     4.4000     4.800
     50    -0.0000    -0.0000     4.0100    -0.4000      4.796      2.000  11001.000      5.000   102.8206   140.0142   -79.9715     0.4200    -1.0000    27.4160     0.0000     0.0000    17.2700    39.9232    -1.0000    -1.5000     0.0000     0.0000     0.0000     0.0000    17.0000     8.0000     8.0000    17.0000     0.0000     0.0000   142.0306   -75.9388     0.0000    -4.2998    -2.9995    -1.8994    -0.6005     0.4003     1.8994     2.7994     3.8002    31.3400    22.1100    13.8400     6.4800    -5.6200   -10.4100   -14.3900   -16.8000     1.0189     4.4000     4.800
     51     0.0000    -0.0000     4.0000    -0.4000      4.786      4.000  11001.000      5.000   102.8206   140.0142   -79.9715     0.4200    -1.0000    27.4160     0.0000     0.0000    17.2075    39.8190    -1.0000    -1.5000     0.0000     0.0000     0.0000     0.0000    17.0000     8.0000     8.0000    17.0000     0.0000     0.0000   142.0306   -75.9388     0.0000    -4.2998    -2.9995    -1.8994    -0.6005     0.4003     1.8994     2.7994     3.8002    31.3400    22.1100    13.8400     6.4800    -5.6200   -10.4100   -14.3900   -16.8000     1.0163     4.4000     4.800
     52    -0.0000    -0.0000     3.9900    -0.4000      4.827      5.000  11001.000      5.000   102.8206   140.0142   -79.9715     0.4200    -1.0000    27.4160     0.0000     0.0000    17.1475    39.7149    -1.0000    -1.5000     0.0000     0.0000     0.0000     0.0000    17.0000     8.0000     8.0000    17.0000     0.0000     0.0000   142.0306   -75.9388     0.0000    -4.2998    -2.9995    -1.8994    -0.6005     0.4003     1.8994     2.7994     3.8002    31.3400    22.1100    13.8400     6.4800    -5.6200   -10.4100   -14.3900   -16.8000     1.0138     4.4000     4.800
     53    -0.0000    -0.0000     3.9800    -0.4000      4.858      8.000  11001.000      5.000   102.8206   140.0142   -79.9715     0.4200    -1.0000    27.4160     0.0000     0.0000    17.0850    39.6108    -1.0000    -1.5000     0.0000     0.0000     0.0000     0.0000    17.0000     8.0000     8.0000    17.0000     0.0000     0.0000   142.0306   -75.9388     0.0000    -4.2998    -2.9995    -1.8994    -0.6005     0.4003     1.8994     2.7994     3.8002    31.3400    22.1100    13.8400     6.4800    -5.6200   -10.4100   -14.3900   -16.8000     1.0113     4.4000     4.800
     54     0.0000    -0.0000     3.9700    -0.4000      4.829      7.000  11001.000      5.000   102.8206   140.0142   -79.9715     0.4200    -1.0000    27.4160     0.0000     0.0000    17.0200    39.5066    -1.0000    -1.5000     0.0000     0.0000     0.0000     0.0000    17.0000     8.0000     8.0000    17.0000     0.0000     0.0000   142.0306   -75.9388     0.0000    -4.2998    -2.9995    -1.8994    -0.6005     0.4003     1.8994     2.7994     3.8002    31.3400    22.1100    13.8400     6.4800    -5.6200   -10.4100   -14.3900   -16.8000     1.0087     4.4000     4.800
     55    -0.0000    -0.0000     3.9600    -0.4000      4.884      2.000  11001.000      5.000   102.8206   140.0142   -79.9715     0.4200    -1.0000    27.4160     0.0000     0.0000    16.9625    39.4026    -1.0000    -1.5000     0.0000     0.0000     0.0000     0.0000    17.0000     8.0000     8.0000    17.0000     0.0000     0.0000   142.0306   -75.9388     0.0000    -4.2998    -2.9995    -1.8994    -0.6005     0.4003     1.8994     2.7994     3.8002    31.3400    22.1100    13.8400     6.4800    -5.6200   -10.4100   -14.3900   -16.8000     1.0062     4.4000     4.800
     56     0.0000    -0.0000     3.9500    -0.4000      4.829      7.000  11001.000      5.000   102.8206   140.0142   -79.9715     0.4200    -1.0000    27.4160     0.0000     0.0000    16.8975    39.2986    -1.0000    -1.5000     0.0000     0.0000     0.0000     0.0000    17.0000     8.0000     8.0000    17.0000     0.0000     0.0000   142.0306   -75.9388     0.0000    -4.2998    -2.9995    -1.8994    -0.6005     0.4003     1.8994     2.7994     3.8002    31.3400    22.1100    13.8400     6.4800    -5.6200   -10.4100   -14.3900   -16.8000     1.0036     4.4000     4.800
     57    -0.0000    -0.0000     3.9400    -0.4000      4.815      3.000  11001.000      5.000   102.8206   140.0142   -79.9715     0.4200    -1.0000    27.4160     0.0000     0.0000    16.8375    39.1946    -1.0000    -1.5000     0.0000     0.0000     0.0000     0.0000    17.0000     8.0000     8.0000    17.0000     0.0000     0.0000   142.0306   -75.9388     0.0000    -4.2998    -2.9995    -1.8994    -0.6005     0.4003     1.8994     2.7994     3.8002    31.3400    22.1100    13.8400     6.4800    -5.6200   -10.4100   -14.3900   -16.8000     1.0011     4.4000     4.800
     58     0.0000    -0.0000     3.9300    -0.4000      4.852      4.000  11001.000      5.000   102.8206   140.0142   -79.9715     0.4200    -1.0000    27.4160     0.0000     0.0000    16.7725    39.0906    -1.0000    -1.5000     0.0000     0.0000     0.0000     0.0000    17.0000     8.0000     8.0000    17.0000     0.0000     0.0000   142.0306   -75.9388     0.0000    -4.2998    -2.9995    -1.8994    -0.6005     0.4003     1.8994     2.7994     3.8002    31.3400    22.1100    13.8400     6.4800    -5.6200   -10.4100   -14.3900   -16.8000     0.9986     4.4000     4.800
     59    -0.0000    -0.0000     3.9200    -0.4000      4.689      3.000  11001.000      5.000   102.8206   140.0142   -79.9715     0.4200    -1.0000    27.4160     0.0000     0.0000    16.7125    38.9866    -1.0000    -1.5000     0.0000     0.0000     0.0000     0.0000    17.0000     8.0000     8.0000    17.0000     0.0000     0.0000   142.0306   -75.9388     0.0000    -4.2998    -2.9995    -1.8994    -0.6005     0.4003     1.8994     2.7994     3.8002    31.3400    22.1100    13.8400     6.4800    -5.6200   -10.4100   -14.3900   -16.8000     0.9960     4.4000     4.800
     60    -0.0000    -0.0000     3.9100    -0.4000      4.864      2.000  11001.000      5.000   102.8206   140.0142   -79.9715     0.4200    -1.0000    27.4160     0.0000     0.0000    16.6525    38.8828    -1.0000    -1.5000     0.0000     0.0000     0.0000     0.0000    17.0000     8.0000     8.0000    17.0000     0.0000     0.0000   142.0306   -75.9388     0.0000    -4.2998    -2.9995    -1.8994    -0.6005     0.4003     1.8994     2.7994     3.8002    31.3400    22.1100    13.8400     6.4800    -5.6200   -10.4100   -14.3900   -16.8000     0.9935     4.4000     4.800
     61     0.0000    -0.0000     3.9000    -0.4000      4.808      8.000  11001.000      5.000   102.8206   140.0142   -79.9715     0.4200    -1.0000    27.4160     0.0000     0.0000    16.5875    38.7789    -1.0000    -1.5000     0.0000     0.0000     0.0000     0.0000    17.0000     8.0000     8.0000    17.0000     0.0000     0.0000   142.0306   -75.9388     0.0000    -4.2998    -2.9995    -1.8994    -0.6005     0.4003     1.8994     2.7994     3.8002    31.3400    22.1100    13.8400     6.4800    -5.6200   -10.4100   -14.3900   -16.8000     0.9909     4.4000     4.800
     62     0.0000    -0.0000     3.8900    -0.4000      4.814      6.000  11001.000      5.000   102.8206   140.0142   -79.9715     0.4200    -1.0000    27.4160     0.0000     0.0000    16.5250    38.6750    -1.0000    -1.5000     0.0000     0.0000     0.0000     0.0000    17.0000     8.0000     8.0000    17.0000     0.0000     0.0000   142.0306   -75.9388     0.0000    -4.2998    -2.9995    -1.8994    -0.6005     0.4003     1.8994     2.7994     3.8002    31.3400    22.1100    13.8400     6.4800    -5.6200   -10.4100   -14.3900   -16.8000     0.9884     4.4000     4.800
     63    -0.0000    -0.0000     3.8800    -0.4000      4.872      1.000  11001.000      5.000   102.8206   140.0142   -79.9715     0.4200    -1.0000    27.4160     0.0000     0.0000    16.4650    38.5712    -1.0000    -1.5000     0.0000     0.0000     0.0000     0.0000    17.0000     8.0000     8.0000    17.0000     0.0000     0.0000   142.0306   -75.9388     0.0000    -4.2998    -2.9995    -1.8994    -0.6005     0.4003     1.8994     2.7994     3.8002    31.3400    22.1100    13.8400     6.4800    -5.6200   -10.4100   -14.3900   -16.8000     0.9859     4.4000     4.800
     64    -0.0000    -0.0000     3.8700    -0.4000      4.808      2.000  11001.000      5.000   102.8206   140.0142   -79.9715     0.4200    -1.0000    27.4160     0.0000     0.0000    16.4025    38.4674    -1.0000    -1.5000     0.0000     0.0000     0.0000     0.0000    17.0000     8.0000     8.0000    17.0000     0.0000     0.0000   142.0306   -75.9388     0.0000    -4.2998    -2.9995    -1.8994    -0.6005     0.4003     1.8994     2.7994     3.8002    31.3400    22.1100    13.8400     6.4800    -5.6200   -10.4100   -14.3900   -16.8000     0.9833     4.4000     4.800
     65     0.0000    -0.0000     3.8600    -0.4000      4.797      5.000  11001.000      5.000   102.8206   140.0142   -79.9715     0.4200    -1.0000    27.4160     0.0000     0.0000    16.3375    38.3637    -1.0000    -1.5000     0.0000     0.0000     0.0000     0.0000    17.0000     8.0000     8.0000    17.0000     0.0000     0.0000   142.0306   -75.9388     0.0000    -4.2998    -2.9995    -1.8994    -0.6005     0.4003     1.8994     2.7994     3.8002    31.3400    22.1100    13.8400     6.4800    -5.6200   -10.4100   -14.3900   -16.8000     0.9808     4.4000     4.800
     66    -0.0000    -0.0000     3.8500    -0.4000      4.761      1.000  11001.000      5.000   102.8206   140.0142   -79.9715     0.4200    -1.0000    27.4160     0.0000     0.0000    16.2775    38.2600    -1.0000    -1.5000     0.0000     0.0000     0.0000     0.0000    17.0000     8.0000     8.0000    17.0000     0.0000     0.0000   142.0306   -75.9388     0.0000    -4.2998    -2.9995    -1.8994    -0.6005     0.4003     1.8994     2.7994     3.8002    31.3400    22.1100    13.8400     6.4800    -5.6200   -10.4100   -14.3900   -16.8000     0.9782     4.4000     4.800
     67    -0.0000    -0.0000     3.8400    -0.4000      4.818      2.000  11001.000      5.000   102.8206   140.0142   -79.9715     0.4200    -1.0000    27.4160     0.0000     0.0000    16.2150    38.1563    -1.0000    -1.5000     0.0000     0.0000     0.0000     0.0000    17.0000     8.0000     8.0000    17.0000     0.0000     0.0000   142.0306   -75.9388     0.0000    -4.2998    -2.9995    -1.8994    -0.6005     0.4003     1.8994     2.7994     3.8002    31.3400    22.1100    13.8400     6.4800    -5.6200   -10.4100   -14.3900   -16.8000     0.9757     4.4000     4.800
     68    -0.0000    -0.0000     3.8300    -0.4000      4.804      3.000  11001.000      5.000   102.8206   140.0142   -79.9715     0.4200    -1.0000    27.4160     0.0000     0.0000    16.1525    38.0527    -1.0000    -1.5000     0.0000     0.0000     0.0000     0.0000    17.0000     8.0000     8.0000    17.0000     0.0000     0.0000   142.0306   -75.9388     0.0000    -4.2998    -2.9995    -1.8994    -0.6005     0.4003     1.8994     2.7994     3.8002    31.3400    22.1100    13.8400     6.4800    -5.6200   -10.4100   -14.3900   -16.8000     0.9732     4.4000     4.800
     69     0.0000    -0.0000     3.8200    -0.4000      4.869      1.000  11001.000      5.000   102.8206   140.0142   -79.9715     0.4200    -1.0000    27.4160     0.0000     0.0000    16.0900    37.9490    -1.0000    -1.5000     0.0000     0.0000     0.0000     0.0000    17.0000     8.0000     8.0000    17.0000     0.0000     0.0000   142.0306   -75.9388     0.0000    -4.2998    -2.9995    -1.8994    -0.6005     0.4003     1.8994     2.7994     3.8002    31.3400    22.1100    13.8400     6.4800    -5.6200   -10.4100   -14.3900   -16.8000     0.9706     4.4000     4.800
     70     0.0000    -0.0000     3.8100    -0.4000      4.842      3.000  11001.000      5.000   102.8206   140.0142   -79.9715     0.4200    -1.0000    27.4160     0.0000     0.0000    16.0275    37.8454    -1.0000    -1.5000     0.0000     0.0000     0.0000     0.0000    17.0000     8.0000     8.0000    17.0000     0.0000     0.0000   142.0306   -75.9388     0.0000    -4.2998    -2.9995    -1.8994    -0.6005     0.4003     1.8994     2.7994     3.8002    31.3400    22.1100    13.8400     6.4800    -5.6200   -10.4100   -14.3900   -16.8000     0.9681     4.4000     4.800
     71     0.0000    -0.0000     3.8000    -0.4000      4.685      2.000  11001.000      5.000   102.8206   140.0142   -79.9715     0.4200    -1.0000    27.4160     0.0000     0.0000    15.9650    37.7419    -1.0000    -1.5000     0.0000     0.0000     0.0000     0.0000    17.0000     8.0000     8.0000    17.0000     0.0000     0.0000   142.0306   -75.9388     0.0000    -4.2998    -2.9995    -1.8994    -0.6005     0.4003     1.8994     2.7994     3.8002    31.3400    22.1100    13.8400     6.4800    -5.6200   -10.4100   -14.3900   -16.8000     0.9655     4.4000     4.800
     72     0.0000    -0.0000     3.7900    -0.4000      4.722      3.000  11001.000      5.000   102.8206   140.0142   -79.9715     0.4200    -1.0000    27.4160     0.0000     0.0000    15.9025    37.6384    -1.0000    -1.5000     0.0000     0.0000     0.0000     0.0000    17.0000     8.0000     8.0000    17.0000     0.0000     0.0000   142.0306   -75.9388     0.0000    -4.2998    -2.9995    -1.8994    -0.6005     0.4003     1.8994     2.7994     3.8002    31.3400    22.1100    13.8400     6.4800    -5.6200   -10.4100   -14.3900   -16.8000     0.9630     4.4000     4.800
     73     0.0000    -0.0000     3.7800    -0.4000      4.846      6.000  11001.000      5.000   102.8206   140.0142   -79.9715     0.4200    -1.0000    27.4160     0.0000     0.0000    15.8400    37.5349    -1.0000    -1.5000     0.0000     0.0000     0.0000     0.0000    17.0000     8.0000     8.0000    17.0000     0.0000     0.0000   142.0306   -75.9388     0.0000    -4.2998    -2.9995    -1.8994    -0.6005     0.4003     1.8994     2.7994     3.8002    31.3400    22.1100    13.8400     6.4800    -5.6200   -10.4100   -14.3900   -16.8000     0.9604     4.4000     4.800
     74     0.0000    -0.0000     3.7700    -0.4000      4.807      3.000  11001.000      5.000   102.8206   140.0142   -79.9715     0.4200    -1.0000    27.4160     0.0000     0.0000    15.7775    37.4314    -1.0000    -1.5000     0.0000     0.0000     0.0000     0.0000    17.0000     8.0000     8.0000    17.0000     0.0000     0.0000   142.0306   -75.9388     0.0000    -4.2998    -2.9995    -1.8994    -0.6005     0.4003     1.8994     2.7994     3.8002    31.3400    22.1100    13.8400     6.4800    -5.6200   -10.4100   -14.3900   -16.8000     0.9579     4.4000     4.800
     75    -0.0000    -0.0000     3.7600    -0.4000      4.761      2.000  11001.000      5.000   102.8206   140.0142   -79.9715     0.4200    -1.0000    27.4160     0.0000     0.0000    15.7150    37.3280    -1.0000    -1.5000     0.0000     0.0000     0.0000     0.0000    17.0000     8.0000     8.0000    17.0000     0.0000     0.0000   142.0306   -75.9388     0.0000    -4.2998    -2.9995    -1.8994    -0.6005     0.4003     1.8994     2.7994     3.8002    31.3400    22.1100    13.8400     6.4800    -5.6200   -10.4100   -14.3900   -16.8000     0.9554     4.4000     4.800
     76    -0.0000    -0.0000     3.7500    -0.4000      4.794      3.000  11001.000      5.000   102.8206   140.0142   -79.9715     0.4200    -1.0000    27.4160     0.0000     0.0000    15.6525    37.2246    -1.0000    -1.5000     0.0000     0.0000     0.0000     0.0000    17.0000     8.0000     8.0000    17.0000     0.0000     0.0000   142.0306   -75.9388     0.0000    -4.2998    -2.9995    -1.8994    -0.6005     0.4003     1.8994     2.7994     3.8002    31.3400    22.1100    13.8400     6.4800    -5.6200   -10.4100   -14.3900   -16.8000     0.9528     4.4000     4.800
     77    -0.0000    -0.0000     3.7400    -0.4000      4.847      2.000  11001.000      5.000   102.8206   140.0142   -79.9715     0.4200    -1.0000    27.4160     0.0000     0.0000    15.5900    37.1212    -1.0000    -1.5000     0.0000     0.0000     0.0000     0.0000    17.0000     8.0000     8.0000    17.0000     0.0000     0.0000   142.0306   -75.9388     0.0000    -4.2998    -2.9995    -1.8994    -0.6005     0.4003     1.8994     2.7994     3.8002    31.3400    22.1100    13.8400     6.4800    -5.6200   -10.4100   -14.3900   -16.8000     0.9503     4.4000     4.800
     78    -0.0000    -0.0000     3.7300    -0.4000      4.817      1.000  11001.000      5.000   102.8206   140.0142   -79.9715     0.4200    -1.0000    27.4160     0.0000     0.0000    15.5275    37.0178    -1.0000    -1.5000     0.0000     0.0000     0.0000     0.0000    17.0000     8.0000     8.0000    17.0000     0.0000     0.0000   142.0306   -75.9388     0.0000    -4.2998    -2.9995    -1.8994    -0.6005     0.4003     1.8994     2.7994     3.8002    31.3400    22.1100    13.8400     6.4800    -5.6200   -10.4100   -14.3900   -16.8000     0.9477     4.4000     4.800
     79     0.0000    -0.0000     3.7200    -0.4000      4.914      1.000  11001.000      5.000   102.8206   140.0142   -79.9715     0.4200    -1.0000    27.4160     0.0000     0.0000    15.4625    36.9146    -1.0000    -1.5000     0.0000     0.0000     0.0000     0.0000    17.0000     8.0000     8.0000    17.0000     0.0000     0.0000   142.0306   -75.9388     0.0000    -4.2998    -2.9995    -1.8994    -0.6005     0.4003     1.8994     2.7994     3.8002    31.3400    22.1100    13.8400     6.4800    -5.6200   -10.4100   -14.3900   -16.8000     0.9452     4.4000     4.800
     80    -0.0000    -0.0000     3.7100    -0.4000      4.784      2.000  11001.000      5.000   102.8206   140.0142   -79.9715     0.4200    -1.0000    27.4160     0.0000     0.0000    15.4025    36.8112    -1.0000    -1.5000     0.0000     0.0000     0.0000     0.0000    17.0000     8.0000     8.0000    17.0000     0.0000     0.0000   142.0306   -75.9388     0.0000    -4.2998    -2.9995    -1.8994    -0.6005     0.4003     1.8994     2.7994     3.8002    31.3400    22.1100    13.8400     6.4800    -5.6200   -10.4100   -14.3900   -16.8000     0.9427     4.4000     4.800
     81     0.0000    -0.0000     3.7000    -0.4000      4.818      3.000  11001.000      5.000   102.8206   140.0142   -79.9715     0.4200    -1.0000    27.4160     0.0000     0.0000    15.3375    36.7080    -1.0000    -1.5000     0.0000     0.0000     0.0000     0.0000    17.0000     8.0000     8.0000    17.0000     0.0000     0.0000   142.0306   -75.9388     0.0000    -4.2998    -2.9995    -1.8994    -0.6005     0.4003     1.8994     2.7994     3.8002    31.3400    22.1100    13.8400     6.4800    -5.6200   -10.4100   -14.3900   -16.8000     0.9401     4.4000     4.800
     82     0.0000    -0.0000     3.6900    -0.4000      4.772      3.000  11001.000      5.000   102.8206   140.0142   -79.9715     0.4200    -1.0000    27.4160     0.0000     0.0000    15.2750    36.6048    -1.0000    -1.5000     0.0000     0.0000     0.0000     0.0000    17.0000     8.0000     8.0000    17.0000     0.0000     0.0000   142.0306   -75.9388     0.0000    -4.2998    -2.9995    -1.8994    -0.6005     0.4003     1.8994     2.7994     3.8002    31.3400    22.1100    13.8400     6.4800    -5.6200   -10.4100   -14.3900   -16.8000     0.9376     4.4000     4.800
     83    -0.0000    -0.0000     3.6800    -0.4000      4.766      2.000  11001.000      5.000   102.8206   140.0142   -79.9715     0.4200    -1.0000    27.4160     0.0000     0.0000    15.2125    36.5016    -1.0000    -1.5000     0.0000     0.0000     0.0000     0.0000    17.0000     8.0000     8.0000    17.0000     0.0000     0.0000   142.0306   -75.9388     0.0000    -4.2998    -2.9995    -1.8994    -0.6005     0.4003     1.8994     2.7994     3.8002    31.3400    22.1100    13.8400     6.4800    -5.6200   -10.4100   -14.3900   -16.8000     0.9350     4.4000     4.800
     84    -0.0000    -0.0000     3.6700    -0.4000      4.781      4.000  11001.000      5.000   102.8206   140.0142   -79.9715     0.4200    -1.0000    27.4160     0.0000     0.0000    15.1500    36.3984    -1.0000    -1.5000     0.0000     0.0000     0.0000     0.0000    17.0000     8.0000     8.0000    17.0000     0.0000     0.0000   142.0306   -75.9388     0.0000    -4.2998    -2.9995    -1.8994    -0.6005     0.4003     1.8994     2.7994     3.8002    31.3400    22.1100    13.8400     6.4800    -5.6200   -10.4100   -14.3900   -16.8000     0.9325     4.4000     4.800
     85    -0.0000    -0.0000     3.6600    -0.4000      4.843      4.000  11001.000      5.000   102.8206   140.0142   -79.9715     0.4200    -1.0000    27.4160     0.0000     0.0000    15.0875    36.2953    -1.0000    -1.5000     0.0000     0.0000     0.0000     0.0000    17.0000     8.0000     8.0000    17.0000     0.0000     0.0000   142.0306   -75.9388     0.0000    -4.2998    -2.9995    -1.8994    -0.6005     0.4003     1.8994     2.7994     3.8002    31.3400    22.1100    13.8400     6.4800    -5.6200   -10.4100   -14.3900   -16.8000     0.9300     4.4000     4.800
     86     0.0000    -0.0000     3.6500    -0.4000      4.796      2.000  11001.000      5.000   102.8206   140.0142   -79.9715     0.4200    -1.0000    27.4160     0.0000     0.0000    15.0225    36.1922    -1.0000    -1.5000     0.0000     0.0000     0.0000     0.0000    17.0000     8.0000     8.0000    17.0000     0.0000     0.0000   142.0306   -75.9388     0.0000    -4.2998    -2.9995    -1.8994    -0.6005     0.4003     1.8994     2.7994     3.8002    31.3400    22.1100    13.8400     6.4800    -5.6200   -10.4100   -14.3900   -16.8000     0.9274     4.4000     4.800
     87     0.0000    -0.0000     3.6400    -0.4000      4.805      2.000  11001.000      5.000   102.8206   140.0142   -79.9715     0.4200    -1.0000    27.4160     0.0000     0.0000    14.9600    36.0891    -1.0000    -1.5000     0.0000     0.0000     0.0000     0.0000    17.0000     8.0000     8.0000    17.0000     0.0000     0.0000   142.0306   -75.9388     0.0000    -4.2998    -2.9995    -1.8994    -0.6005     0.4003     1.8994     2.7994     3.8002    31.3400    22.1100    13.8400     6.4800    -5.6200   -10.4100   -14.3900   -16.8000     0.9249     4.4000     4.800
     88     0.0000    -0.0000     3.6300    -0.4000      4.831      3.000  11001.000      5.000   102.8206   140.0142   -79.9715     0.4200    -1.0000    27.4160     0.0000     0.0000    14.8950    35.9860    -1.0000    -1.5000     0.0000     0.0000     0.0000     0.0000    17.0000     8.0000     8.0000    17.0000     0.0000     0.0000   142.0306   -75.9388     0.0000    -4.2998    -2.9995    -1.8994    -0.6005     0.4003     1.8994     2.7994     3.8002    31.3400    22.1100    13.8400     6.4800    -5.6200   -10.4100   -14.3900   -16.8000     0.9223     4.4000     4.800
     89    -0.0000    -0.0000     3.6200    -0.4000      4.779      3.000  11001.000      5.000   102.8206   140.0142   -79.9715     0.4200    -1.0000    27.4160     0.0000     0.0000    14.8350    35.8830    -1.0000    -1.5000     0.0000     0.0000     0.0000     0.0000    17.0000     8.0000     8.0000    17.0000     0.0000     0.0000   142.0306   -75.9388     0.0000    -4.2998    -2.9995    -1.8994    -0.6005     0.4003     1.8994     2.7994     3.8002    31.3400    22.1100    13.8400     6.4800    -5.6200   -10.4100   -14.3900   -16.8000     0.9198     4.4000     4.800
     90     0.0000    -0.0000     3.6100    -0.4000      4.829      3.000  11001.000      5.000   102.8206   140.0142   -79.9715     0.4200    -1.0000    27.4160     0.0000     0.0000    14.7700    35.7800    -1.0000    -1.5000     0.0000     0.0000     0.0000     0.0000    17.0000     8.0000     8.0000    17.0000     0.0000     0.0000   142.0306   -75.9388     0.0000    -4.2998    -2.9995    -1.8994    -0.6005     0.4003     1.8994     2.7994     3.8002    31.3400    22.1100    13.8400     6.4800    -5.6200   -10.4100   -14.3900   -16.8000     0.9173     4.4000     4.800
     91    -0.0000    -0.0000     3.6000    -0.4000      4.815      0.000  11001.000      5.000   102.8206   140.0142   -79.9715     0.4200    -1.0000    27.4160     0.0000     0.0000    14.7075    35.6770    -1.0000    -1.5000     0.0000     0.0000     0.0000     0.0000    17.0000     8.0000     8.0000    17.0000     0.0000     0.0000   142.0306   -75.9388     0.0000    -4.2998    -2.9995    -1.8994    -0.6005     0.4003     1.8994     2.7994     3.8002    31.3400    22.1100    13.8400     6.4800    -5.6200   -10.4100   -14.3900   -16.8000     0.9147     4.4000     4.800
     92     0.0000    -0.0000     3.5900    -0.4000      4.740      6.000  11001.000      5.000   102.8206   140.0142   -79.9715     0.4200    -1.0000    27.4160     0.0000     0.0000    14.6425    35.5741    -1.0000    -1.5000     0.0000     0.0000     0.0000     0.0000    17.0000     8.0000     8.0000    17.0000     0.0000     0.0000   142.0306   -75.9388     0.0000    -4.2998    -2.9995    -1.8994    -0.6005     0.4003     1.8994     2.7994     3.8002    31.3400    22.1100    13.8400     6.4800    -5.6200   -10.4100   -14.3900   -16.8000     0.9122     4.4000     4.800
     93    -0.0000    -0.0000     3.5800    -0.4000      4.743      3.000  11001.000      5.000   102.8206   140.0142   -79.9715     0.4200    -1.0000    27.4160     0.0000     0.0000    14.5825    35.4712    -1.0000    -1.5000     0.0000     0.0000     0.0000     0.0000    17.0000     8.0000     8.0000    17.0000     0.0000     0.0000   142.0306   -75.9388     0.0000    -4.2998    -2.9995    -1.8994    -0.6005     0.4003     1.8994     2.7994     3.8002    31.3400    22.1100    13.8400     6.4800    -5.6200   -10.4100   -14.3900   -16.8000     0.9096     4.4000     4.800
     94     0.0000    -0.0000     3.5700    -0.4000      4.829      1.000  11001.000      5.000   102.8206   140.0142   -79.9715     0.4200    -1.0000    27.4160     0.0000     0.0000    14.5150    35.3683    -1.0000    -1.5000     0.0000     0.0000     0.0000     0.0000    17.0000     8.0000     8.0000    17.0000     0.0000     0.0000   142.0306   -75.9388     0.0000    -4.2998    -2.9995    -1.8994    -0.6005     0.4003     1.8994     2.7994     3.8002    31.3400    22.1100    13.8400     6.4800    -5.6200   -10.4100   -14.3900   -16.8000     0.9071     4.4000     4.800
     95    -0.0000    -0.0000     3.5600    -0.4000      4.832      7.000  11001.000      5.000   102.8206   140.0142   -79.9715     0.4200    -1.0000    27.4160     0.0000     0.0000    14.4550    35.2655    -1.0000    -1.5000     0.0000     0.0000     0.0000     0.0000    17.0000     8.0000     8.0000    17.0000     0.0000     0.0000   142.0306   -75.9388     0.0000    -4.2998    -2.9995    -1.8994    -0.6005     0.4003     1.8994     2.7994     3.8002    31.3400    22.1100    13.8400     6.4800    -5.6200   -10.4100   -14.3900   -16.8000     0.9046     4.4000     4.800
     96    -0.0000    -0.0000     3.5500    -0.4000      4.936      3.000  11001.000      5.000   102.8206   140.0142   -79.9715     0.4200    -1.0000    27.4160     0.0000     0.0000    14.3900    35.1626    -1.0000    -1.5000     0.0000     0.0000     0.0000     0.0000    17.0000     8.0000     8.0000    17.0000     0.0000     0.0000   142.0306   -75.9388     0.0000    -4.2998    -2.9995    -1.8994    -0.6005     0.4003     1.8994     2.7994     3.8002    31.3400    22.1100    13.8400     6.4800    -5.6200   -10.4100   -14.3900   -16.8000     0.9020     4.4000     4.800
     97     0.0000    -0.0000     3.5400    -0.4000      4.753      3.000  11001.000      5.000   102.8206   140.0142   -79.9715     0.4200    -1.0000    27.4160     0.0000     0.0000    14.3250    35.0598    -1.0000    -1.5000     0.0000     0.0000     0.0000     0.0000    17.0000     8.0000     8.0000    17.0000     0.0000     0.0000   142.0306   -75.9388     0.0000    -4.2998    -2.9995    -1.8994    -0.6005     0.4003     1.8994     2.7994     3.8002    31.3400    22.1100    13.8400     6.4800    -5.6200   -10.4100   -14.3900   -16.8000     0.8995     4.4000     4.800
     98    -0.0000    -0.0000     3.5300    -0.4000      4.795      3.000  11001.000      5.000   102.8206   140.0142   -79.9715     0.4200    -1.0000    27.4160     0.0000     0.0000    14.2650    34.9571    -1.0000    -1.5000     0.0000     0.0000     0.0000     0.0000    17.0000     8.0000     8.0000    17.0000     0.0000     0.0000   142.0306   -75.9388     0.0000    -4.2998    -2.9995    -1.8994    -0.6005     0.4003     1.8994     2.7994     3.8002    31.3400    22.1100    13.8400     6.4800    -5.6200   -10.4100   -14.3900   -16.8000     0.8969     4.4000     4.800
     99     0.0000    -0.0000     3.5200    -0.4000      4.761      1.000  11001.000      5.000   102.8206   140.0142   -79.9715     0.4200    -1.0000    27.4160     0.0000     0.0000    14.1975    34.8544    -1.0000    -1.5000     0.0000     0.0000     0.0000     0.0000    17.0000     8.0000     8.0000    17.0000     0.0000     0.0000   142.0306   -75.9388     0.0000    -4.2998    -2.9995    -1.8994    -0.6005     0.4003     1.8994     2.7994     3.8002    31.3400    22.1100    13.8400     6.4800    -5.6200   -10.4100   -14.3900   -16.8000     0.8944     4.4000     4.800
    100    -0.0000    -0.0000     3.5100    -0.4000      4.922      7.000  11001.000      5.000   102.8206   140.0142   -79.9715     0.4200    -1.0000    27.4160     0.0000     0.0000    14.1350    34.7516    -1.0000    -1.5000     0.0000     0.0000     0.0000     0.0000    17.0000     8.0000     8.0000    17.0000     0.0000     0.0000   142.0306   -75.9388     0.0000    -4.2998    -2.9995    -1.8994    -0.6005     0.4003     1.8994     2.7994     3.8002    31.3400    22.1100    13.8400     6.4800    -5.6200   -10.4100   -14.3900   -16.8000     0.8918     4.4000     4.800
    101     0.0000    -0.0000     3.5000    -0.4000      4.778      2.000  11001.000      5.000   102.8206   140.0142   -79.9715     0.4200    -1.0000    27.4160     0.0000     0.0000    14.0700    34.6490    -1.0000    -1.5000     0.0000     0.0000     0.0000     0.0000    17.0000     8.0000     8.0000    17.0000     0.0000     0.0000   142.0306   -75.9388     0.0000    -4.2998    -2.9995    -1.8994    -0.6005     0.4003     1.8994     2.7994     3.8002    31.3400    22.1100    13.8400     6.4800    -5.6200   -10.4100   -14.3900   -16.8000     0.8893     4.4000     4.800
# Sum of Counts = 275
# Center of Mass = 3.958473+/-0.337993
# Full Width Half-Maximum = 0.554261+/-0.082941
# 6:13:30 AM  3/13/2025   scan completed.
