# scan = 274
# date = 3/13/2025
# time = 10:19:53 AM
# proposal = 35030
# experiment = CTAX Instrumental resolution benchmarking
# experiment_number = 445
# command = scan h 0 k 0 l 4.5 3.5 0.01 e 0.45 preset mcu 5
# builtin_command = scan h 0 k 0 l 4.5 3.5 0.01 e 0.45 preset mcu 5
# users = Tao Hong, Tao Hong, Bing Li
# local_contact = Tao Hong
# scan_title = (00L) scan at E=0.45 meV and hori-focusing
# monochromator = PG002
# analyzer = Pg002
# sense = -+-
# collimation = 48-40-40-120
# samplename = LaN
# sampletype = crystal
# samplemosaic = 30.000000
# latticeconstants = 5.058628,5.058628,24.728465,90.000000,90.000000,120.000000
# ubmatrix = -0.002928,0.001986,-0.040430,-0.228168,-0.119258,0.000500,-0.005924,0.194622,0.000719
# mode = 0
# plane_normal = 0.017452,-0.026173,0.999505
# ubconf = UB10Mar2025_114214AM.ini
# preset_type = normal 
# preset_channel = mcu
# preset_value = 5.000000
# def_x = l
# def_y = detector
# col_headers = 
#   Pt.          h          k          l          e       time   detector    monitor        mcu focal_length         m1         m2       marc     mtrans     mfocus   vti_temp  smpl_temp         s1         s2        sgl        sgu        bbb        bbl        bbr        bbt        bab        bal        bar        bat        stl        stu         a1         a2     afocus        qm1        qm2        qm3        qm4        qm5        qm6        qm7        qm8        xm1        xm2        xm3        xm4        xm5        xm6        xm7        xm8          q         ei         ef
      1     0.0000    -0.0000     4.5000     0.4500      5.057      1.000  11001.000      5.000    94.1214   143.9648   -72.0704     0.4200    -1.0000    29.1560     0.0000     0.0000    25.4950    43.0144    -1.0000    -1.5000     0.0000     0.0000     0.0000     0.0000    17.0000     8.0000     8.0000    17.0000     0.0000     0.0000   142.0306   -75.9388     0.0000    -4.2998    -2.9995    -1.8994    -0.6005     0.4003     1.8994     2.7994     3.8002    31.3400    22.1100    13.8400     6.4800    -5.6200   -10.4100   -14.3900   -16.8000     1.1434     5.2500     4.800
      2    -0.0000    -0.0000     4.4900     0.4500      5.038      1.000  11001.000      5.000    94.1214   143.9648   -72.0704     0.4200    -1.0000    29.1560     0.0000     0.0000    25.4550    42.9136    -1.0000    -1.5000     0.0000     0.0000     0.0000     0.0000    17.0000     8.0000     8.0000    17.0000     0.0000     0.0000   142.0306   -75.9388     0.0000    -4.2998    -2.9995    -1.8994    -0.6005     0.4003     1.8994     2.7994     3.8002    31.3400    22.1100    13.8400     6.4800    -5.6200   -10.4100   -14.3900   -16.8000     1.1409     5.2500     4.800
      3    -0.0000    -0.0000     4.4800     0.4500      5.118      3.000  11001.000      5.000    94.1214   143.9648   -72.0704     0.4200    -1.0000    29.1560     0.0000     0.0000    25.4125    42.8130    -1.0000    -1.5000     0.0000     0.0000     0.0000     0.0000    17.0000     8.0000     8.0000    17.0000     0.0000     0.0000   142.0306   -75.9388     0.0000    -4.2998    -2.9995    -1.8994    -0.6005     0.4003     1.8994     2.7994     3.8002    31.3400    22.1100    13.8400     6.4800    -5.6200   -10.4100   -14.3900   -16.8000     1.1383     5.2500     4.800
      4    -0.0000    -0.0000     4.4700     0.4500      5.014      3.000  11001.000      5.000    94.1214   143.9648   -72.0704     0.4200    -1.0000    29.1560     0.0000     0.0000    25.3700    42.7124    -1.0000    -1.5000     0.0000     0.0000     0.0000     0.0000    17.0000     8.0000     8.0000    17.0000     0.0000     0.0000   142.0306   -75.9388     0.0000    -4.2998    -2.9995    -1.8994    -0.6005     0.4003     1.8994     2.7994     3.8002    31.3400    22.1100    13.8400     6.4800    -5.6200   -10.4100   -14.3900   -16.8000     1.1358     5.2500     4.800
      5    -0.0000    -0.0000     4.4600     0.4500      5.036      4.000  11001.000      5.000    94.1214   143.9648   -72.0704     0.4200    -1.0000    29.1560     0.0000     0.0000    25.3300    42.6118    -1.0000    -1.5000     0.0000     0.0000     0.0000     0.0000    17.0000     8.0000     8.0000    17.0000     0.0000     0.0000   142.0306   -75.9388     0.0000    -4.2998    -2.9995    -1.8994    -0.6005     0.4003     1.8994     2.7994     3.8002    31.3400    22.1100    13.8400     6.4800    -5.6200   -10.4100   -14.3900   -16.8000     1.1332     5.2500     4.800
      6    -0.0000    -0.0000     4.4500     0.4500      5.086      2.000  11001.000      5.000    94.1214   143.9648   -72.0704     0.4200    -1.0000    29.1560     0.0000     0.0000    25.2875    42.5112    -1.0000    -1.5000     0.0000     0.0000     0.0000     0.0000    17.0000     8.0000     8.0000    17.0000     0.0000     0.0000   142.0306   -75.9388     0.0000    -4.2998    -2.9995    -1.8994    -0.6005     0.4003     1.8994     2.7994     3.8002    31.3400    22.1100    13.8400     6.4800    -5.6200   -10.4100   -14.3900   -16.8000     1.1307     5.2500     4.800
      7    -0.0000    -0.0000     4.4400     0.4500      5.102      1.000  11001.000      5.000    94.1214   143.9648   -72.0704     0.4200    -1.0000    29.1560     0.0000     0.0000    25.2450    42.4106    -1.0000    -1.5000     0.0000     0.0000     0.0000     0.0000    17.0000     8.0000     8.0000    17.0000     0.0000     0.0000   142.0306   -75.9388     0.0000    -4.2998    -2.9995    -1.8994    -0.6005     0.4003     1.8994     2.7994     3.8002    31.3400    22.1100    13.8400     6.4800    -5.6200   -10.4100   -14.3900   -16.8000     1.1281     5.2500     4.800
      8     0.0000    -0.0000     4.4300     0.4500      4.995      2.000  11001.000      5.000    94.1214   143.9648   -72.0704     0.4200    -1.0000    29.1560     0.0000     0.0000    25.2025    42.3102    -1.0000    -1.5000     0.0000     0.0000     0.0000     0.0000    17.0000     8.0000     8.0000    17.0000     0.0000     0.0000   142.0306   -75.9388     0.0000    -4.2998    -2.9995    -1.8994    -0.6005     0.4003     1.8994     2.7994     3.8002    31.3400    22.1100    13.8400     6.4800    -5.6200   -10.4100   -14.3900   -16.8000     1.1256     5.2500     4.800
      9    -0.0000    -0.0000     4.4200     0.4500      5.040      2.000  11001.000      5.000    94.1214   143.9648   -72.0704     0.4200    -1.0000    29.1560     0.0000     0.0000    25.1625    42.2097    -1.0000    -1.5000     0.0000     0.0000     0.0000     0.0000    17.0000     8.0000     8.0000    17.0000     0.0000     0.0000   142.0306   -75.9388     0.0000    -4.2998    -2.9995    -1.8994    -0.6005     0.4003     1.8994     2.7994     3.8002    31.3400    22.1100    13.8400     6.4800    -5.6200   -10.4100   -14.3900   -16.8000     1.1231     5.2500     4.800
     10    -0.0000    -0.0000     4.4100     0.4500      5.111      1.000  11001.000      5.000    94.1214   143.9648   -72.0704     0.4200    -1.0000    29.1560     0.0000     0.0000    25.1200    42.1092    -1.0000    -1.5000     0.0000     0.0000     0.0000     0.0000    17.0000     8.0000     8.0000    17.0000     0.0000     0.0000   142.0306   -75.9388     0.0000    -4.2998    -2.9995    -1.8994    -0.6005     0.4003     1.8994     2.7994     3.8002    31.3400    22.1100    13.8400     6.4800    -5.6200   -10.4100   -14.3900   -16.8000     1.1205     5.2500     4.800
     11     0.0000    -0.0000     4.4000     0.4500      5.074      3.000  11001.000      5.000    94.1214   143.9648   -72.0704     0.4200    -1.0000    29.1560     0.0000     0.0000    25.0775    42.0088    -1.0000    -1.5000     0.0000     0.0000     0.0000     0.0000    17.0000     8.0000     8.0000    17.0000     0.0000     0.0000   142.0306   -75.9388     0.0000    -4.2998    -2.9995    -1.8994    -0.6005     0.4003     1.8994     2.7994     3.8002    31.3400    22.1100    13.8400     6.4800    -5.6200   -10.4100   -14.3900   -16.8000     1.1180     5.2500     4.800
     12    -0.0000    -0.0000     4.3900     0.4500      4.985      3.000  11001.000      5.000    94.1214   143.9648   -72.0704     0.4200    -1.0000    29.1560     0.0000     0.0000    25.0375    41.9085    -1.0000    -1.5000     0.0000     0.0000     0.0000     0.0000    17.0000     8.0000     8.0000    17.0000     0.0000     0.0000   142.0306   -75.9388     0.0000    -4.2998    -2.9995    -1.8994    -0.6005     0.4003     1.8994     2.7994     3.8002    31.3400    22.1100    13.8400     6.4800    -5.6200   -10.4100   -14.3900   -16.8000     1.1154     5.2500     4.800
     13     0.0000    -0.0000     4.3800     0.4500      4.997      1.000  11001.000      5.000    94.1214   143.9648   -72.0704     0.4200    -1.0000    29.1560     0.0000     0.0000    24.9950    41.8081    -1.0000    -1.5000     0.0000     0.0000     0.0000     0.0000    17.0000     8.0000     8.0000    17.0000     0.0000     0.0000   142.0306   -75.9388     0.0000    -4.2998    -2.9995    -1.8994    -0.6005     0.4003     1.8994     2.7994     3.8002    31.3400    22.1100    13.8400     6.4800    -5.6200   -10.4100   -14.3900   -16.8000     1.1129     5.2500     4.800
     14    -0.0000    -0.0000     4.3700     0.4500      5.009      1.000  11001.000      5.000    94.1214   143.9648   -72.0704     0.4200    -1.0000    29.1560     0.0000     0.0000    24.9550    41.7078    -1.0000    -1.5000     0.0000     0.0000     0.0000     0.0000    17.0000     8.0000     8.0000    17.0000     0.0000     0.0000   142.0306   -75.9388     0.0000    -4.2998    -2.9995    -1.8994    -0.6005     0.4003     1.8994     2.7994     3.8002    31.3400    22.1100    13.8400     6.4800    -5.6200   -10.4100   -14.3900   -16.8000     1.1104     5.2500     4.800
     15     0.0000    -0.0000     4.3600     0.4500      5.082      2.000  11001.000      5.000    94.1214   143.9648   -72.0704     0.4200    -1.0000    29.1560     0.0000     0.0000    24.9125    41.6076    -1.0000    -1.5000     0.0000     0.0000     0.0000     0.0000    17.0000     8.0000     8.0000    17.0000     0.0000     0.0000   142.0306   -75.9388     0.0000    -4.2998    -2.9995    -1.8994    -0.6005     0.4003     1.8994     2.7994     3.8002    31.3400    22.1100    13.8400     6.4800    -5.6200   -10.4100   -14.3900   -16.8000     1.1078     5.2500     4.800
     16     0.0001    -0.0000     4.3500     0.4500      5.138      4.000  11001.000      5.000    94.1214   143.9648   -72.0704     0.4200    -1.0000    29.1560     0.0000     0.0000    24.8675    41.5073    -1.0000    -1.5000     0.0000     0.0000     0.0000     0.0000    17.0000     8.0000     8.0000    17.0000     0.0000     0.0000   142.0306   -75.9388     0.0000    -4.2998    -2.9995    -1.8994    -0.6005     0.4003     1.8994     2.7994     3.8002    31.3400    22.1100    13.8400     6.4800    -5.6200   -10.4100   -14.3900   -16.8000     1.1053     5.2500     4.800
     17    -0.0000    -0.0000     4.3400     0.4500      5.122      0.000  11001.000      5.000    94.1214   143.9648   -72.0704     0.4200    -1.0000    29.1560     0.0000     0.0000    24.8325    41.4071    -1.0000    -1.5000     0.0000     0.0000     0.0000     0.0000    17.0000     8.0000     8.0000    17.0000     0.0000     0.0000   142.0306   -75.9388     0.0000    -4.2998    -2.9995    -1.8994    -0.6005     0.4003     1.8994     2.7994     3.8002    31.3400    22.1100    13.8400     6.4800    -5.6200   -10.4100   -14.3900   -16.8000     1.1027     5.2500     4.800
     18    -0.0000    -0.0000     4.3300     0.4500      5.074      1.000  11001.000      5.000    94.1214   143.9648   -72.0704     0.4200    -1.0000    29.1560     0.0000     0.0000    24.7925    41.3070    -1.0000    -1.5000     0.0000     0.0000     0.0000     0.0000    17.0000     8.0000     8.0000    17.0000     0.0000     0.0000   142.0306   -75.9388     0.0000    -4.2998    -2.9995    -1.8994    -0.6005     0.4003     1.8994     2.7994     3.8002    31.3400    22.1100    13.8400     6.4800    -5.6200   -10.4100   -14.3900   -16.8000     1.1002     5.2500     4.800
     19     0.0000    -0.0000     4.3200     0.4500      5.041      1.000  11001.000      5.000    94.1214   143.9648   -72.0704     0.4200    -1.0000    29.1560     0.0000     0.0000    24.7450    41.2068    -1.0000    -1.5000     0.0000     0.0000     0.0000     0.0000    17.0000     8.0000     8.0000    17.0000     0.0000     0.0000   142.0306   -75.9388     0.0000    -4.2998    -2.9995    -1.8994    -0.6005     0.4003     1.8994     2.7994     3.8002    31.3400    22.1100    13.8400     6.4800    -5.6200   -10.4100   -14.3900   -16.8000     1.0977     5.2500     4.800
     20    -0.0000    -0.0000     4.3100     0.4500      4.977      1.000  11001.000      5.000    94.1214   143.9648   -72.0704     0.4200    -1.0000    29.1560     0.0000     0.0000    24.7100    41.1067    -1.0000    -1.5000     0.0000     0.0000     0.0000     0.0000    17.0000     8.0000     8.0000    17.0000     0.0000     0.0000   142.0306   -75.9388     0.0000    -4.2998    -2.9995    -1.8994    -0.6005     0.4003     1.8994     2.7994     3.8002    31.3400    22.1100    13.8400     6.4800    -5.6200   -10.4100   -14.3900   -16.8000     1.0951     5.2500     4.800
     21     0.0000    -0.0000     4.3000     0.4500      5.081      5.000  11001.000      5.000    94.1214   143.9648   -72.0704     0.4200    -1.0000    29.1560     0.0000     0.0000    24.6650    41.0066    -1.0000    -1.5000     0.0000     0.0000     0.0000     0.0000    17.0000     8.0000     8.0000    17.0000     0.0000     0.0000   142.0306   -75.9388     0.0000    -4.2998    -2.9995    -1.8994    -0.6005     0.4003     1.8994     2.7994     3.8002    31.3400    22.1100    13.8400     6.4800    -5.6200   -10.4100   -14.3900   -16.8000     1.0926     5.2500     4.800
     22     0.0000    -0.0000     4.2900     0.4500      5.047      1.000  11001.000      5.000    94.1214   143.9648   -72.0704     0.4200    -1.0000    29.1560     0.0000     0.0000    24.6250    40.9066    -1.0000    -1.5000     0.0000     0.0000     0.0000     0.0000    17.0000     8.0000     8.0000    17.0000     0.0000     0.0000   142.0306   -75.9388     0.0000    -4.2998    -2.9995    -1.8994    -0.6005     0.4003     1.8994     2.7994     3.8002    31.3400    22.1100    13.8400     6.4800    -5.6200   -10.4100   -14.3900   -16.8000     1.0900     5.2500     4.800
     23    -0.0000    -0.0000     4.2800     0.4500      5.081      3.000  11001.000      5.000    94.1214   143.9648   -72.0704     0.4200    -1.0000    29.1560     0.0000     0.0000    24.5850    40.8066    -1.0000    -1.5000     0.0000     0.0000     0.0000     0.0000    17.0000     8.0000     8.0000    17.0000     0.0000     0.0000   142.0306   -75.9388     0.0000    -4.2998    -2.9995    -1.8994    -0.6005     0.4003     1.8994     2.7994     3.8002    31.3400    22.1100    13.8400     6.4800    -5.6200   -10.4100   -14.3900   -16.8000     1.0875     5.2500     4.800
     24    -0.0000    -0.0000     4.2700     0.4500      5.060      3.000  11001.000      5.000    94.1214   143.9648   -72.0704     0.4200    -1.0000    29.1560     0.0000     0.0000    24.5450    40.7066    -1.0000    -1.5000     0.0000     0.0000     0.0000     0.0000    17.0000     8.0000     8.0000    17.0000     0.0000     0.0000   142.0306   -75.9388     0.0000    -4.2998    -2.9995    -1.8994    -0.6005     0.4003     1.8994     2.7994     3.8002    31.3400    22.1100    13.8400     6.4800    -5.6200   -10.4100   -14.3900   -16.8000     1.0850     5.2500     4.800
     25     0.0000    -0.0000     4.2600     0.4500      5.047      2.000  11001.000      5.000    94.1214   143.9648   -72.0704     0.4200    -1.0000    29.1560     0.0000     0.0000    24.5025    40.6066    -1.0000    -1.5000     0.0000     0.0000     0.0000     0.0000    17.0000     8.0000     8.0000    17.0000     0.0000     0.0000   142.0306   -75.9388     0.0000    -4.2998    -2.9995    -1.8994    -0.6005     0.4003     1.8994     2.7994     3.8002    31.3400    22.1100    13.8400     6.4800    -5.6200   -10.4100   -14.3900   -16.8000     1.0824     5.2500     4.800
     26    -0.0000    -0.0000     4.2500     0.4500      5.082      3.000  11001.000      5.000    94.1214   143.9648   -72.0704     0.4200    -1.0000    29.1560     0.0000     0.0000    24.4625    40.5067    -1.0000    -1.5000     0.0000     0.0000     0.0000     0.0000    17.0000     8.0000     8.0000    17.0000     0.0000     0.0000   142.0306   -75.9388     0.0000    -4.2998    -2.9995    -1.8994    -0.6005     0.4003     1.8994     2.7994     3.8002    31.3400    22.1100    13.8400     6.4800    -5.6200   -10.4100   -14.3900   -16.8000     1.0799     5.2500     4.800
     27     0.0000    -0.0000     4.2400     0.4500      5.036      1.000  11001.000      5.000    94.1214   143.9648   -72.0704     0.4200    -1.0000    29.1560     0.0000     0.0000    24.4200    40.4068    -1.0000    -1.5000     0.0000     0.0000     0.0000     0.0000    17.0000     8.0000     8.0000    17.0000     0.0000     0.0000   142.0306   -75.9388     0.0000    -4.2998    -2.9995    -1.8994    -0.6005     0.4003     1.8994     2.7994     3.8002    31.3400    22.1100    13.8400     6.4800    -5.6200   -10.4100   -14.3900   -16.8000     1.0773     5.2500     4.800
     28    -0.0000    -0.0000     4.2300     0.4500      5.019      1.000  11001.000      5.000    94.1214   143.9648   -72.0704     0.4200    -1.0000    29.1560     0.0000     0.0000    24.3825    40.3070    -1.0000    -1.5000     0.0000     0.0000     0.0000     0.0000    17.0000     8.0000     8.0000    17.0000     0.0000     0.0000   142.0306   -75.9388     0.0000    -4.2998    -2.9995    -1.8994    -0.6005     0.4003     1.8994     2.7994     3.8002    31.3400    22.1100    13.8400     6.4800    -5.6200   -10.4100   -14.3900   -16.8000     1.0748     5.2500     4.800
     29     0.0000    -0.0000     4.2200     0.4500      5.077      2.000  11001.000      5.000    94.1214   143.9648   -72.0704     0.4200    -1.0000    29.1560     0.0000     0.0000    24.3400    40.2071    -1.0000    -1.5000     0.0000     0.0000     0.0000     0.0000    17.0000     8.0000     8.0000    17.0000     0.0000     0.0000   142.0306   -75.9388     0.0000    -4.2998    -2.9995    -1.8994    -0.6005     0.4003     1.8994     2.7994     3.8002    31.3400    22.1100    13.8400     6.4800    -5.6200   -10.4100   -14.3900   -16.8000     1.0722     5.2500     4.800
     30     0.0000    -0.0000     4.2100     0.4500      5.133      2.000  11001.000      5.000    94.1214   143.9648   -72.0704     0.4200    -1.0000    29.1560     0.0000     0.0000    24.3000    40.1073    -1.0000    -1.5000     0.0000     0.0000     0.0000     0.0000    17.0000     8.0000     8.0000    17.0000     0.0000     0.0000   142.0306   -75.9388     0.0000    -4.2998    -2.9995    -1.8994    -0.6005     0.4003     1.8994     2.7994     3.8002    31.3400    22.1100    13.8400     6.4800    -5.6200   -10.4100   -14.3900   -16.8000     1.0697     5.2500     4.800
     31    -0.0000    -0.0000     4.2000     0.4500      5.018      3.000  11001.000      5.000    94.1214   143.9648   -72.0704     0.4200    -1.0000    29.1560     0.0000     0.0000    24.2625    40.0076    -1.0000    -1.5000     0.0000     0.0000     0.0000     0.0000    17.0000     8.0000     8.0000    17.0000     0.0000     0.0000   142.0306   -75.9388     0.0000    -4.2998    -2.9995    -1.8994    -0.6005     0.4003     1.8994     2.7994     3.8002    31.3400    22.1100    13.8400     6.4800    -5.6200   -10.4100   -14.3900   -16.8000     1.0672     5.2500     4.800
     32    -0.0000    -0.0000     4.1900     0.4500      5.122      1.000  11001.000      5.000    94.1214   143.9648   -72.0704     0.4200    -1.0000    29.1560     0.0000     0.0000    24.2200    39.9078    -1.0000    -1.5000     0.0000     0.0000     0.0000     0.0000    17.0000     8.0000     8.0000    17.0000     0.0000     0.0000   142.0306   -75.9388     0.0000    -4.2998    -2.9995    -1.8994    -0.6005     0.4003     1.8994     2.7994     3.8002    31.3400    22.1100    13.8400     6.4800    -5.6200   -10.4100   -14.3900   -16.8000     1.0646     5.2500     4.800
     33    -0.0000    -0.0000     4.1800     0.4500      5.087      0.000  11001.000      5.000    94.1214   143.9648   -72.0704     0.4200    -1.0000    29.1560     0.0000     0.0000    24.1800    39.8081    -1.0000    -1.5000     0.0000     0.0000     0.0000     0.0000    17.0000     8.0000     8.0000    17.0000     0.0000     0.0000   142.0306   -75.9388     0.0000    -4.2998    -2.9995    -1.8994    -0.6005     0.4003     1.8994     2.7994     3.8002    31.3400    22.1100    13.8400     6.4800    -5.6200   -10.4100   -14.3900   -16.8000     1.0621     5.2500     4.800
     34    -0.0000    -0.0000     4.1700     0.4500      5.073      3.000  11001.000      5.000    94.1214   143.9648   -72.0704     0.4200    -1.0000    29.1560     0.0000     0.0000    24.1400    39.7084    -1.0000    -1.5000     0.0000     0.0000     0.0000     0.0000    17.0000     8.0000     8.0000    17.0000     0.0000     0.0000   142.0306   -75.9388     0.0000    -4.2998    -2.9995    -1.8994    -0.6005     0.4003     1.8994     2.7994     3.8002    31.3400    22.1100    13.8400     6.4800    -5.6200   -10.4100   -14.3900   -16.8000     1.0595     5.2500     4.800
     35     0.0000    -0.0000     4.1600     0.4500      5.033      1.000  11001.000      5.000    94.1214   143.9648   -72.0704     0.4200    -1.0000    29.1560     0.0000     0.0000    24.0975    39.6088    -1.0000    -1.5000     0.0000     0.0000     0.0000     0.0000    17.0000     8.0000     8.0000    17.0000     0.0000     0.0000   142.0306   -75.9388     0.0000    -4.2998    -2.9995    -1.8994    -0.6005     0.4003     1.8994     2.7994     3.8002    31.3400    22.1100    13.8400     6.4800    -5.6200   -10.4100   -14.3900   -16.8000     1.0570     5.2500     4.800
     36    -0.0000    -0.0000     4.1500     0.4500      5.071      1.000  11001.000      5.000    94.1214   143.9648   -72.0704     0.4200    -1.0000    29.1560     0.0000     0.0000    24.0600    39.5092    -1.0000    -1.5000     0.0000     0.0000     0.0000     0.0000    17.0000     8.0000     8.0000    17.0000     0.0000     0.0000   142.0306   -75.9388     0.0000    -4.2998    -2.9995    -1.8994    -0.6005     0.4003     1.8994     2.7994     3.8002    31.3400    22.1100    13.8400     6.4800    -5.6200   -10.4100   -14.3900   -16.8000     1.0545     5.2500     4.800
     37     0.0000    -0.0000     4.1400     0.4500      5.025      0.000  11001.000      5.000    94.1214   143.9648   -72.0704     0.4200    -1.0000    29.1560     0.0000     0.0000    24.0175    39.4096    -1.0000    -1.5000     0.0000     0.0000     0.0000     0.0000    17.0000     8.0000     8.0000    17.0000     0.0000     0.0000   142.0306   -75.9388     0.0000    -4.2998    -2.9995    -1.8994    -0.6005     0.4003     1.8994     2.7994     3.8002    31.3400    22.1100    13.8400     6.4800    -5.6200   -10.4100   -14.3900   -16.8000     1.0519     5.2500     4.800
     38    -0.0000    -0.0000     4.1300     0.4500      5.076      0.000  11001.000      5.000    94.1214   143.9648   -72.0704     0.4200    -1.0000    29.1560     0.0000     0.0000    23.9800    39.3100    -1.0000    -1.5000     0.0000     0.0000     0.0000     0.0000    17.0000     8.0000     8.0000    17.0000     0.0000     0.0000   142.0306   -75.9388     0.0000    -4.2998    -2.9995    -1.8994    -0.6005     0.4003     1.8994     2.7994     3.8002    31.3400    22.1100    13.8400     6.4800    -5.6200   -10.4100   -14.3900   -16.8000     1.0494     5.2500     4.800
     39     0.0000    -0.0000     4.1200     0.4500      5.038      2.000  11001.000      5.000    94.1214   143.9648   -72.0704     0.4200    -1.0000    29.1560     0.0000     0.0000    23.9350    39.2105    -1.0000    -1.5000     0.0000     0.0000     0.0000     0.0000    17.0000     8.0000     8.0000    17.0000     0.0000     0.0000   142.0306   -75.9388     0.0000    -4.2998    -2.9995    -1.8994    -0.6005     0.4003     1.8994     2.7994     3.8002    31.3400    22.1100    13.8400     6.4800    -5.6200   -10.4100   -14.3900   -16.8000     1.0468     5.2500     4.800
     40    -0.0000    -0.0000     4.1100     0.4500      5.056      2.000  11001.000      5.000    94.1214   143.9648   -72.0704     0.4200    -1.0000    29.1560     0.0000     0.0000    23.9025    39.1110    -1.0000    -1.5000     0.0000     0.0000     0.0000     0.0000    17.0000     8.0000     8.0000    17.0000     0.0000     0.0000   142.0306   -75.9388     0.0000    -4.2998    -2.9995    -1.8994    -0.6005     0.4003     1.8994     2.7994     3.8002    31.3400    22.1100    13.8400     6.4800    -5.6200   -10.4100   -14.3900   -16.8000     1.0443     5.2500     4.800
     41     0.0000    -0.0000     4.1000     0.4500      5.022      3.000  11001.000      5.000    94.1214   143.9648   -72.0704     0.4200    -1.0000    29.1560     0.0000     0.0000    23.8575    39.0116    -1.0000    -1.5000     0.0000     0.0000     0.0000     0.0000    17.0000     8.0000     8.0000    17.0000     0.0000     0.0000   142.0306   -75.9388     0.0000    -4.2998    -2.9995    -1.8994    -0.6005     0.4003     1.8994     2.7994     3.8002    31.3400    22.1100    13.8400     6.4800    -5.6200   -10.4100   -14.3900   -16.8000     1.0418     5.2500     4.800
     42    -0.0000    -0.0000     4.0900     0.4500      5.053      2.000  11001.000      5.000    94.1214   143.9648   -72.0704     0.4200    -1.0000    29.1560     0.0000     0.0000    23.8200    38.9121    -1.0000    -1.5000     0.0000     0.0000     0.0000     0.0000    17.0000     8.0000     8.0000    17.0000     0.0000     0.0000   142.0306   -75.9388     0.0000    -4.2998    -2.9995    -1.8994    -0.6005     0.4003     1.8994     2.7994     3.8002    31.3400    22.1100    13.8400     6.4800    -5.6200   -10.4100   -14.3900   -16.8000     1.0392     5.2500     4.800
     43     0.0000    -0.0000     4.0800     0.4500      5.014      5.000  11001.000      5.000    94.1214   143.9648   -72.0704     0.4200    -1.0000    29.1560     0.0000     0.0000    23.7775    38.8127    -1.0000    -1.5000     0.0000     0.0000     0.0000     0.0000    17.0000     8.0000     8.0000    17.0000     0.0000     0.0000   142.0306   -75.9388     0.0000    -4.2998    -2.9995    -1.8994    -0.6005     0.4003     1.8994     2.7994     3.8002    31.3400    22.1100    13.8400     6.4800    -5.6200   -10.4100   -14.3900   -16.8000     1.0367     5.2500     4.800
     44    -0.0000    -0.0000     4.0700     0.4500      5.061      1.000  11001.000      5.000    94.1214   143.9648   -72.0704     0.4200    -1.0000    29.1560     0.0000     0.0000    23.7425    38.7133    -1.0000    -1.5000     0.0000     0.0000     0.0000     0.0000    17.0000     8.0000     8.0000    17.0000     0.0000     0.0000   142.0306   -75.9388     0.0000    -4.2998    -2.9995    -1.8994    -0.6005     0.4003     1.8994     2.7994     3.8002    31.3400    22.1100    13.8400     6.4800    -5.6200   -10.4100   -14.3900   -16.8000     1.0341     5.2500     4.800
     45     0.0000    -0.0000     4.0600     0.4500      5.054      4.000  11001.000      5.000    94.1214   143.9648   -72.0704     0.4200    -1.0000    29.1560     0.0000     0.0000    23.7000    38.6140    -1.0000    -1.5000     0.0000     0.0000     0.0000     0.0000    17.0000     8.0000     8.0000    17.0000     0.0000     0.0000   142.0306   -75.9388     0.0000    -4.2998    -2.9995    -1.8994    -0.6005     0.4003     1.8994     2.7994     3.8002    31.3400    22.1100    13.8400     6.4800    -5.6200   -10.4100   -14.3900   -16.8000     1.0316     5.2500     4.800
     46     0.0000    -0.0000     4.0500     0.4500      5.007      4.000  11001.000      5.000    94.1214   143.9648   -72.0704     0.4200    -1.0000    29.1560     0.0000     0.0000    23.6600    38.5147    -1.0000    -1.5000     0.0000     0.0000     0.0000     0.0000    17.0000     8.0000     8.0000    17.0000     0.0000     0.0000   142.0306   -75.9388     0.0000    -4.2998    -2.9995    -1.8994    -0.6005     0.4003     1.8994     2.7994     3.8002    31.3400    22.1100    13.8400     6.4800    -5.6200   -10.4100   -14.3900   -16.8000     1.0291     5.2500     4.800
     47    -0.0000    -0.0000     4.0400     0.4500      5.039      3.000  11001.000      5.000    94.1214   143.9648   -72.0704     0.4200    -1.0000    29.1560     0.0000     0.0000    23.6225    38.4154    -1.0000    -1.5000     0.0000     0.0000     0.0000     0.0000    17.0000     8.0000     8.0000    17.0000     0.0000     0.0000   142.0306   -75.9388     0.0000    -4.2998    -2.9995    -1.8994    -0.6005     0.4003     1.8994     2.7994     3.8002    31.3400    22.1100    13.8400     6.4800    -5.6200   -10.4100   -14.3900   -16.8000     1.0265     5.2500     4.800
     48    -0.0000    -0.0000     4.0300     0.4500      5.017      1.000  11001.000      5.000    94.1214   143.9648   -72.0704     0.4200    -1.0000    29.1560     0.0000     0.0000    23.5825    38.3161    -1.0000    -1.5000     0.0000     0.0000     0.0000     0.0000    17.0000     8.0000     8.0000    17.0000     0.0000     0.0000   142.0306   -75.9388     0.0000    -4.2998    -2.9995    -1.8994    -0.6005     0.4003     1.8994     2.7994     3.8002    31.3400    22.1100    13.8400     6.4800    -5.6200   -10.4100   -14.3900   -16.8000     1.0240     5.2500     4.800
     49     0.0000    -0.0000     4.0200     0.4500      5.094      3.000  11001.000      5.000    94.1214   143.9648   -72.0704     0.4200    -1.0000    29.1560     0.0000     0.0000    23.5425    38.2169    -1.0000    -1.5000     0.0000     0.0000     0.0000     0.0000    17.0000     8.0000     8.0000    17.0000     0.0000     0.0000   142.0306   -75.9388     0.0000    -4.2998    -2.9995    -1.8994    -0.6005     0.4003     1.8994     2.7994     3.8002    31.3400    22.1100    13.8400     6.4800    -5.6200   -10.4100   -14.3900   -16.8000     1.0214     5.2500     4.800
     50     0.0000    -0.0000     4.0100     0.4500      4.998      1.000  11001.000      5.000    94.1214   143.9648   -72.0704     0.4200    -1.0000    29.1560     0.0000     0.0000    23.5025    38.1177    -1.0000    -1.5000     0.0000     0.0000     0.0000     0.0000    17.0000     8.0000     8.0000    17.0000     0.0000     0.0000   142.0306   -75.9388     0.0000    -4.2998    -2.9995    -1.8994    -0.6005     0.4003     1.8994     2.7994     3.8002    31.3400    22.1100    13.8400     6.4800    -5.6200   -10.4100   -14.3900   -16.8000     1.0189     5.2500     4.800
     51    -0.0000    -0.0000     4.0000     0.4500      5.013      0.000  11001.000      5.000    94.1214   143.9648   -72.0704     0.4200    -1.0000    29.1560     0.0000     0.0000    23.4650    38.0185    -1.0000    -1.5000     0.0000     0.0000     0.0000     0.0000    17.0000     8.0000     8.0000    17.0000     0.0000     0.0000   142.0306   -75.9388     0.0000    -4.2998    -2.9995    -1.8994    -0.6005     0.4003     1.8994     2.7994     3.8002    31.3400    22.1100    13.8400     6.4800    -5.6200   -10.4100   -14.3900   -16.8000     1.0163     5.2500     4.800
     52     0.0000    -0.0000     3.9900     0.4500      5.060      2.000  11001.000      5.000    94.1214   143.9648   -72.0704     0.4200    -1.0000    29.1560     0.0000     0.0000    23.4250    37.9194    -1.0000    -1.5000     0.0000     0.0000     0.0000     0.0000    17.0000     8.0000     8.0000    17.0000     0.0000     0.0000   142.0306   -75.9388     0.0000    -4.2998    -2.9995    -1.8994    -0.6005     0.4003     1.8994     2.7994     3.8002    31.3400    22.1100    13.8400     6.4800    -5.6200   -10.4100   -14.3900   -16.8000     1.0138     5.2500     4.800
     53    -0.0000    -0.0000     3.9800     0.4500      5.058      2.000  11001.000      5.000    94.1214   143.9648   -72.0704     0.4200    -1.0000    29.1560     0.0000     0.0000    23.3875    37.8202    -1.0000    -1.5000     0.0000     0.0000     0.0000     0.0000    17.0000     8.0000     8.0000    17.0000     0.0000     0.0000   142.0306   -75.9388     0.0000    -4.2998    -2.9995    -1.8994    -0.6005     0.4003     1.8994     2.7994     3.8002    31.3400    22.1100    13.8400     6.4800    -5.6200   -10.4100   -14.3900   -16.8000     1.0113     5.2500     4.800
     54     0.0000    -0.0000     3.9700     0.4500      5.094      7.000  11001.000      5.000    94.1214   143.9648   -72.0704     0.4200    -1.0000    29.1560     0.0000     0.0000    23.3450    37.7212    -1.0000    -1.5000     0.0000     0.0000     0.0000     0.0000    17.0000     8.0000     8.0000    17.0000     0.0000     0.0000   142.0306   -75.9388     0.0000    -4.2998    -2.9995    -1.8994    -0.6005     0.4003     1.8994     2.7994     3.8002    31.3400    22.1100    13.8400     6.4800    -5.6200   -10.4100   -14.3900   -16.8000     1.0087     5.2500     4.800
     55     0.0000    -0.0000     3.9600     0.4500      5.052      2.000  11001.000      5.000    94.1214   143.9648   -72.0704     0.4200    -1.0000    29.1560     0.0000     0.0000    23.3075    37.6221    -1.0000    -1.5000     0.0000     0.0000     0.0000     0.0000    17.0000     8.0000     8.0000    17.0000     0.0000     0.0000   142.0306   -75.9388     0.0000    -4.2998    -2.9995    -1.8994    -0.6005     0.4003     1.8994     2.7994     3.8002    31.3400    22.1100    13.8400     6.4800    -5.6200   -10.4100   -14.3900   -16.8000     1.0062     5.2500     4.800
     56    -0.0000    -0.0000     3.9500     0.4500      5.012      2.000  11001.000      5.000    94.1214   143.9648   -72.0704     0.4200    -1.0000    29.1560     0.0000     0.0000    23.2725    37.5230    -1.0000    -1.5000     0.0000     0.0000     0.0000     0.0000    17.0000     8.0000     8.0000    17.0000     0.0000     0.0000   142.0306   -75.9388     0.0000    -4.2998    -2.9995    -1.8994    -0.6005     0.4003     1.8994     2.7994     3.8002    31.3400    22.1100    13.8400     6.4800    -5.6200   -10.4100   -14.3900   -16.8000     1.0036     5.2500     4.800
     57     0.0000    -0.0000     3.9400     0.4500      5.106      3.000  11001.000      5.000    94.1214   143.9648   -72.0704     0.4200    -1.0000    29.1560     0.0000     0.0000    23.2300    37.4240    -1.0000    -1.5000     0.0000     0.0000     0.0000     0.0000    17.0000     8.0000     8.0000    17.0000     0.0000     0.0000   142.0306   -75.9388     0.0000    -4.2998    -2.9995    -1.8994    -0.6005     0.4003     1.8994     2.7994     3.8002    31.3400    22.1100    13.8400     6.4800    -5.6200   -10.4100   -14.3900   -16.8000     1.0011     5.2500     4.800
     58     0.0000    -0.0000     3.9300     0.4500      5.160      1.000  11001.000      5.000    94.1214   143.9648   -72.0704     0.4200    -1.0000    29.1560     0.0000     0.0000    23.1900    37.3251    -1.0000    -1.5000     0.0000     0.0000     0.0000     0.0000    17.0000     8.0000     8.0000    17.0000     0.0000     0.0000   142.0306   -75.9388     0.0000    -4.2998    -2.9995    -1.8994    -0.6005     0.4003     1.8994     2.7994     3.8002    31.3400    22.1100    13.8400     6.4800    -5.6200   -10.4100   -14.3900   -16.8000     0.9986     5.2500     4.800
     59     0.0000    -0.0000     3.9200     0.4500      5.063      3.000  11001.000      5.000    94.1214   143.9648   -72.0704     0.4200    -1.0000    29.1560     0.0000     0.0000    23.1525    37.2261    -1.0000    -1.5000     0.0000     0.0000     0.0000     0.0000    17.0000     8.0000     8.0000    17.0000     0.0000     0.0000   142.0306   -75.9388     0.0000    -4.2998    -2.9995    -1.8994    -0.6005     0.4003     1.8994     2.7994     3.8002    31.3400    22.1100    13.8400     6.4800    -5.6200   -10.4100   -14.3900   -16.8000     0.9960     5.2500     4.800
     60    -0.0000    -0.0000     3.9100     0.4500      4.975      2.000  11001.000      5.000    94.1214   143.9648   -72.0704     0.4200    -1.0000    29.1560     0.0000     0.0000    23.1150    37.1272    -1.0000    -1.5000     0.0000     0.0000     0.0000     0.0000    17.0000     8.0000     8.0000    17.0000     0.0000     0.0000   142.0306   -75.9388     0.0000    -4.2998    -2.9995    -1.8994    -0.6005     0.4003     1.8994     2.7994     3.8002    31.3400    22.1100    13.8400     6.4800    -5.6200   -10.4100   -14.3900   -16.8000     0.9935     5.2500     4.800
     61     0.0000    -0.0000     3.9000     0.4500      5.037      0.000  11001.000      5.000    94.1214   143.9648   -72.0704     0.4200    -1.0000    29.1560     0.0000     0.0000    23.0750    37.0283    -1.0000    -1.5000     0.0000     0.0000     0.0000     0.0000    17.0000     8.0000     8.0000    17.0000     0.0000     0.0000   142.0306   -75.9388     0.0000    -4.2998    -2.9995    -1.8994    -0.6005     0.4003     1.8994     2.7994     3.8002    31.3400    22.1100    13.8400     6.4800    -5.6200   -10.4100   -14.3900   -16.8000     0.9909     5.2500     4.800
     62     0.0000    -0.0000     3.8900     0.4500      4.990      1.000  11001.000      5.000    94.1214   143.9648   -72.0704     0.4200    -1.0000    29.1560     0.0000     0.0000    23.0375    36.9294    -1.0000    -1.5000     0.0000     0.0000     0.0000     0.0000    17.0000     8.0000     8.0000    17.0000     0.0000     0.0000   142.0306   -75.9388     0.0000    -4.2998    -2.9995    -1.8994    -0.6005     0.4003     1.8994     2.7994     3.8002    31.3400    22.1100    13.8400     6.4800    -5.6200   -10.4100   -14.3900   -16.8000     0.9884     5.2500     4.800
     63    -0.0000    -0.0000     3.8800     0.4500      5.061      2.000  11001.000      5.000    94.1214   143.9648   -72.0704     0.4200    -1.0000    29.1560     0.0000     0.0000    23.0000    36.8306    -1.0000    -1.5000     0.0000     0.0000     0.0000     0.0000    17.0000     8.0000     8.0000    17.0000     0.0000     0.0000   142.0306   -75.9388     0.0000    -4.2998    -2.9995    -1.8994    -0.6005     0.4003     1.8994     2.7994     3.8002    31.3400    22.1100    13.8400     6.4800    -5.6200   -10.4100   -14.3900   -16.8000     0.9859     5.2500     4.800
     64     0.0000    -0.0000     3.8700     0.4500      5.114      5.000  11001.000      5.000    94.1214   143.9648   -72.0704     0.4200    -1.0000    29.1560     0.0000     0.0000    22.9600    36.7318    -1.0000    -1.5000     0.0000     0.0000     0.0000     0.0000    17.0000     8.0000     8.0000    17.0000     0.0000     0.0000   142.0306   -75.9388     0.0000    -4.2998    -2.9995    -1.8994    -0.6005     0.4003     1.8994     2.7994     3.8002    31.3400    22.1100    13.8400     6.4800    -5.6200   -10.4100   -14.3900   -16.8000     0.9833     5.2500     4.800
     65    -0.0000    -0.0000     3.8600     0.4500      5.086      3.000  11001.000      5.000    94.1214   143.9648   -72.0704     0.4200    -1.0000    29.1560     0.0000     0.0000    22.9225    36.6330    -1.0000    -1.5000     0.0000     0.0000     0.0000     0.0000    17.0000     8.0000     8.0000    17.0000     0.0000     0.0000   142.0306   -75.9388     0.0000    -4.2998    -2.9995    -1.8994    -0.6005     0.4003     1.8994     2.7994     3.8002    31.3400    22.1100    13.8400     6.4800    -5.6200   -10.4100   -14.3900   -16.8000     0.9808     5.2500     4.800
     66    -0.0000    -0.0000     3.8500     0.4500      5.112      8.000  11001.000      5.000    94.1214   143.9648   -72.0704     0.4200    -1.0000    29.1560     0.0000     0.0000    22.8850    36.5342    -1.0000    -1.5000     0.0000     0.0000     0.0000     0.0000    17.0000     8.0000     8.0000    17.0000     0.0000     0.0000   142.0306   -75.9388     0.0000    -4.2998    -2.9995    -1.8994    -0.6005     0.4003     1.8994     2.7994     3.8002    31.3400    22.1100    13.8400     6.4800    -5.6200   -10.4100   -14.3900   -16.8000     0.9782     5.2500     4.800
     67     0.0000    -0.0000     3.8400     0.4500      5.015      3.000  11001.000      5.000    94.1214   143.9648   -72.0704     0.4200    -1.0000    29.1560     0.0000     0.0000    22.8450    36.4355    -1.0000    -1.5000     0.0000     0.0000     0.0000     0.0000    17.0000     8.0000     8.0000    17.0000     0.0000     0.0000   142.0306   -75.9388     0.0000    -4.2998    -2.9995    -1.8994    -0.6005     0.4003     1.8994     2.7994     3.8002    31.3400    22.1100    13.8400     6.4800    -5.6200   -10.4100   -14.3900   -16.8000     0.9757     5.2500     4.800
     68    -0.0000    -0.0000     3.8300     0.4500      5.068      1.000  11001.000      5.000    94.1214   143.9648   -72.0704     0.4200    -1.0000    29.1560     0.0000     0.0000    22.8100    36.3368    -1.0000    -1.5000     0.0000     0.0000     0.0000     0.0000    17.0000     8.0000     8.0000    17.0000     0.0000     0.0000   142.0306   -75.9388     0.0000    -4.2998    -2.9995    -1.8994    -0.6005     0.4003     1.8994     2.7994     3.8002    31.3400    22.1100    13.8400     6.4800    -5.6200   -10.4100   -14.3900   -16.8000     0.9732     5.2500     4.800
     69     0.0000    -0.0000     3.8200     0.4500      5.015      2.000  11001.000      5.000    94.1214   143.9648   -72.0704     0.4200    -1.0000    29.1560     0.0000     0.0000    22.7700    36.2381    -1.0000    -1.5000     0.0000     0.0000     0.0000     0.0000    17.0000     8.0000     8.0000    17.0000     0.0000     0.0000   142.0306   -75.9388     0.0000    -4.2998    -2.9995    -1.8994    -0.6005     0.4003     1.8994     2.7994     3.8002    31.3400    22.1100    13.8400     6.4800    -5.6200   -10.4100   -14.3900   -16.8000     0.9706     5.2500     4.800
     70    -0.0000    -0.0000     3.8100     0.4500      4.996      2.000  11001.000      5.000    94.1214   143.9648   -72.0704     0.4200    -1.0000    29.1560     0.0000     0.0000    22.7325    36.1394    -1.0000    -1.5000     0.0000     0.0000     0.0000     0.0000    17.0000     8.0000     8.0000    17.0000     0.0000     0.0000   142.0306   -75.9388     0.0000    -4.2998    -2.9995    -1.8994    -0.6005     0.4003     1.8994     2.7994     3.8002    31.3400    22.1100    13.8400     6.4800    -5.6200   -10.4100   -14.3900   -16.8000     0.9681     5.2500     4.800
     71    -0.0000    -0.0000     3.8000     0.4500      5.094      4.000  11001.000      5.000    94.1214   143.9648   -72.0704     0.4200    -1.0000    29.1560     0.0000     0.0000    22.6950    36.0408    -1.0000    -1.5000     0.0000     0.0000     0.0000     0.0000    17.0000     8.0000     8.0000    17.0000     0.0000     0.0000   142.0306   -75.9388     0.0000    -4.2998    -2.9995    -1.8994    -0.6005     0.4003     1.8994     2.7994     3.8002    31.3400    22.1100    13.8400     6.4800    -5.6200   -10.4100   -14.3900   -16.8000     0.9655     5.2500     4.800
     72    -0.0000    -0.0000     3.7900     0.4500      5.019      1.000  11001.000      5.000    94.1214   143.9648   -72.0704     0.4200    -1.0000    29.1560     0.0000     0.0000    22.6575    35.9422    -1.0000    -1.5000     0.0000     0.0000     0.0000     0.0000    17.0000     8.0000     8.0000    17.0000     0.0000     0.0000   142.0306   -75.9388     0.0000    -4.2998    -2.9995    -1.8994    -0.6005     0.4003     1.8994     2.7994     3.8002    31.3400    22.1100    13.8400     6.4800    -5.6200   -10.4100   -14.3900   -16.8000     0.9630     5.2500     4.800
     73     0.0000    -0.0000     3.7800     0.4500      5.085      3.000  11001.000      5.000    94.1214   143.9648   -72.0704     0.4200    -1.0000    29.1560     0.0000     0.0000    22.6175    35.8436    -1.0000    -1.5000     0.0000     0.0000     0.0000     0.0000    17.0000     8.0000     8.0000    17.0000     0.0000     0.0000   142.0306   -75.9388     0.0000    -4.2998    -2.9995    -1.8994    -0.6005     0.4003     1.8994     2.7994     3.8002    31.3400    22.1100    13.8400     6.4800    -5.6200   -10.4100   -14.3900   -16.8000     0.9604     5.2500     4.800
     74    -0.0000    -0.0000     3.7700     0.4500      5.066      3.000  11001.000      5.000    94.1214   143.9648   -72.0704     0.4200    -1.0000    29.1560     0.0000     0.0000    22.5825    35.7451    -1.0000    -1.5000     0.0000     0.0000     0.0000     0.0000    17.0000     8.0000     8.0000    17.0000     0.0000     0.0000   142.0306   -75.9388     0.0000    -4.2998    -2.9995    -1.8994    -0.6005     0.4003     1.8994     2.7994     3.8002    31.3400    22.1100    13.8400     6.4800    -5.6200   -10.4100   -14.3900   -16.8000     0.9579     5.2500     4.800
     75     0.0000    -0.0000     3.7600     0.4500      5.179      5.000  11001.000      5.000    94.1214   143.9648   -72.0704     0.4200    -1.0000    29.1560     0.0000     0.0000    22.5425    35.6466    -1.0000    -1.5000     0.0000     0.0000     0.0000     0.0000    17.0000     8.0000     8.0000    17.0000     0.0000     0.0000   142.0306   -75.9388     0.0000    -4.2998    -2.9995    -1.8994    -0.6005     0.4003     1.8994     2.7994     3.8002    31.3400    22.1100    13.8400     6.4800    -5.6200   -10.4100   -14.3900   -16.8000     0.9554     5.2500     4.800
     76     0.0000    -0.0000     3.7500     0.4500      5.046      2.000  11001.000      5.000    94.1214   143.9648   -72.0704     0.4200    -1.0000    29.1560     0.0000     0.0000    22.5050    35.5481    -1.0000    -1.5000     0.0000     0.0000     0.0000     0.0000    17.0000     8.0000     8.0000    17.0000     0.0000     0.0000   142.0306   -75.9388     0.0000    -4.2998    -2.9995    -1.8994    -0.6005     0.4003     1.8994     2.7994     3.8002    31.3400    22.1100    13.8400     6.4800    -5.6200   -10.4100   -14.3900   -16.8000     0.9528     5.2500     4.800
     77    -0.0000    -0.0000     3.7400     0.4500      4.948      2.000  11001.000      5.000    94.1214   143.9648   -72.0704     0.4200    -1.0000    29.1560     0.0000     0.0000    22.4700    35.4496    -1.0000    -1.5000     0.0000     0.0000     0.0000     0.0000    17.0000     8.0000     8.0000    17.0000     0.0000     0.0000   142.0306   -75.9388     0.0000    -4.2998    -2.9995    -1.8994    -0.6005     0.4003     1.8994     2.7994     3.8002    31.3400    22.1100    13.8400     6.4800    -5.6200   -10.4100   -14.3900   -16.8000     0.9503     5.2500     4.800
     78     0.0000    -0.0000     3.7300     0.4500      5.083      1.000  11001.000      5.000    94.1214   143.9648   -72.0704     0.4200    -1.0000    29.1560     0.0000     0.0000    22.4300    35.3512    -1.0000    -1.5000     0.0000     0.0000     0.0000     0.0000    17.0000     8.0000     8.0000    17.0000     0.0000     0.0000   142.0306   -75.9388     0.0000    -4.2998    -2.9995    -1.8994    -0.6005     0.4003     1.8994     2.7994     3.8002    31.3400    22.1100    13.8400     6.4800    -5.6200   -10.4100   -14.3900   -16.8000     0.9477     5.2500     4.800
     79    -0.0000    -0.0000     3.7200     0.4500      5.055      0.000  11001.000      5.000    94.1214   143.9648   -72.0704     0.4200    -1.0000    29.1560     0.0000     0.0000    22.3950    35.2527    -1.0000    -1.5000     0.0000     0.0000     0.0000     0.0000    17.0000     8.0000     8.0000    17.0000     0.0000     0.0000   142.0306   -75.9388     0.0000    -4.2998    -2.9995    -1.8994    -0.6005     0.4003     1.8994     2.7994     3.8002    31.3400    22.1100    13.8400     6.4800    -5.6200   -10.4100   -14.3900   -16.8000     0.9452     5.2500     4.800
     80    -0.0000    -0.0000     3.7100     0.4500      5.138      1.000  11001.000      5.000    94.1214   143.9648   -72.0704     0.4200    -1.0000    29.1560     0.0000     0.0000    22.3575    35.1543    -1.0000    -1.5000     0.0000     0.0000     0.0000     0.0000    17.0000     8.0000     8.0000    17.0000     0.0000     0.0000   142.0306   -75.9388     0.0000    -4.2998    -2.9995    -1.8994    -0.6005     0.4003     1.8994     2.7994     3.8002    31.3400    22.1100    13.8400     6.4800    -5.6200   -10.4100   -14.3900   -16.8000     0.9427     5.2500     4.800
     81    -0.0000    -0.0000     3.7000     0.4500      5.014      7.000  11001.000      5.000    94.1214   143.9648   -72.0704     0.4200    -1.0000    29.1560     0.0000     0.0000    22.3200    35.0560    -1.0000    -1.5000     0.0000     0.0000     0.0000     0.0000    17.0000     8.0000     8.0000    17.0000     0.0000     0.0000   142.0306   -75.9388     0.0000    -4.2998    -2.9995    -1.8994    -0.6005     0.4003     1.8994     2.7994     3.8002    31.3400    22.1100    13.8400     6.4800    -5.6200   -10.4100   -14.3900   -16.8000     0.9401     5.2500     4.800
     82     0.0000    -0.0000     3.6900     0.4500      5.107      4.000  11001.000      5.000    94.1214   143.9648   -72.0704     0.4200    -1.0000    29.1560     0.0000     0.0000    22.2825    34.9576    -1.0000    -1.5000     0.0000     0.0000     0.0000     0.0000    17.0000     8.0000     8.0000    17.0000     0.0000     0.0000   142.0306   -75.9388     0.0000    -4.2998    -2.9995    -1.8994    -0.6005     0.4003     1.8994     2.7994     3.8002    31.3400    22.1100    13.8400     6.4800    -5.6200   -10.4100   -14.3900   -16.8000     0.9376     5.2500     4.800
     83     0.0000    -0.0000     3.6800     0.4500      5.073      1.000  11001.000      5.000    94.1214   143.9648   -72.0704     0.4200    -1.0000    29.1560     0.0000     0.0000    22.2450    34.8593    -1.0000    -1.5000     0.0000     0.0000     0.0000     0.0000    17.0000     8.0000     8.0000    17.0000     0.0000     0.0000   142.0306   -75.9388     0.0000    -4.2998    -2.9995    -1.8994    -0.6005     0.4003     1.8994     2.7994     3.8002    31.3400    22.1100    13.8400     6.4800    -5.6200   -10.4100   -14.3900   -16.8000     0.9350     5.2500     4.800
     84    -0.0000    -0.0000     3.6700     0.4500      5.081      4.000  11001.000      5.000    94.1214   143.9648   -72.0704     0.4200    -1.0000    29.1560     0.0000     0.0000    22.2100    34.7610    -1.0000    -1.5000     0.0000     0.0000     0.0000     0.0000    17.0000     8.0000     8.0000    17.0000     0.0000     0.0000   142.0306   -75.9388     0.0000    -4.2998    -2.9995    -1.8994    -0.6005     0.4003     1.8994     2.7994     3.8002    31.3400    22.1100    13.8400     6.4800    -5.6200   -10.4100   -14.3900   -16.8000     0.9325     5.2500     4.800
     85     0.0000    -0.0000     3.6600     0.4500      5.140      3.000  11001.000      5.000    94.1214   143.9648   -72.0704     0.4200    -1.0000    29.1560     0.0000     0.0000    22.1700    34.6627    -1.0000    -1.5000     0.0000     0.0000     0.0000     0.0000    17.0000     8.0000     8.0000    17.0000     0.0000     0.0000   142.0306   -75.9388     0.0000    -4.2998    -2.9995    -1.8994    -0.6005     0.4003     1.8994     2.7994     3.8002    31.3400    22.1100    13.8400     6.4800    -5.6200   -10.4100   -14.3900   -16.8000     0.9300     5.2500     4.800
     86     0.0000    -0.0000     3.6500     0.4500      5.095      1.000  11001.000      5.000    94.1214   143.9648   -72.0704     0.4200    -1.0000    29.1560     0.0000     0.0000    22.1350    34.5645    -1.0000    -1.5000     0.0000     0.0000     0.0000     0.0000    17.0000     8.0000     8.0000    17.0000     0.0000     0.0000   142.0306   -75.9388     0.0000    -4.2998    -2.9995    -1.8994    -0.6005     0.4003     1.8994     2.7994     3.8002    31.3400    22.1100    13.8400     6.4800    -5.6200   -10.4100   -14.3900   -16.8000     0.9274     5.2500     4.800
     87    -0.0000    -0.0000     3.6400     0.4500      5.033      1.000  11001.000      5.000    94.1214   143.9648   -72.0704     0.4200    -1.0000    29.1560     0.0000     0.0000    22.1000    34.4662    -1.0000    -1.5000     0.0000     0.0000     0.0000     0.0000    17.0000     8.0000     8.0000    17.0000     0.0000     0.0000   142.0306   -75.9388     0.0000    -4.2998    -2.9995    -1.8994    -0.6005     0.4003     1.8994     2.7994     3.8002    31.3400    22.1100    13.8400     6.4800    -5.6200   -10.4100   -14.3900   -16.8000     0.9249     5.2500     4.800
     88    -0.0000    -0.0000     3.6300     0.4500      5.006      0.000  11001.000      5.000    94.1214   143.9648   -72.0704     0.4200    -1.0000    29.1560     0.0000     0.0000    22.0625    34.3681    -1.0000    -1.5000     0.0000     0.0000     0.0000     0.0000    17.0000     8.0000     8.0000    17.0000     0.0000     0.0000   142.0306   -75.9388     0.0000    -4.2998    -2.9995    -1.8994    -0.6005     0.4003     1.8994     2.7994     3.8002    31.3400    22.1100    13.8400     6.4800    -5.6200   -10.4100   -14.3900   -16.8000     0.9223     5.2500     4.800
     89     0.0000    -0.0000     3.6200     0.4500      5.058      0.000  11001.000      5.000    94.1214   143.9648   -72.0704     0.4200    -1.0000    29.1560     0.0000     0.0000    22.0250    34.2699    -1.0000    -1.5000     0.0000     0.0000     0.0000     0.0000    17.0000     8.0000     8.0000    17.0000     0.0000     0.0000   142.0306   -75.9388     0.0000    -4.2998    -2.9995    -1.8994    -0.6005     0.4003     1.8994     2.7994     3.8002    31.3400    22.1100    13.8400     6.4800    -5.6200   -10.4100   -14.3900   -16.8000     0.9198     5.2500     4.800
     90    -0.0000    -0.0000     3.6100     0.4500      5.014      1.000  11001.000      5.000    94.1214   143.9648   -72.0704     0.4200    -1.0000    29.1560     0.0000     0.0000    21.9900    34.1718    -1.0000    -1.5000     0.0000     0.0000     0.0000     0.0000    17.0000     8.0000     8.0000    17.0000     0.0000     0.0000   142.0306   -75.9388     0.0000    -4.2998    -2.9995    -1.8994    -0.6005     0.4003     1.8994     2.7994     3.8002    31.3400    22.1100    13.8400     6.4800    -5.6200   -10.4100   -14.3900   -16.8000     0.9173     5.2500     4.800
     91     0.0000    -0.0000     3.6000     0.4500      5.086      0.000  11001.000      5.000    94.1214   143.9648   -72.0704     0.4200    -1.0000    29.1560     0.0000     0.0000    21.9500    34.0736    -1.0000    -1.5000     0.0000     0.0000     0.0000     0.0000    17.0000     8.0000     8.0000    17.0000     0.0000     0.0000   142.0306   -75.9388     0.0000    -4.2998    -2.9995    -1.8994    -0.6005     0.4003     1.8994     2.7994     3.8002    31.3400    22.1100    13.8400     6.4800    -5.6200   -10.4100   -14.3900   -16.8000     0.9147     5.2500     4.800
     92    -0.0000    -0.0000     3.5900     0.4500      5.090      1.000  11001.000      5.000    94.1214   143.9648   -72.0704     0.4200    -1.0000    29.1560     0.0000     0.0000    21.9175    33.9755    -1.0000    -1.5000     0.0000     0.0000     0.0000     0.0000    17.0000     8.0000     8.0000    17.0000     0.0000     0.0000   142.0306   -75.9388     0.0000    -4.2998    -2.9995    -1.8994    -0.6005     0.4003     1.8994     2.7994     3.8002    31.3400    22.1100    13.8400     6.4800    -5.6200   -10.4100   -14.3900   -16.8000     0.9122     5.2500     4.800
     93     0.0000    -0.0000     3.5800     0.4500      5.077      3.000  11001.000      5.000    94.1214   143.9648   -72.0704     0.4200    -1.0000    29.1560     0.0000     0.0000    21.8800    33.8774    -1.0000    -1.5000     0.0000     0.0000     0.0000     0.0000    17.0000     8.0000     8.0000    17.0000     0.0000     0.0000   142.0306   -75.9388     0.0000    -4.2998    -2.9995    -1.8994    -0.6005     0.4003     1.8994     2.7994     3.8002    31.3400    22.1100    13.8400     6.4800    -5.6200   -10.4100   -14.3900   -16.8000     0.9096     5.2500     4.800
     94    -0.0000    -0.0000     3.5700     0.4500      5.035      4.000  11001.000      5.000    94.1214   143.9648   -72.0704     0.4200    -1.0000    29.1560     0.0000     0.0000    21.8450    33.7794    -1.0000    -1.5000     0.0000     0.0000     0.0000     0.0000    17.0000     8.0000     8.0000    17.0000     0.0000     0.0000   142.0306   -75.9388     0.0000    -4.2998    -2.9995    -1.8994    -0.6005     0.4003     1.8994     2.7994     3.8002    31.3400    22.1100    13.8400     6.4800    -5.6200   -10.4100   -14.3900   -16.8000     0.9071     5.2500     4.800
     95     0.0000    -0.0000     3.5600     0.4500      5.084      5.000  11001.000      5.000    94.1214   143.9648   -72.0704     0.4200    -1.0000    29.1560     0.0000     0.0000    21.8050    33.6814    -1.0000    -1.5000     0.0000     0.0000     0.0000     0.0000    17.0000     8.0000     8.0000    17.0000     0.0000     0.0000   142.0306   -75.9388     0.0000    -4.2998    -2.9995    -1.8994    -0.6005     0.4003     1.8994     2.7994     3.8002    31.3400    22.1100    13.8400     6.4800    -5.6200   -10.4100   -14.3900   -16.8000     0.9046     5.2500     4.800
     96    -0.0000    -0.0000     3.5500     0.4500      5.010      1.000  11001.000      5.000    94.1214   143.9648   -72.0704     0.4200    -1.0000    29.1560     0.0000     0.0000    21.7750    33.5834    -1.0000    -1.5000     0.0000     0.0000     0.0000     0.0000    17.0000     8.0000     8.0000    17.0000     0.0000     0.0000   142.0306   -75.9388     0.0000    -4.2998    -2.9995    -1.8994    -0.6005     0.4003     1.8994     2.7994     3.8002    31.3400    22.1100    13.8400     6.4800    -5.6200   -10.4100   -14.3900   -16.8000     0.9020     5.2500     4.800
     97     0.0000    -0.0000     3.5400     0.4500      5.082      0.000  11001.000      5.000    94.1214   143.9648   -72.0704     0.4200    -1.0000    29.1560     0.0000     0.0000    21.7350    33.4854    -1.0000    -1.5000     0.0000     0.0000     0.0000     0.0000    17.0000     8.0000     8.0000    17.0000     0.0000     0.0000   142.0306   -75.9388     0.0000    -4.2998    -2.9995    -1.8994    -0.6005     0.4003     1.8994     2.7994     3.8002    31.3400    22.1100    13.8400     6.4800    -5.6200   -10.4100   -14.3900   -16.8000     0.8995     5.2500     4.800
     98     0.0000    -0.0000     3.5300     0.4500      5.126      3.000  11001.000      5.000    94.1214   143.9648   -72.0704     0.4200    -1.0000    29.1560     0.0000     0.0000    21.7000    33.3874    -1.0000    -1.5000     0.0000     0.0000     0.0000     0.0000    17.0000     8.0000     8.0000    17.0000     0.0000     0.0000   142.0306   -75.9388     0.0000    -4.2998    -2.9995    -1.8994    -0.6005     0.4003     1.8994     2.7994     3.8002    31.3400    22.1100    13.8400     6.4800    -5.6200   -10.4100   -14.3900   -16.8000     0.8969     5.2500     4.800
     99    -0.0000    -0.0000     3.5200     0.4500      5.049      4.000  11001.000      5.000    94.1214   143.9648   -72.0704     0.4200    -1.0000    29.1560     0.0000     0.0000    21.6650    33.2895    -1.0000    -1.5000     0.0000     0.0000     0.0000     0.0000    17.0000     8.0000     8.0000    17.0000     0.0000     0.0000   142.0306   -75.9388     0.0000    -4.2998    -2.9995    -1.8994    -0.6005     0.4003     1.8994     2.7994     3.8002    31.3400    22.1100    13.8400     6.4800    -5.6200   -10.4100   -14.3900   -16.8000     0.8944     5.2500     4.800
    100    -0.0000    -0.0000     3.5100     0.4500      5.038      5.000  11001.000      5.000    94.1214   143.9648   -72.0704     0.4200    -1.0000    29.1560     0.0000     0.0000    21.6300    33.1916    -1.0000    -1.5000     0.0000     0.0000     0.0000     0.0000    17.0000     8.0000     8.0000    17.0000     0.0000     0.0000   142.0306   -75.9388     0.0000    -4.2998    -2.9995    -1.8994    -0.6005     0.4003     1.8994     2.7994     3.8002    31.3400    22.1100    13.8400     6.4800    -5.6200   -10.4100   -14.3900   -16.8000     0.8918     5.2500     4.800
    101     0.0000    -0.0000     3.5000     0.4500      5.114      2.000  11001.000      5.000    94.1214   143.9648   -72.0704     0.4200    -1.0000    29.1560     0.0000     0.0000    21.5925    33.0937    -1.0000    -1.5000     0.0000     0.0000     0.0000     0.0000    17.0000     8.0000     8.0000    17.0000     0.0000     0.0000   142.0306   -75.9388     0.0000    -4.2998    -2.9995    -1.8994    -0.6005     0.4003     1.8994     2.7994     3.8002    31.3400    22.1100    13.8400     6.4800    -5.6200   -10.4100   -14.3900   -16.8000     0.8893     5.2500     4.800
# Sum of Counts = 223
# Center of Mass = 3.976951+/-0.377121
# Full Width Half-Maximum = 0.575779+/-0.096074
# 10:35:27 AM  3/13/2025   scan completed.
