# scan = 169
# date = 3/12/2025
# time = 12:27:56 AM
# proposal = 35030
# experiment = CTAX Instrumental resolution benchmarking
# experiment_number = 445
# command = scanrel sgl -8 8 0.5
# builtin_command = scan sgl @(sgl)+-8 @(sgl)+8 0.500000
# users = Tao Hong, Tao Hong, Bing Li
# local_contact = Tao Hong
# scan_title = (001) scans-hori-focusing
# monochromator = PG002
# analyzer = Pg002
# sense = -+-
# collimation = 48-40-40-120
# samplename = LaN
# sampletype = crystal
# samplemosaic = 30.000000
# latticeconstants = 5.058628,5.058628,24.728465,90.000000,90.000000,120.000000
# ubmatrix = -0.002928,0.001986,-0.040430,-0.228168,-0.119258,0.000500,-0.005924,0.194622,0.000719
# mode = 0
# plane_normal = 0.017452,-0.026173,0.999505
# ubconf = UB10Mar2025_114214AM.ini
# preset_type = normal 
# preset_channel = mcu
# preset_value = 30.000000
# def_x = sgl
# def_y = detector
# col_headers = 
#   Pt.        sgl       time   detector    monitor        mcu focal_length         m1         m2       marc     mtrans     mfocus   vti_temp  smpl_temp         s1         s2        sgu        bbb        bbl        bbr        bbt        bab        bal        bar        bat        stl        stu         a1         a2     afocus        qm1        qm2        qm3        qm4        qm5        qm6        qm7        qm8        xm1        xm2        xm3        xm4        xm5        xm6        xm7        xm8          q          h          k          l         ei         ef          e
      1    -9.0000     28.090 127146.000  66001.000     30.000    98.4288   142.0306   -75.9387     0.4200    -1.0000    28.2560     0.0000     0.0000     3.6400     5.8231    -1.5000     0.0000     0.0000     0.0000     0.0000    17.0000     8.0000     8.0000    17.0000     0.0000     0.0000   142.0306   -75.9388     0.0000    -4.2998    -2.9995    -1.8994    -0.6005     0.4003     1.8994     2.7994     3.8002    31.3400    22.1100    13.8400     6.4800    -5.6200   -10.4100   -14.3900   -16.8000     0.1546    -0.0087     0.0173     0.6026     4.8000     4.8000     0.000
      2    -8.5000     28.127 126962.000  66001.000     30.000    98.4288   142.0306   -75.9387     0.4200    -1.0000    28.2560     0.0000     0.0000     3.6400     5.8231    -1.5000     0.0000     0.0000     0.0000     0.0000    17.0000     8.0000     8.0000    17.0000     0.0000     0.0000   142.0306   -75.9388     0.0000    -4.2998    -2.9995    -1.8994    -0.6005     0.4003     1.8994     2.7994     3.8002    31.3400    22.1100    13.8400     6.4800    -5.6200   -10.4100   -14.3900   -16.8000     0.1546    -0.0081     0.0162     0.6033     4.8000     4.8000     0.000
      3    -8.0000     28.305 128138.000  66001.000     30.000    98.4288   142.0306   -75.9387     0.4200    -1.0000    28.2560     0.0000     0.0000     3.6400     5.8231    -1.5000     0.0000     0.0000     0.0000     0.0000    17.0000     8.0000     8.0000    17.0000     0.0000     0.0000   142.0306   -75.9388     0.0000    -4.2998    -2.9995    -1.8994    -0.6005     0.4003     1.8994     2.7994     3.8002    31.3400    22.1100    13.8400     6.4800    -5.6200   -10.4100   -14.3900   -16.8000     0.1546    -0.0076     0.0152     0.6040     4.8000     4.8000     0.000
      4    -7.5000     28.061 126688.000  66001.000     30.000    98.4288   142.0306   -75.9387     0.4200    -1.0000    28.2560     0.0000     0.0000     3.6400     5.8231    -1.5000     0.0000     0.0000     0.0000     0.0000    17.0000     8.0000     8.0000    17.0000     0.0000     0.0000   142.0306   -75.9388     0.0000    -4.2998    -2.9995    -1.8994    -0.6005     0.4003     1.8994     2.7994     3.8002    31.3400    22.1100    13.8400     6.4800    -5.6200   -10.4100   -14.3900   -16.8000     0.1546    -0.0070     0.0141     0.6046     4.8000     4.8000     0.000
      5    -7.0000     28.063 127013.000  66001.000     30.000    98.4288   142.0306   -75.9387     0.4200    -1.0000    28.2560     0.0000     0.0000     3.6400     5.8231    -1.5000     0.0000     0.0000     0.0000     0.0000    17.0000     8.0000     8.0000    17.0000     0.0000     0.0000   142.0306   -75.9388     0.0000    -4.2998    -2.9995    -1.8994    -0.6005     0.4003     1.8994     2.7994     3.8002    31.3400    22.1100    13.8400     6.4800    -5.6200   -10.4100   -14.3900   -16.8000     0.1546    -0.0065     0.0130     0.6052     4.8000     4.8000     0.000
      6    -6.5000     28.343 128236.000  66001.000     30.000    98.4288   142.0306   -75.9387     0.4200    -1.0000    28.2560     0.0000     0.0000     3.6400     5.8231    -1.5000     0.0000     0.0000     0.0000     0.0000    17.0000     8.0000     8.0000    17.0000     0.0000     0.0000   142.0306   -75.9388     0.0000    -4.2998    -2.9995    -1.8994    -0.6005     0.4003     1.8994     2.7994     3.8002    31.3400    22.1100    13.8400     6.4800    -5.6200   -10.4100   -14.3900   -16.8000     0.1546    -0.0060     0.0119     0.6057     4.8000     4.8000     0.000
      7    -6.0000     28.142 127768.000  66001.000     30.000    98.4288   142.0306   -75.9387     0.4200    -1.0000    28.2560     0.0000     0.0000     3.6400     5.8231    -1.5000     0.0000     0.0000     0.0000     0.0000    17.0000     8.0000     8.0000    17.0000     0.0000     0.0000   142.0306   -75.9388     0.0000    -4.2998    -2.9995    -1.8994    -0.6005     0.4003     1.8994     2.7994     3.8002    31.3400    22.1100    13.8400     6.4800    -5.6200   -10.4100   -14.3900   -16.8000     0.1546    -0.0054     0.0108     0.6062     4.8000     4.8000     0.000
      8    -5.5000     28.260 128234.000  66001.000     30.000    98.4288   142.0306   -75.9387     0.4200    -1.0000    28.2560     0.0000     0.0000     3.6400     5.8231    -1.5000     0.0000     0.0000     0.0000     0.0000    17.0000     8.0000     8.0000    17.0000     0.0000     0.0000   142.0306   -75.9388     0.0000    -4.2998    -2.9995    -1.8994    -0.6005     0.4003     1.8994     2.7994     3.8002    31.3400    22.1100    13.8400     6.4800    -5.6200   -10.4100   -14.3900   -16.8000     0.1546    -0.0049     0.0098     0.6066     4.8000     4.8000     0.000
      9    -5.0000     28.043 127222.000  66001.000     30.000    98.4288   142.0306   -75.9387     0.4200    -1.0000    28.2560     0.0000     0.0000     3.6400     5.8231    -1.5000     0.0000     0.0000     0.0000     0.0000    17.0000     8.0000     8.0000    17.0000     0.0000     0.0000   142.0306   -75.9388     0.0000    -4.2998    -2.9995    -1.8994    -0.6005     0.4003     1.8994     2.7994     3.8002    31.3400    22.1100    13.8400     6.4800    -5.6200   -10.4100   -14.3900   -16.8000     0.1546    -0.0043     0.0087     0.6070     4.8000     4.8000     0.000
     10    -4.5000     28.158 127435.000  66001.000     30.000    98.4288   142.0306   -75.9387     0.4200    -1.0000    28.2560     0.0000     0.0000     3.6400     5.8231    -1.5000     0.0000     0.0000     0.0000     0.0000    17.0000     8.0000     8.0000    17.0000     0.0000     0.0000   142.0306   -75.9388     0.0000    -4.2998    -2.9995    -1.8994    -0.6005     0.4003     1.8994     2.7994     3.8002    31.3400    22.1100    13.8400     6.4800    -5.6200   -10.4100   -14.3900   -16.8000     0.1546    -0.0038     0.0076     0.6074     4.8000     4.8000     0.000
     11    -4.0000     28.071 126967.000  66001.000     30.000    98.4288   142.0306   -75.9387     0.4200    -1.0000    28.2560     0.0000     0.0000     3.6400     5.8231    -1.5000     0.0000     0.0000     0.0000     0.0000    17.0000     8.0000     8.0000    17.0000     0.0000     0.0000   142.0306   -75.9388     0.0000    -4.2998    -2.9995    -1.8994    -0.6005     0.4003     1.8994     2.7994     3.8002    31.3400    22.1100    13.8400     6.4800    -5.6200   -10.4100   -14.3900   -16.8000     0.1546    -0.0032     0.0065     0.6077     4.8000     4.8000     0.000
     12    -3.5000     28.267 128058.000  66001.000     30.000    98.4288   142.0306   -75.9387     0.4200    -1.0000    28.2560     0.0000     0.0000     3.6400     5.8231    -1.5000     0.0000     0.0000     0.0000     0.0000    17.0000     8.0000     8.0000    17.0000     0.0000     0.0000   142.0306   -75.9388     0.0000    -4.2998    -2.9995    -1.8994    -0.6005     0.4003     1.8994     2.7994     3.8002    31.3400    22.1100    13.8400     6.4800    -5.6200   -10.4100   -14.3900   -16.8000     0.1546    -0.0027     0.0054     0.6079     4.8000     4.8000     0.000
     13    -3.0000     28.203 128037.000  66001.000     30.000    98.4288   142.0306   -75.9387     0.4200    -1.0000    28.2560     0.0000     0.0000     3.6400     5.8231    -1.5000     0.0000     0.0000     0.0000     0.0000    17.0000     8.0000     8.0000    17.0000     0.0000     0.0000   142.0306   -75.9388     0.0000    -4.2998    -2.9995    -1.8994    -0.6005     0.4003     1.8994     2.7994     3.8002    31.3400    22.1100    13.8400     6.4800    -5.6200   -10.4100   -14.3900   -16.8000     0.1546    -0.0022     0.0043     0.6082     4.8000     4.8000     0.000
     14    -2.5000     28.109 127127.000  66001.000     30.000    98.4288   142.0306   -75.9387     0.4200    -1.0000    28.2560     0.0000     0.0000     3.6400     5.8231    -1.5000     0.0000     0.0000     0.0000     0.0000    17.0000     8.0000     8.0000    17.0000     0.0000     0.0000   142.0306   -75.9388     0.0000    -4.2998    -2.9995    -1.8994    -0.6005     0.4003     1.8994     2.7994     3.8002    31.3400    22.1100    13.8400     6.4800    -5.6200   -10.4100   -14.3900   -16.8000     0.1546    -0.0016     0.0033     0.6083     4.8000     4.8000     0.000
     15    -2.0000     28.207 127477.000  66001.000     30.000    98.4288   142.0306   -75.9387     0.4200    -1.0000    28.2560     0.0000     0.0000     3.6400     5.8231    -1.5000     0.0000     0.0000     0.0000     0.0000    17.0000     8.0000     8.0000    17.0000     0.0000     0.0000   142.0306   -75.9388     0.0000    -4.2998    -2.9995    -1.8994    -0.6005     0.4003     1.8994     2.7994     3.8002    31.3400    22.1100    13.8400     6.4800    -5.6200   -10.4100   -14.3900   -16.8000     0.1546    -0.0011     0.0022     0.6084     4.8000     4.8000     0.000
     16    -1.5000     28.354 128414.000  66001.000     30.000    98.4288   142.0306   -75.9387     0.4200    -1.0000    28.2560     0.0000     0.0000     3.6400     5.8231    -1.5000     0.0000     0.0000     0.0000     0.0000    17.0000     8.0000     8.0000    17.0000     0.0000     0.0000   142.0306   -75.9388     0.0000    -4.2998    -2.9995    -1.8994    -0.6005     0.4003     1.8994     2.7994     3.8002    31.3400    22.1100    13.8400     6.4800    -5.6200   -10.4100   -14.3900   -16.8000     0.1546    -0.0005     0.0011     0.6085     4.8000     4.8000     0.000
     17    -1.0000     28.257 127597.000  66001.000     30.000    98.4288   142.0306   -75.9387     0.4200    -1.0000    28.2560     0.0000     0.0000     3.6400     5.8231    -1.5000     0.0000     0.0000     0.0000     0.0000    17.0000     8.0000     8.0000    17.0000     0.0000     0.0000   142.0306   -75.9388     0.0000    -4.2998    -2.9995    -1.8994    -0.6005     0.4003     1.8994     2.7994     3.8002    31.3400    22.1100    13.8400     6.4800    -5.6200   -10.4100   -14.3900   -16.8000     0.1546     0.0000     0.0000     0.6085     4.8000     4.8000     0.000
     18    -0.5000     28.135 127277.000  66001.000     30.000    98.4288   142.0306   -75.9387     0.4200    -1.0000    28.2560     0.0000     0.0000     3.6400     5.8231    -1.5000     0.0000     0.0000     0.0000     0.0000    17.0000     8.0000     8.0000    17.0000     0.0000     0.0000   142.0306   -75.9388     0.0000    -4.2998    -2.9995    -1.8994    -0.6005     0.4003     1.8994     2.7994     3.8002    31.3400    22.1100    13.8400     6.4800    -5.6200   -10.4100   -14.3900   -16.8000     0.1546     0.0006    -0.0011     0.6085     4.8000     4.8000     0.000
     19     0.0000     28.148 127656.000  66001.000     30.000    98.4288   142.0306   -75.9387     0.4200    -1.0000    28.2560     0.0000     0.0000     3.6400     5.8231    -1.5000     0.0000     0.0000     0.0000     0.0000    17.0000     8.0000     8.0000    17.0000     0.0000     0.0000   142.0306   -75.9388     0.0000    -4.2998    -2.9995    -1.8994    -0.6005     0.4003     1.8994     2.7994     3.8002    31.3400    22.1100    13.8400     6.4800    -5.6200   -10.4100   -14.3900   -16.8000     0.1546     0.0011    -0.0022     0.6084     4.8000     4.8000     0.000
     20     0.5000     28.048 127579.000  66001.000     30.000    98.4288   142.0306   -75.9387     0.4200    -1.0000    28.2560     0.0000     0.0000     3.6400     5.8231    -1.5000     0.0000     0.0000     0.0000     0.0000    17.0000     8.0000     8.0000    17.0000     0.0000     0.0000   142.0306   -75.9388     0.0000    -4.2998    -2.9995    -1.8994    -0.6005     0.4003     1.8994     2.7994     3.8002    31.3400    22.1100    13.8400     6.4800    -5.6200   -10.4100   -14.3900   -16.8000     0.1546     0.0016    -0.0033     0.6083     4.8000     4.8000     0.000
     21     1.0000     28.122 127087.000  66001.000     30.000    98.4288   142.0306   -75.9387     0.4200    -1.0000    28.2560     0.0000     0.0000     3.6400     5.8231    -1.5000     0.0000     0.0000     0.0000     0.0000    17.0000     8.0000     8.0000    17.0000     0.0000     0.0000   142.0306   -75.9388     0.0000    -4.2998    -2.9995    -1.8994    -0.6005     0.4003     1.8994     2.7994     3.8002    31.3400    22.1100    13.8400     6.4800    -5.6200   -10.4100   -14.3900   -16.8000     0.1546     0.0022    -0.0043     0.6082     4.8000     4.8000     0.000
     22     1.5000     28.329 128172.000  66001.000     30.000    98.4288   142.0306   -75.9387     0.4200    -1.0000    28.2560     0.0000     0.0000     3.6400     5.8231    -1.5000     0.0000     0.0000     0.0000     0.0000    17.0000     8.0000     8.0000    17.0000     0.0000     0.0000   142.0306   -75.9388     0.0000    -4.2998    -2.9995    -1.8994    -0.6005     0.4003     1.8994     2.7994     3.8002    31.3400    22.1100    13.8400     6.4800    -5.6200   -10.4100   -14.3900   -16.8000     0.1546     0.0027    -0.0054     0.6079     4.8000     4.8000     0.000
     23     2.0000     28.277 127219.000  66001.000     30.000    98.4288   142.0306   -75.9387     0.4200    -1.0000    28.2560     0.0000     0.0000     3.6400     5.8231    -1.5000     0.0000     0.0000     0.0000     0.0000    17.0000     8.0000     8.0000    17.0000     0.0000     0.0000   142.0306   -75.9388     0.0000    -4.2998    -2.9995    -1.8994    -0.6005     0.4003     1.8994     2.7994     3.8002    31.3400    22.1100    13.8400     6.4800    -5.6200   -10.4100   -14.3900   -16.8000     0.1546     0.0033    -0.0065     0.6077     4.8000     4.8000     0.000
     24     2.5000     28.294 127442.000  66001.000     30.000    98.4288   142.0306   -75.9387     0.4200    -1.0000    28.2560     0.0000     0.0000     3.6400     5.8231    -1.5000     0.0000     0.0000     0.0000     0.0000    17.0000     8.0000     8.0000    17.0000     0.0000     0.0000   142.0306   -75.9388     0.0000    -4.2998    -2.9995    -1.8994    -0.6005     0.4003     1.8994     2.7994     3.8002    31.3400    22.1100    13.8400     6.4800    -5.6200   -10.4100   -14.3900   -16.8000     0.1546     0.0038    -0.0076     0.6074     4.8000     4.8000     0.000
     25     3.0000     28.353 127556.000  66001.000     30.000    98.4288   142.0306   -75.9387     0.4200    -1.0000    28.2560     0.0000     0.0000     3.6400     5.8231    -1.5000     0.0000     0.0000     0.0000     0.0000    17.0000     8.0000     8.0000    17.0000     0.0000     0.0000   142.0306   -75.9388     0.0000    -4.2998    -2.9995    -1.8994    -0.6005     0.4003     1.8994     2.7994     3.8002    31.3400    22.1100    13.8400     6.4800    -5.6200   -10.4100   -14.3900   -16.8000     0.1546     0.0044    -0.0087     0.6070     4.8000     4.8000     0.000
     26     3.5000     28.060 126592.000  66001.000     30.000    98.4288   142.0306   -75.9387     0.4200    -1.0000    28.2560     0.0000     0.0000     3.6400     5.8231    -1.5000     0.0000     0.0000     0.0000     0.0000    17.0000     8.0000     8.0000    17.0000     0.0000     0.0000   142.0306   -75.9388     0.0000    -4.2998    -2.9995    -1.8994    -0.6005     0.4003     1.8994     2.7994     3.8002    31.3400    22.1100    13.8400     6.4800    -5.6200   -10.4100   -14.3900   -16.8000     0.1546     0.0049    -0.0098     0.6066     4.8000     4.8000     0.000
     27     4.0000     28.282 127286.000  66001.000     30.000    98.4288   142.0306   -75.9387     0.4200    -1.0000    28.2560     0.0000     0.0000     3.6400     5.8231    -1.5000     0.0000     0.0000     0.0000     0.0000    17.0000     8.0000     8.0000    17.0000     0.0000     0.0000   142.0306   -75.9388     0.0000    -4.2998    -2.9995    -1.8994    -0.6005     0.4003     1.8994     2.7994     3.8002    31.3400    22.1100    13.8400     6.4800    -5.6200   -10.4100   -14.3900   -16.8000     0.1546     0.0054    -0.0108     0.6062     4.8000     4.8000     0.000
     28     4.5000     28.244 127010.000  66001.000     30.000    98.4288   142.0306   -75.9387     0.4200    -1.0000    28.2560     0.0000     0.0000     3.6400     5.8231    -1.5000     0.0000     0.0000     0.0000     0.0000    17.0000     8.0000     8.0000    17.0000     0.0000     0.0000   142.0306   -75.9388     0.0000    -4.2998    -2.9995    -1.8994    -0.6005     0.4003     1.8994     2.7994     3.8002    31.3400    22.1100    13.8400     6.4800    -5.6200   -10.4100   -14.3900   -16.8000     0.1546     0.0060    -0.0119     0.6057     4.8000     4.8000     0.000
     29     5.0000     28.163 126520.000  66001.000     30.000    98.4288   142.0306   -75.9387     0.4200    -1.0000    28.2560     0.0000     0.0000     3.6400     5.8231    -1.5000     0.0000     0.0000     0.0000     0.0000    17.0000     8.0000     8.0000    17.0000     0.0000     0.0000   142.0306   -75.9388     0.0000    -4.2998    -2.9995    -1.8994    -0.6005     0.4003     1.8994     2.7994     3.8002    31.3400    22.1100    13.8400     6.4800    -5.6200   -10.4100   -14.3900   -16.8000     0.1546     0.0065    -0.0130     0.6052     4.8000     4.8000     0.000
     30     5.5000     28.254 126826.000  66001.000     30.000    98.4288   142.0306   -75.9387     0.4200    -1.0000    28.2560     0.0000     0.0000     3.6400     5.8231    -1.5000     0.0000     0.0000     0.0000     0.0000    17.0000     8.0000     8.0000    17.0000     0.0000     0.0000   142.0306   -75.9388     0.0000    -4.2998    -2.9995    -1.8994    -0.6005     0.4003     1.8994     2.7994     3.8002    31.3400    22.1100    13.8400     6.4800    -5.6200   -10.4100   -14.3900   -16.8000     0.1546     0.0070    -0.0141     0.6046     4.8000     4.8000     0.000
     31     6.0000     28.115 126251.000  66001.000     30.000    98.4288   142.0306   -75.9387     0.4200    -1.0000    28.2560     0.0000     0.0000     3.6400     5.8231    -1.5000     0.0000     0.0000     0.0000     0.0000    17.0000     8.0000     8.0000    17.0000     0.0000     0.0000   142.0306   -75.9388     0.0000    -4.2998    -2.9995    -1.8994    -0.6005     0.4003     1.8994     2.7994     3.8002    31.3400    22.1100    13.8400     6.4800    -5.6200   -10.4100   -14.3900   -16.8000     0.1546     0.0076    -0.0152     0.6040     4.8000     4.8000     0.000
     32     6.5000     28.038 125992.000  66001.000     30.000    98.4288   142.0306   -75.9387     0.4200    -1.0000    28.2560     0.0000     0.0000     3.6400     5.8231    -1.5000     0.0000     0.0000     0.0000     0.0000    17.0000     8.0000     8.0000    17.0000     0.0000     0.0000   142.0306   -75.9388     0.0000    -4.2998    -2.9995    -1.8994    -0.6005     0.4003     1.8994     2.7994     3.8002    31.3400    22.1100    13.8400     6.4800    -5.6200   -10.4100   -14.3900   -16.8000     0.1546     0.0081    -0.0162     0.6033     4.8000     4.8000     0.000
     33     7.0000     28.065 125986.000  66001.000     30.000    98.4288   142.0306   -75.9387     0.4200    -1.0000    28.2560     0.0000     0.0000     3.6400     5.8231    -1.5000     0.0000     0.0000     0.0000     0.0000    17.0000     8.0000     8.0000    17.0000     0.0000     0.0000   142.0306   -75.9388     0.0000    -4.2998    -2.9995    -1.8994    -0.6005     0.4003     1.8994     2.7994     3.8002    31.3400    22.1100    13.8400     6.4800    -5.6200   -10.4100   -14.3900   -16.8000     0.1546     0.0087    -0.0173     0.6026     4.8000     4.8000     0.000
# Sum of Counts = 4200970
# Center of Mass = -1.011325+/-0.002423
# Full Width Half-Maximum = 9.510298+/-0.003973
# 12:46:00 AM  3/12/2025   scan completed.
