# scan = 264
# date = 3/13/2025
# time = 7:42:42 AM
# proposal = 35030
# experiment = CTAX Instrumental resolution benchmarking
# experiment_number = 445
# command = scan h 0 k 0 l 4.5 3.5 0.01 e -0.05 preset mcu 5
# builtin_command = scan h 0 k 0 l 4.5 3.5 0.01 e -0.05 preset mcu 5
# users = Tao Hong, Tao Hong, Bing Li
# local_contact = Tao Hong
# scan_title = (00L) scan at E=-0.05 meV and hori-focusing
# monochromator = PG002
# analyzer = Pg002
# sense = -+-
# collimation = 48-40-40-120
# samplename = LaN
# sampletype = crystal
# samplemosaic = 30.000000
# latticeconstants = 5.058628,5.058628,24.728465,90.000000,90.000000,120.000000
# ubmatrix = -0.002928,0.001986,-0.040430,-0.228168,-0.119258,0.000500,-0.005924,0.194622,0.000719
# mode = 0
# plane_normal = 0.017452,-0.026173,0.999505
# ubconf = UB10Mar2025_114214AM.ini
# preset_type = normal 
# preset_channel = mcu
# preset_value = 5.000000
# def_x = l
# def_y = detector
# col_headers = 
#   Pt.          h          k          l          e       time   detector    monitor        mcu focal_length         m1         m2       marc     mtrans     mfocus   vti_temp  smpl_temp         s1         s2        sgl        sgu        bbb        bbl        bbr        bbt        bab        bal        bar        bat        stl        stu         a1         a2     afocus        qm1        qm2        qm3        qm4        qm5        qm6        qm7        qm8        xm1        xm2        xm3        xm4        xm5        xm6        xm7        xm8          q         ei         ef
      1    -0.0000    -0.0000     4.5000    -0.0500      4.656     70.000  11001.000      5.000    98.9520   141.7955   -76.4090     0.4200    -1.0000    28.1520     0.0000     0.0000    22.4900    44.2463    -1.0000    -1.5000     0.0000     0.0000     0.0000     0.0000    17.0000     8.0000     8.0000    17.0000     0.0000     0.0000   142.0306   -75.9388     0.0000    -4.2998    -2.9995    -1.8994    -0.6005     0.4003     1.8994     2.7994     3.8002    31.3400    22.1100    13.8400     6.4800    -5.6200   -10.4100   -14.3900   -16.8000     1.1434     4.7500     4.800
      2    -0.0000    -0.0000     4.4900    -0.0500      4.639     89.000  11001.000      5.000    98.9520   141.7955   -76.4090     0.4200    -1.0000    28.1520     0.0000     0.0000    22.4375    44.1428    -1.0000    -1.5000     0.0000     0.0000     0.0000     0.0000    17.0000     8.0000     8.0000    17.0000     0.0000     0.0000   142.0306   -75.9388     0.0000    -4.2998    -2.9995    -1.8994    -0.6005     0.4003     1.8994     2.7994     3.8002    31.3400    22.1100    13.8400     6.4800    -5.6200   -10.4100   -14.3900   -16.8000     1.1409     4.7500     4.800
      3    -0.0000    -0.0000     4.4800    -0.0500      4.715     81.000  11001.000      5.000    98.9520   141.7955   -76.4090     0.4200    -1.0000    28.1520     0.0000     0.0000    22.3850    44.0394    -1.0000    -1.5000     0.0000     0.0000     0.0000     0.0000    17.0000     8.0000     8.0000    17.0000     0.0000     0.0000   142.0306   -75.9388     0.0000    -4.2998    -2.9995    -1.8994    -0.6005     0.4003     1.8994     2.7994     3.8002    31.3400    22.1100    13.8400     6.4800    -5.6200   -10.4100   -14.3900   -16.8000     1.1383     4.7500     4.800
      4    -0.0000    -0.0000     4.4700    -0.0500      4.671     84.000  11001.000      5.000    98.9520   141.7955   -76.4090     0.4200    -1.0000    28.1520     0.0000     0.0000    22.3325    43.9359    -1.0000    -1.5000     0.0000     0.0000     0.0000     0.0000    17.0000     8.0000     8.0000    17.0000     0.0000     0.0000   142.0306   -75.9388     0.0000    -4.2998    -2.9995    -1.8994    -0.6005     0.4003     1.8994     2.7994     3.8002    31.3400    22.1100    13.8400     6.4800    -5.6200   -10.4100   -14.3900   -16.8000     1.1358     4.7500     4.800
      5    -0.0000    -0.0000     4.4600    -0.0500      4.662     71.000  11001.000      5.000    98.9520   141.7955   -76.4090     0.4200    -1.0000    28.1520     0.0000     0.0000    22.2800    43.8325    -1.0000    -1.5000     0.0000     0.0000     0.0000     0.0000    17.0000     8.0000     8.0000    17.0000     0.0000     0.0000   142.0306   -75.9388     0.0000    -4.2998    -2.9995    -1.8994    -0.6005     0.4003     1.8994     2.7994     3.8002    31.3400    22.1100    13.8400     6.4800    -5.6200   -10.4100   -14.3900   -16.8000     1.1332     4.7500     4.800
      6     0.0000    -0.0000     4.4500    -0.0500      4.637     73.000  11001.000      5.000    98.9520   141.7955   -76.4090     0.4200    -1.0000    28.1520     0.0000     0.0000    22.2250    43.7292    -1.0000    -1.5000     0.0000     0.0000     0.0000     0.0000    17.0000     8.0000     8.0000    17.0000     0.0000     0.0000   142.0306   -75.9388     0.0000    -4.2998    -2.9995    -1.8994    -0.6005     0.4003     1.8994     2.7994     3.8002    31.3400    22.1100    13.8400     6.4800    -5.6200   -10.4100   -14.3900   -16.8000     1.1307     4.7500     4.800
      7    -0.0000    -0.0000     4.4400    -0.0500      4.642     66.000  11001.000      5.000    98.9520   141.7955   -76.4090     0.4200    -1.0000    28.1520     0.0000     0.0000    22.1750    43.6258    -1.0000    -1.5000     0.0000     0.0000     0.0000     0.0000    17.0000     8.0000     8.0000    17.0000     0.0000     0.0000   142.0306   -75.9388     0.0000    -4.2998    -2.9995    -1.8994    -0.6005     0.4003     1.8994     2.7994     3.8002    31.3400    22.1100    13.8400     6.4800    -5.6200   -10.4100   -14.3900   -16.8000     1.1281     4.7500     4.800
      8     0.0000    -0.0000     4.4300    -0.0500      4.700     59.000  11001.000      5.000    98.9520   141.7955   -76.4090     0.4200    -1.0000    28.1520     0.0000     0.0000    22.1200    43.5226    -1.0000    -1.5000     0.0000     0.0000     0.0000     0.0000    17.0000     8.0000     8.0000    17.0000     0.0000     0.0000   142.0306   -75.9388     0.0000    -4.2998    -2.9995    -1.8994    -0.6005     0.4003     1.8994     2.7994     3.8002    31.3400    22.1100    13.8400     6.4800    -5.6200   -10.4100   -14.3900   -16.8000     1.1256     4.7500     4.800
      9     0.0000    -0.0000     4.4200    -0.0500      4.572     67.000  11001.000      5.000    98.9520   141.7955   -76.4090     0.4200    -1.0000    28.1520     0.0000     0.0000    22.0675    43.4193    -1.0000    -1.5000     0.0000     0.0000     0.0000     0.0000    17.0000     8.0000     8.0000    17.0000     0.0000     0.0000   142.0306   -75.9388     0.0000    -4.2998    -2.9995    -1.8994    -0.6005     0.4003     1.8994     2.7994     3.8002    31.3400    22.1100    13.8400     6.4800    -5.6200   -10.4100   -14.3900   -16.8000     1.1231     4.7500     4.800
     10    -0.0000    -0.0000     4.4100    -0.0500      4.707     70.000  11001.000      5.000    98.9520   141.7955   -76.4090     0.4200    -1.0000    28.1520     0.0000     0.0000    22.0175    43.3161    -1.0000    -1.5000     0.0000     0.0000     0.0000     0.0000    17.0000     8.0000     8.0000    17.0000     0.0000     0.0000   142.0306   -75.9388     0.0000    -4.2998    -2.9995    -1.8994    -0.6005     0.4003     1.8994     2.7994     3.8002    31.3400    22.1100    13.8400     6.4800    -5.6200   -10.4100   -14.3900   -16.8000     1.1205     4.7500     4.800
     11     0.0000    -0.0000     4.4000    -0.0500      4.669     62.000  11001.000      5.000    98.9520   141.7955   -76.4090     0.4200    -1.0000    28.1520     0.0000     0.0000    21.9625    43.2130    -1.0000    -1.5000     0.0000     0.0000     0.0000     0.0000    17.0000     8.0000     8.0000    17.0000     0.0000     0.0000   142.0306   -75.9388     0.0000    -4.2998    -2.9995    -1.8994    -0.6005     0.4003     1.8994     2.7994     3.8002    31.3400    22.1100    13.8400     6.4800    -5.6200   -10.4100   -14.3900   -16.8000     1.1180     4.7500     4.800
     12     0.0000    -0.0000     4.3900    -0.0500      4.740     62.000  11001.000      5.000    98.9520   141.7955   -76.4090     0.4200    -1.0000    28.1520     0.0000     0.0000    21.9100    43.1098    -1.0000    -1.5000     0.0000     0.0000     0.0000     0.0000    17.0000     8.0000     8.0000    17.0000     0.0000     0.0000   142.0306   -75.9388     0.0000    -4.2998    -2.9995    -1.8994    -0.6005     0.4003     1.8994     2.7994     3.8002    31.3400    22.1100    13.8400     6.4800    -5.6200   -10.4100   -14.3900   -16.8000     1.1154     4.7500     4.800
     13     0.0000    -0.0000     4.3800    -0.0500      4.667     66.000  11001.000      5.000    98.9520   141.7955   -76.4090     0.4200    -1.0000    28.1520     0.0000     0.0000    21.8575    43.0067    -1.0000    -1.5000     0.0000     0.0000     0.0000     0.0000    17.0000     8.0000     8.0000    17.0000     0.0000     0.0000   142.0306   -75.9388     0.0000    -4.2998    -2.9995    -1.8994    -0.6005     0.4003     1.8994     2.7994     3.8002    31.3400    22.1100    13.8400     6.4800    -5.6200   -10.4100   -14.3900   -16.8000     1.1129     4.7500     4.800
     14     0.0000    -0.0000     4.3700    -0.0500      4.736     69.000  11001.000      5.000    98.9520   141.7955   -76.4090     0.4200    -1.0000    28.1520     0.0000     0.0000    21.8050    42.9036    -1.0000    -1.5000     0.0000     0.0000     0.0000     0.0000    17.0000     8.0000     8.0000    17.0000     0.0000     0.0000   142.0306   -75.9388     0.0000    -4.2998    -2.9995    -1.8994    -0.6005     0.4003     1.8994     2.7994     3.8002    31.3400    22.1100    13.8400     6.4800    -5.6200   -10.4100   -14.3900   -16.8000     1.1104     4.7500     4.800
     15    -0.0000    -0.0000     4.3600    -0.0500      4.645     63.000  11001.000      5.000    98.9520   141.7955   -76.4090     0.4200    -1.0000    28.1520     0.0000     0.0000    21.7550    42.8006    -1.0000    -1.5000     0.0000     0.0000     0.0000     0.0000    17.0000     8.0000     8.0000    17.0000     0.0000     0.0000   142.0306   -75.9388     0.0000    -4.2998    -2.9995    -1.8994    -0.6005     0.4003     1.8994     2.7994     3.8002    31.3400    22.1100    13.8400     6.4800    -5.6200   -10.4100   -14.3900   -16.8000     1.1078     4.7500     4.800
     16    -0.0000    -0.0000     4.3500    -0.0500      4.737     69.000  11001.000      5.000    98.9520   141.7955   -76.4090     0.4200    -1.0000    28.1520     0.0000     0.0000    21.7025    42.6976    -1.0000    -1.5000     0.0000     0.0000     0.0000     0.0000    17.0000     8.0000     8.0000    17.0000     0.0000     0.0000   142.0306   -75.9388     0.0000    -4.2998    -2.9995    -1.8994    -0.6005     0.4003     1.8994     2.7994     3.8002    31.3400    22.1100    13.8400     6.4800    -5.6200   -10.4100   -14.3900   -16.8000     1.1053     4.7500     4.800
     17     0.0000    -0.0000     4.3400    -0.0500      4.685     62.000  11001.000      5.000    98.9520   141.7955   -76.4090     0.4200    -1.0000    28.1520     0.0000     0.0000    21.6475    42.5947    -1.0000    -1.5000     0.0000     0.0000     0.0000     0.0000    17.0000     8.0000     8.0000    17.0000     0.0000     0.0000   142.0306   -75.9388     0.0000    -4.2998    -2.9995    -1.8994    -0.6005     0.4003     1.8994     2.7994     3.8002    31.3400    22.1100    13.8400     6.4800    -5.6200   -10.4100   -14.3900   -16.8000     1.1027     4.7500     4.800
     18     0.0000    -0.0000     4.3300    -0.0500      4.637     61.000  11001.000      5.000    98.9520   141.7955   -76.4090     0.4200    -1.0000    28.1520     0.0000     0.0000    21.5950    42.4918    -1.0000    -1.5000     0.0000     0.0000     0.0000     0.0000    17.0000     8.0000     8.0000    17.0000     0.0000     0.0000   142.0306   -75.9388     0.0000    -4.2998    -2.9995    -1.8994    -0.6005     0.4003     1.8994     2.7994     3.8002    31.3400    22.1100    13.8400     6.4800    -5.6200   -10.4100   -14.3900   -16.8000     1.1002     4.7500     4.800
     19     0.0000    -0.0000     4.3200    -0.0500      4.671     68.000  11001.000      5.000    98.9520   141.7955   -76.4090     0.4200    -1.0000    28.1520     0.0000     0.0000    21.5425    42.3889    -1.0000    -1.5000     0.0000     0.0000     0.0000     0.0000    17.0000     8.0000     8.0000    17.0000     0.0000     0.0000   142.0306   -75.9388     0.0000    -4.2998    -2.9995    -1.8994    -0.6005     0.4003     1.8994     2.7994     3.8002    31.3400    22.1100    13.8400     6.4800    -5.6200   -10.4100   -14.3900   -16.8000     1.0977     4.7500     4.800
     20     0.0000    -0.0000     4.3100    -0.0500      4.676     69.000  11001.000      5.000    98.9520   141.7955   -76.4090     0.4200    -1.0000    28.1520     0.0000     0.0000    21.4900    42.2860    -1.0000    -1.5000     0.0000     0.0000     0.0000     0.0000    17.0000     8.0000     8.0000    17.0000     0.0000     0.0000   142.0306   -75.9388     0.0000    -4.2998    -2.9995    -1.8994    -0.6005     0.4003     1.8994     2.7994     3.8002    31.3400    22.1100    13.8400     6.4800    -5.6200   -10.4100   -14.3900   -16.8000     1.0951     4.7500     4.800
     21     0.0000    -0.0000     4.3000    -0.0500      4.658     74.000  11001.000      5.000    98.9520   141.7955   -76.4090     0.4200    -1.0000    28.1520     0.0000     0.0000    21.4375    42.1832    -1.0000    -1.5000     0.0000     0.0000     0.0000     0.0000    17.0000     8.0000     8.0000    17.0000     0.0000     0.0000   142.0306   -75.9388     0.0000    -4.2998    -2.9995    -1.8994    -0.6005     0.4003     1.8994     2.7994     3.8002    31.3400    22.1100    13.8400     6.4800    -5.6200   -10.4100   -14.3900   -16.8000     1.0926     4.7500     4.800
     22     0.0000    -0.0000     4.2900    -0.0500      4.703     61.000  11001.000      5.000    98.9520   141.7955   -76.4090     0.4200    -1.0000    28.1520     0.0000     0.0000    21.3850    42.0804    -1.0000    -1.5000     0.0000     0.0000     0.0000     0.0000    17.0000     8.0000     8.0000    17.0000     0.0000     0.0000   142.0306   -75.9388     0.0000    -4.2998    -2.9995    -1.8994    -0.6005     0.4003     1.8994     2.7994     3.8002    31.3400    22.1100    13.8400     6.4800    -5.6200   -10.4100   -14.3900   -16.8000     1.0900     4.7500     4.800
     23    -0.0000    -0.0000     4.2800    -0.0500      4.756     78.000  11001.000      5.000    98.9520   141.7955   -76.4090     0.4200    -1.0000    28.1520     0.0000     0.0000    21.3350    41.9777    -1.0000    -1.5000     0.0000     0.0000     0.0000     0.0000    17.0000     8.0000     8.0000    17.0000     0.0000     0.0000   142.0306   -75.9388     0.0000    -4.2998    -2.9995    -1.8994    -0.6005     0.4003     1.8994     2.7994     3.8002    31.3400    22.1100    13.8400     6.4800    -5.6200   -10.4100   -14.3900   -16.8000     1.0875     4.7500     4.800
     24     0.0000    -0.0000     4.2700    -0.0500      4.649     58.000  11001.000      5.000    98.9520   141.7955   -76.4090     0.4200    -1.0000    28.1520     0.0000     0.0000    21.2800    41.8750    -1.0000    -1.5000     0.0000     0.0000     0.0000     0.0000    17.0000     8.0000     8.0000    17.0000     0.0000     0.0000   142.0306   -75.9388     0.0000    -4.2998    -2.9995    -1.8994    -0.6005     0.4003     1.8994     2.7994     3.8002    31.3400    22.1100    13.8400     6.4800    -5.6200   -10.4100   -14.3900   -16.8000     1.0850     4.7500     4.800
     25     0.0000    -0.0000     4.2600    -0.0500      4.622     75.000  11001.000      5.000    98.9520   141.7955   -76.4090     0.4200    -1.0000    28.1520     0.0000     0.0000    21.2275    41.7724    -1.0000    -1.5000     0.0000     0.0000     0.0000     0.0000    17.0000     8.0000     8.0000    17.0000     0.0000     0.0000   142.0306   -75.9388     0.0000    -4.2998    -2.9995    -1.8994    -0.6005     0.4003     1.8994     2.7994     3.8002    31.3400    22.1100    13.8400     6.4800    -5.6200   -10.4100   -14.3900   -16.8000     1.0824     4.7500     4.800
     26    -0.0000    -0.0000     4.2500    -0.0500      4.726     69.000  11001.000      5.000    98.9520   141.7955   -76.4090     0.4200    -1.0000    28.1520     0.0000     0.0000    21.1775    41.6697    -1.0000    -1.5000     0.0000     0.0000     0.0000     0.0000    17.0000     8.0000     8.0000    17.0000     0.0000     0.0000   142.0306   -75.9388     0.0000    -4.2998    -2.9995    -1.8994    -0.6005     0.4003     1.8994     2.7994     3.8002    31.3400    22.1100    13.8400     6.4800    -5.6200   -10.4100   -14.3900   -16.8000     1.0799     4.7500     4.800
     27     0.0000    -0.0000     4.2400    -0.0500      4.674     70.000  11001.000      5.000    98.9520   141.7955   -76.4090     0.4200    -1.0000    28.1520     0.0000     0.0000    21.1225    41.5671    -1.0000    -1.5000     0.0000     0.0000     0.0000     0.0000    17.0000     8.0000     8.0000    17.0000     0.0000     0.0000   142.0306   -75.9388     0.0000    -4.2998    -2.9995    -1.8994    -0.6005     0.4003     1.8994     2.7994     3.8002    31.3400    22.1100    13.8400     6.4800    -5.6200   -10.4100   -14.3900   -16.8000     1.0773     4.7500     4.800
     28     0.0000    -0.0000     4.2300    -0.0500      4.626     70.000  11001.000      5.000    98.9520   141.7955   -76.4090     0.4200    -1.0000    28.1520     0.0000     0.0000    21.0675    41.4646    -1.0000    -1.5000     0.0000     0.0000     0.0000     0.0000    17.0000     8.0000     8.0000    17.0000     0.0000     0.0000   142.0306   -75.9388     0.0000    -4.2998    -2.9995    -1.8994    -0.6005     0.4003     1.8994     2.7994     3.8002    31.3400    22.1100    13.8400     6.4800    -5.6200   -10.4100   -14.3900   -16.8000     1.0748     4.7500     4.800
     29    -0.0000    -0.0000     4.2200    -0.0500      4.635     62.000  11001.000      5.000    98.9520   141.7955   -76.4090     0.4200    -1.0000    28.1520     0.0000     0.0000    21.0225    41.3620    -1.0000    -1.5000     0.0000     0.0000     0.0000     0.0000    17.0000     8.0000     8.0000    17.0000     0.0000     0.0000   142.0306   -75.9388     0.0000    -4.2998    -2.9995    -1.8994    -0.6005     0.4003     1.8994     2.7994     3.8002    31.3400    22.1100    13.8400     6.4800    -5.6200   -10.4100   -14.3900   -16.8000     1.0722     4.7500     4.800
     30     0.0000    -0.0000     4.2100    -0.0500      4.681     79.000  11001.000      5.000    98.9520   141.7955   -76.4090     0.4200    -1.0000    28.1520     0.0000     0.0000    20.9650    41.2595    -1.0000    -1.5000     0.0000     0.0000     0.0000     0.0000    17.0000     8.0000     8.0000    17.0000     0.0000     0.0000   142.0306   -75.9388     0.0000    -4.2998    -2.9995    -1.8994    -0.6005     0.4003     1.8994     2.7994     3.8002    31.3400    22.1100    13.8400     6.4800    -5.6200   -10.4100   -14.3900   -16.8000     1.0697     4.7500     4.800
     31    -0.0000    -0.0000     4.2000    -0.0500      4.670     57.000  11001.000      5.000    98.9520   141.7955   -76.4090     0.4200    -1.0000    28.1520     0.0000     0.0000    20.9150    41.1571    -1.0000    -1.5000     0.0000     0.0000     0.0000     0.0000    17.0000     8.0000     8.0000    17.0000     0.0000     0.0000   142.0306   -75.9388     0.0000    -4.2998    -2.9995    -1.8994    -0.6005     0.4003     1.8994     2.7994     3.8002    31.3400    22.1100    13.8400     6.4800    -5.6200   -10.4100   -14.3900   -16.8000     1.0672     4.7500     4.800
     32    -0.0000    -0.0000     4.1900    -0.0500      4.615     74.000  11001.000      5.000    98.9520   141.7955   -76.4090     0.4200    -1.0000    28.1520     0.0000     0.0000    20.8625    41.0546    -1.0000    -1.5000     0.0000     0.0000     0.0000     0.0000    17.0000     8.0000     8.0000    17.0000     0.0000     0.0000   142.0306   -75.9388     0.0000    -4.2998    -2.9995    -1.8994    -0.6005     0.4003     1.8994     2.7994     3.8002    31.3400    22.1100    13.8400     6.4800    -5.6200   -10.4100   -14.3900   -16.8000     1.0646     4.7500     4.800
     33    -0.0000    -0.0000     4.1800    -0.0500      4.621     69.000  11001.000      5.000    98.9520   141.7955   -76.4090     0.4200    -1.0000    28.1520     0.0000     0.0000    20.8100    40.9522    -1.0000    -1.5000     0.0000     0.0000     0.0000     0.0000    17.0000     8.0000     8.0000    17.0000     0.0000     0.0000   142.0306   -75.9388     0.0000    -4.2998    -2.9995    -1.8994    -0.6005     0.4003     1.8994     2.7994     3.8002    31.3400    22.1100    13.8400     6.4800    -5.6200   -10.4100   -14.3900   -16.8000     1.0621     4.7500     4.800
     34     0.0000    -0.0000     4.1700    -0.0500      4.666     90.000  11001.000      5.000    98.9520   141.7955   -76.4090     0.4200    -1.0000    28.1520     0.0000     0.0000    20.7550    40.8499    -1.0000    -1.5000     0.0000     0.0000     0.0000     0.0000    17.0000     8.0000     8.0000    17.0000     0.0000     0.0000   142.0306   -75.9388     0.0000    -4.2998    -2.9995    -1.8994    -0.6005     0.4003     1.8994     2.7994     3.8002    31.3400    22.1100    13.8400     6.4800    -5.6200   -10.4100   -14.3900   -16.8000     1.0595     4.7500     4.800
     35    -0.0000    -0.0000     4.1600    -0.0500      4.605    164.000  11001.000      5.000    98.9520   141.7955   -76.4090     0.4200    -1.0000    28.1520     0.0000     0.0000    20.7050    40.7476    -1.0000    -1.5000     0.0000     0.0000     0.0000     0.0000    17.0000     8.0000     8.0000    17.0000     0.0000     0.0000   142.0306   -75.9388     0.0000    -4.2998    -2.9995    -1.8994    -0.6005     0.4003     1.8994     2.7994     3.8002    31.3400    22.1100    13.8400     6.4800    -5.6200   -10.4100   -14.3900   -16.8000     1.0570     4.7500     4.800
     36    -0.0000    -0.0000     4.1500    -0.0500      4.682    360.000  11001.000      5.000    98.9520   141.7955   -76.4090     0.4200    -1.0000    28.1520     0.0000     0.0000    20.6550    40.6453    -1.0000    -1.5000     0.0000     0.0000     0.0000     0.0000    17.0000     8.0000     8.0000    17.0000     0.0000     0.0000   142.0306   -75.9388     0.0000    -4.2998    -2.9995    -1.8994    -0.6005     0.4003     1.8994     2.7994     3.8002    31.3400    22.1100    13.8400     6.4800    -5.6200   -10.4100   -14.3900   -16.8000     1.0545     4.7500     4.800
     37     0.0000    -0.0000     4.1400    -0.0500      4.661   1015.000  11001.000      5.000    98.9520   141.7955   -76.4090     0.4200    -1.0000    28.1520     0.0000     0.0000    20.6000    40.5430    -1.0000    -1.5000     0.0000     0.0000     0.0000     0.0000    17.0000     8.0000     8.0000    17.0000     0.0000     0.0000   142.0306   -75.9388     0.0000    -4.2998    -2.9995    -1.8994    -0.6005     0.4003     1.8994     2.7994     3.8002    31.3400    22.1100    13.8400     6.4800    -5.6200   -10.4100   -14.3900   -16.8000     1.0519     4.7500     4.800
     38     0.0000    -0.0000     4.1300    -0.0500      4.609   2090.000  11001.000      5.000    98.9520   141.7955   -76.4090     0.4200    -1.0000    28.1520     0.0000     0.0000    20.5475    40.4408    -1.0000    -1.5000     0.0000     0.0000     0.0000     0.0000    17.0000     8.0000     8.0000    17.0000     0.0000     0.0000   142.0306   -75.9388     0.0000    -4.2998    -2.9995    -1.8994    -0.6005     0.4003     1.8994     2.7994     3.8002    31.3400    22.1100    13.8400     6.4800    -5.6200   -10.4100   -14.3900   -16.8000     1.0494     4.7500     4.800
     39     0.0000    -0.0000     4.1200    -0.0500      4.672   3408.000  11001.000      5.000    98.9520   141.7955   -76.4090     0.4200    -1.0000    28.1520     0.0000     0.0000    20.4950    40.3386    -1.0000    -1.5000     0.0000     0.0000     0.0000     0.0000    17.0000     8.0000     8.0000    17.0000     0.0000     0.0000   142.0306   -75.9388     0.0000    -4.2998    -2.9995    -1.8994    -0.6005     0.4003     1.8994     2.7994     3.8002    31.3400    22.1100    13.8400     6.4800    -5.6200   -10.4100   -14.3900   -16.8000     1.0468     4.7500     4.800
     40    -0.0000    -0.0000     4.1100    -0.0500      4.635   4395.000  11001.000      5.000    98.9520   141.7955   -76.4090     0.4200    -1.0000    28.1520     0.0000     0.0000    20.4450    40.2365    -1.0000    -1.5000     0.0000     0.0000     0.0000     0.0000    17.0000     8.0000     8.0000    17.0000     0.0000     0.0000   142.0306   -75.9388     0.0000    -4.2998    -2.9995    -1.8994    -0.6005     0.4003     1.8994     2.7994     3.8002    31.3400    22.1100    13.8400     6.4800    -5.6200   -10.4100   -14.3900   -16.8000     1.0443     4.7500     4.800
     41    -0.0000    -0.0000     4.1000    -0.0500      4.671   4981.000  11001.000      5.000    98.9520   141.7955   -76.4090     0.4200    -1.0000    28.1520     0.0000     0.0000    20.3925    40.1344    -1.0000    -1.5000     0.0000     0.0000     0.0000     0.0000    17.0000     8.0000     8.0000    17.0000     0.0000     0.0000   142.0306   -75.9388     0.0000    -4.2998    -2.9995    -1.8994    -0.6005     0.4003     1.8994     2.7994     3.8002    31.3400    22.1100    13.8400     6.4800    -5.6200   -10.4100   -14.3900   -16.8000     1.0418     4.7500     4.800
     42    -0.0000    -0.0000     4.0900    -0.0500      4.644   3833.000  11001.000      5.000    98.9520   141.7955   -76.4090     0.4200    -1.0000    28.1520     0.0000     0.0000    20.3400    40.0323    -1.0000    -1.5000     0.0000     0.0000     0.0000     0.0000    17.0000     8.0000     8.0000    17.0000     0.0000     0.0000   142.0306   -75.9388     0.0000    -4.2998    -2.9995    -1.8994    -0.6005     0.4003     1.8994     2.7994     3.8002    31.3400    22.1100    13.8400     6.4800    -5.6200   -10.4100   -14.3900   -16.8000     1.0392     4.7500     4.800
     43     0.0000    -0.0000     4.0800    -0.0500      4.605   2917.000  11001.000      5.000    98.9520   141.7955   -76.4090     0.4200    -1.0000    28.1520     0.0000     0.0000    20.2850    39.9302    -1.0000    -1.5000     0.0000     0.0000     0.0000     0.0000    17.0000     8.0000     8.0000    17.0000     0.0000     0.0000   142.0306   -75.9388     0.0000    -4.2998    -2.9995    -1.8994    -0.6005     0.4003     1.8994     2.7994     3.8002    31.3400    22.1100    13.8400     6.4800    -5.6200   -10.4100   -14.3900   -16.8000     1.0367     4.7500     4.800
     44    -0.0000    -0.0000     4.0700    -0.0500      4.657   1641.000  11001.000      5.000    98.9520   141.7955   -76.4090     0.4200    -1.0000    28.1520     0.0000     0.0000    20.2375    39.8282    -1.0000    -1.5000     0.0000     0.0000     0.0000     0.0000    17.0000     8.0000     8.0000    17.0000     0.0000     0.0000   142.0306   -75.9388     0.0000    -4.2998    -2.9995    -1.8994    -0.6005     0.4003     1.8994     2.7994     3.8002    31.3400    22.1100    13.8400     6.4800    -5.6200   -10.4100   -14.3900   -16.8000     1.0341     4.7500     4.800
     45     0.0000    -0.0000     4.0600    -0.0500      4.671    767.000  11001.000      5.000    98.9520   141.7955   -76.4090     0.4200    -1.0000    28.1520     0.0000     0.0000    20.1825    39.7262    -1.0000    -1.5000     0.0000     0.0000     0.0000     0.0000    17.0000     8.0000     8.0000    17.0000     0.0000     0.0000   142.0306   -75.9388     0.0000    -4.2998    -2.9995    -1.8994    -0.6005     0.4003     1.8994     2.7994     3.8002    31.3400    22.1100    13.8400     6.4800    -5.6200   -10.4100   -14.3900   -16.8000     1.0316     4.7500     4.800
     46    -0.0000    -0.0000     4.0500    -0.0500      4.636    337.000  11001.000      5.000    98.9520   141.7955   -76.4090     0.4200    -1.0000    28.1520     0.0000     0.0000    20.1325    39.6242    -1.0000    -1.5000     0.0000     0.0000     0.0000     0.0000    17.0000     8.0000     8.0000    17.0000     0.0000     0.0000   142.0306   -75.9388     0.0000    -4.2998    -2.9995    -1.8994    -0.6005     0.4003     1.8994     2.7994     3.8002    31.3400    22.1100    13.8400     6.4800    -5.6200   -10.4100   -14.3900   -16.8000     1.0291     4.7500     4.800
     47     0.0000    -0.0000     4.0400    -0.0500      4.645    168.000  11001.000      5.000    98.9520   141.7955   -76.4090     0.4200    -1.0000    28.1520     0.0000     0.0000    20.0750    39.5223    -1.0000    -1.5000     0.0000     0.0000     0.0000     0.0000    17.0000     8.0000     8.0000    17.0000     0.0000     0.0000   142.0306   -75.9388     0.0000    -4.2998    -2.9995    -1.8994    -0.6005     0.4003     1.8994     2.7994     3.8002    31.3400    22.1100    13.8400     6.4800    -5.6200   -10.4100   -14.3900   -16.8000     1.0265     4.7500     4.800
     48    -0.0000    -0.0000     4.0300    -0.0500      4.641    157.000  11001.000      5.000    98.9520   141.7955   -76.4090     0.4200    -1.0000    28.1520     0.0000     0.0000    20.0300    39.4204    -1.0000    -1.5000     0.0000     0.0000     0.0000     0.0000    17.0000     8.0000     8.0000    17.0000     0.0000     0.0000   142.0306   -75.9388     0.0000    -4.2998    -2.9995    -1.8994    -0.6005     0.4003     1.8994     2.7994     3.8002    31.3400    22.1100    13.8400     6.4800    -5.6200   -10.4100   -14.3900   -16.8000     1.0240     4.7500     4.800
     49     0.0000    -0.0000     4.0200    -0.0500      4.645    119.000  11001.000      5.000    98.9520   141.7955   -76.4090     0.4200    -1.0000    28.1520     0.0000     0.0000    19.9725    39.3186    -1.0000    -1.5000     0.0000     0.0000     0.0000     0.0000    17.0000     8.0000     8.0000    17.0000     0.0000     0.0000   142.0306   -75.9388     0.0000    -4.2998    -2.9995    -1.8994    -0.6005     0.4003     1.8994     2.7994     3.8002    31.3400    22.1100    13.8400     6.4800    -5.6200   -10.4100   -14.3900   -16.8000     1.0214     4.7500     4.800
     50    -0.0000    -0.0000     4.0100    -0.0500      4.740     91.000  11001.000      5.000    98.9520   141.7955   -76.4090     0.4200    -1.0000    28.1520     0.0000     0.0000    19.9225    39.2168    -1.0000    -1.5000     0.0000     0.0000     0.0000     0.0000    17.0000     8.0000     8.0000    17.0000     0.0000     0.0000   142.0306   -75.9388     0.0000    -4.2998    -2.9995    -1.8994    -0.6005     0.4003     1.8994     2.7994     3.8002    31.3400    22.1100    13.8400     6.4800    -5.6200   -10.4100   -14.3900   -16.8000     1.0189     4.7500     4.800
     51    -0.0000    -0.0000     4.0000    -0.0500      4.686     98.000  11001.000      5.000    98.9520   141.7955   -76.4090     0.4200    -1.0000    28.1520     0.0000     0.0000    19.8725    39.1150    -1.0000    -1.5000     0.0000     0.0000     0.0000     0.0000    17.0000     8.0000     8.0000    17.0000     0.0000     0.0000   142.0306   -75.9388     0.0000    -4.2998    -2.9995    -1.8994    -0.6005     0.4003     1.8994     2.7994     3.8002    31.3400    22.1100    13.8400     6.4800    -5.6200   -10.4100   -14.3900   -16.8000     1.0163     4.7500     4.800
     52     0.0000    -0.0000     3.9900    -0.0500      4.777     87.000  11001.000      5.000    98.9520   141.7955   -76.4090     0.4200    -1.0000    28.1520     0.0000     0.0000    19.8175    39.0132    -1.0000    -1.5000     0.0000     0.0000     0.0000     0.0000    17.0000     8.0000     8.0000    17.0000     0.0000     0.0000   142.0306   -75.9388     0.0000    -4.2998    -2.9995    -1.8994    -0.6005     0.4003     1.8994     2.7994     3.8002    31.3400    22.1100    13.8400     6.4800    -5.6200   -10.4100   -14.3900   -16.8000     1.0138     4.7500     4.800
     53     0.0000    -0.0000     3.9800    -0.0500      4.707     64.000  11001.000      5.000    98.9520   141.7955   -76.4090     0.4200    -1.0000    28.1520     0.0000     0.0000    19.7650    38.9115    -1.0000    -1.5000     0.0000     0.0000     0.0000     0.0000    17.0000     8.0000     8.0000    17.0000     0.0000     0.0000   142.0306   -75.9388     0.0000    -4.2998    -2.9995    -1.8994    -0.6005     0.4003     1.8994     2.7994     3.8002    31.3400    22.1100    13.8400     6.4800    -5.6200   -10.4100   -14.3900   -16.8000     1.0113     4.7500     4.800
     54    -0.0000    -0.0000     3.9700    -0.0500      4.653     74.000  11001.000      5.000    98.9520   141.7955   -76.4090     0.4200    -1.0000    28.1520     0.0000     0.0000    19.7150    38.8098    -1.0000    -1.5000     0.0000     0.0000     0.0000     0.0000    17.0000     8.0000     8.0000    17.0000     0.0000     0.0000   142.0306   -75.9388     0.0000    -4.2998    -2.9995    -1.8994    -0.6005     0.4003     1.8994     2.7994     3.8002    31.3400    22.1100    13.8400     6.4800    -5.6200   -10.4100   -14.3900   -16.8000     1.0087     4.7500     4.800
     55    -0.0000    -0.0000     3.9600    -0.0500      4.661     73.000  11001.000      5.000    98.9520   141.7955   -76.4090     0.4200    -1.0000    28.1520     0.0000     0.0000    19.6625    38.7081    -1.0000    -1.5000     0.0000     0.0000     0.0000     0.0000    17.0000     8.0000     8.0000    17.0000     0.0000     0.0000   142.0306   -75.9388     0.0000    -4.2998    -2.9995    -1.8994    -0.6005     0.4003     1.8994     2.7994     3.8002    31.3400    22.1100    13.8400     6.4800    -5.6200   -10.4100   -14.3900   -16.8000     1.0062     4.7500     4.800
     56     0.0000    -0.0000     3.9500    -0.0500      4.643     71.000  11001.000      5.000    98.9520   141.7955   -76.4090     0.4200    -1.0000    28.1520     0.0000     0.0000    19.6100    38.6065    -1.0000    -1.5000     0.0000     0.0000     0.0000     0.0000    17.0000     8.0000     8.0000    17.0000     0.0000     0.0000   142.0306   -75.9388     0.0000    -4.2998    -2.9995    -1.8994    -0.6005     0.4003     1.8994     2.7994     3.8002    31.3400    22.1100    13.8400     6.4800    -5.6200   -10.4100   -14.3900   -16.8000     1.0036     4.7500     4.800
     57     0.0000    -0.0000     3.9400    -0.0500      4.666     80.000  11001.000      5.000    98.9520   141.7955   -76.4090     0.4200    -1.0000    28.1520     0.0000     0.0000    19.5575    38.5049    -1.0000    -1.5000     0.0000     0.0000     0.0000     0.0000    17.0000     8.0000     8.0000    17.0000     0.0000     0.0000   142.0306   -75.9388     0.0000    -4.2998    -2.9995    -1.8994    -0.6005     0.4003     1.8994     2.7994     3.8002    31.3400    22.1100    13.8400     6.4800    -5.6200   -10.4100   -14.3900   -16.8000     1.0011     4.7500     4.800
     58     0.0000    -0.0000     3.9300    -0.0500      4.684     81.000  11001.000      5.000    98.9520   141.7955   -76.4090     0.4200    -1.0000    28.1520     0.0000     0.0000    19.5050    38.4033    -1.0000    -1.5000     0.0000     0.0000     0.0000     0.0000    17.0000     8.0000     8.0000    17.0000     0.0000     0.0000   142.0306   -75.9388     0.0000    -4.2998    -2.9995    -1.8994    -0.6005     0.4003     1.8994     2.7994     3.8002    31.3400    22.1100    13.8400     6.4800    -5.6200   -10.4100   -14.3900   -16.8000     0.9986     4.7500     4.800
     59    -0.0000    -0.0000     3.9200    -0.0500      4.736     67.000  11001.000      5.000    98.9520   141.7955   -76.4090     0.4200    -1.0000    28.1520     0.0000     0.0000    19.4550    38.3018    -1.0000    -1.5000     0.0000     0.0000     0.0000     0.0000    17.0000     8.0000     8.0000    17.0000     0.0000     0.0000   142.0306   -75.9388     0.0000    -4.2998    -2.9995    -1.8994    -0.6005     0.4003     1.8994     2.7994     3.8002    31.3400    22.1100    13.8400     6.4800    -5.6200   -10.4100   -14.3900   -16.8000     0.9960     4.7500     4.800
     60    -0.0000    -0.0000     3.9100    -0.0500      4.640     73.000  11001.000      5.000    98.9520   141.7955   -76.4090     0.4200    -1.0000    28.1520     0.0000     0.0000    19.4025    38.2002    -1.0000    -1.5000     0.0000     0.0000     0.0000     0.0000    17.0000     8.0000     8.0000    17.0000     0.0000     0.0000   142.0306   -75.9388     0.0000    -4.2998    -2.9995    -1.8994    -0.6005     0.4003     1.8994     2.7994     3.8002    31.3400    22.1100    13.8400     6.4800    -5.6200   -10.4100   -14.3900   -16.8000     0.9935     4.7500     4.800
     61     0.0000    -0.0000     3.9000    -0.0500      4.701     66.000  11001.000      5.000    98.9520   141.7955   -76.4090     0.4200    -1.0000    28.1520     0.0000     0.0000    19.3500    38.0988    -1.0000    -1.5000     0.0000     0.0000     0.0000     0.0000    17.0000     8.0000     8.0000    17.0000     0.0000     0.0000   142.0306   -75.9388     0.0000    -4.2998    -2.9995    -1.8994    -0.6005     0.4003     1.8994     2.7994     3.8002    31.3400    22.1100    13.8400     6.4800    -5.6200   -10.4100   -14.3900   -16.8000     0.9909     4.7500     4.800
     62     0.0000    -0.0000     3.8900    -0.0500      4.579     56.000  11001.000      5.000    98.9520   141.7955   -76.4090     0.4200    -1.0000    28.1520     0.0000     0.0000    19.2975    37.9973    -1.0000    -1.5000     0.0000     0.0000     0.0000     0.0000    17.0000     8.0000     8.0000    17.0000     0.0000     0.0000   142.0306   -75.9388     0.0000    -4.2998    -2.9995    -1.8994    -0.6005     0.4003     1.8994     2.7994     3.8002    31.3400    22.1100    13.8400     6.4800    -5.6200   -10.4100   -14.3900   -16.8000     0.9884     4.7500     4.800
     63    -0.0000    -0.0000     3.8800    -0.0500      4.583     64.000  11001.000      5.000    98.9520   141.7955   -76.4090     0.4200    -1.0000    28.1520     0.0000     0.0000    19.2475    37.8959    -1.0000    -1.5000     0.0000     0.0000     0.0000     0.0000    17.0000     8.0000     8.0000    17.0000     0.0000     0.0000   142.0306   -75.9388     0.0000    -4.2998    -2.9995    -1.8994    -0.6005     0.4003     1.8994     2.7994     3.8002    31.3400    22.1100    13.8400     6.4800    -5.6200   -10.4100   -14.3900   -16.8000     0.9859     4.7500     4.800
     64     0.0000    -0.0000     3.8700    -0.0500      4.713     68.000  11001.000      5.000    98.9520   141.7955   -76.4090     0.4200    -1.0000    28.1520     0.0000     0.0000    19.1925    37.7945    -1.0000    -1.5000     0.0000     0.0000     0.0000     0.0000    17.0000     8.0000     8.0000    17.0000     0.0000     0.0000   142.0306   -75.9388     0.0000    -4.2998    -2.9995    -1.8994    -0.6005     0.4003     1.8994     2.7994     3.8002    31.3400    22.1100    13.8400     6.4800    -5.6200   -10.4100   -14.3900   -16.8000     0.9833     4.7500     4.800
     65    -0.0000    -0.0000     3.8600    -0.0500      4.675     71.000  11001.000      5.000    98.9520   141.7955   -76.4090     0.4200    -1.0000    28.1520     0.0000     0.0000    19.1425    37.6932    -1.0000    -1.5000     0.0000     0.0000     0.0000     0.0000    17.0000     8.0000     8.0000    17.0000     0.0000     0.0000   142.0306   -75.9388     0.0000    -4.2998    -2.9995    -1.8994    -0.6005     0.4003     1.8994     2.7994     3.8002    31.3400    22.1100    13.8400     6.4800    -5.6200   -10.4100   -14.3900   -16.8000     0.9808     4.7500     4.800
     66     0.0000    -0.0000     3.8500    -0.0500      4.710     69.000  11001.000      5.000    98.9520   141.7955   -76.4090     0.4200    -1.0000    28.1520     0.0000     0.0000    19.0900    37.5918    -1.0000    -1.5000     0.0000     0.0000     0.0000     0.0000    17.0000     8.0000     8.0000    17.0000     0.0000     0.0000   142.0306   -75.9388     0.0000    -4.2998    -2.9995    -1.8994    -0.6005     0.4003     1.8994     2.7994     3.8002    31.3400    22.1100    13.8400     6.4800    -5.6200   -10.4100   -14.3900   -16.8000     0.9782     4.7500     4.800
     67     0.0000    -0.0000     3.8400    -0.0500      4.647     63.000  11001.000      5.000    98.9520   141.7955   -76.4090     0.4200    -1.0000    28.1520     0.0000     0.0000    19.0375    37.4906    -1.0000    -1.5000     0.0000     0.0000     0.0000     0.0000    17.0000     8.0000     8.0000    17.0000     0.0000     0.0000   142.0306   -75.9388     0.0000    -4.2998    -2.9995    -1.8994    -0.6005     0.4003     1.8994     2.7994     3.8002    31.3400    22.1100    13.8400     6.4800    -5.6200   -10.4100   -14.3900   -16.8000     0.9757     4.7500     4.800
     68     0.0000    -0.0000     3.8300    -0.0500      4.655     78.000  11001.000      5.000    98.9520   141.7955   -76.4090     0.4200    -1.0000    28.1520     0.0000     0.0000    18.9850    37.3893    -1.0000    -1.5000     0.0000     0.0000     0.0000     0.0000    17.0000     8.0000     8.0000    17.0000     0.0000     0.0000   142.0306   -75.9388     0.0000    -4.2998    -2.9995    -1.8994    -0.6005     0.4003     1.8994     2.7994     3.8002    31.3400    22.1100    13.8400     6.4800    -5.6200   -10.4100   -14.3900   -16.8000     0.9732     4.7500     4.800
     69    -0.0000    -0.0000     3.8200    -0.0500      4.673     71.000  11001.000      5.000    98.9520   141.7955   -76.4090     0.4200    -1.0000    28.1520     0.0000     0.0000    18.9375    37.2881    -1.0000    -1.5000     0.0000     0.0000     0.0000     0.0000    17.0000     8.0000     8.0000    17.0000     0.0000     0.0000   142.0306   -75.9388     0.0000    -4.2998    -2.9995    -1.8994    -0.6005     0.4003     1.8994     2.7994     3.8002    31.3400    22.1100    13.8400     6.4800    -5.6200   -10.4100   -14.3900   -16.8000     0.9706     4.7500     4.800
     70     0.0000    -0.0000     3.8100    -0.0500      4.647     70.000  11001.000      5.000    98.9520   141.7955   -76.4090     0.4200    -1.0000    28.1520     0.0000     0.0000    18.8825    37.1868    -1.0000    -1.5000     0.0000     0.0000     0.0000     0.0000    17.0000     8.0000     8.0000    17.0000     0.0000     0.0000   142.0306   -75.9388     0.0000    -4.2998    -2.9995    -1.8994    -0.6005     0.4003     1.8994     2.7994     3.8002    31.3400    22.1100    13.8400     6.4800    -5.6200   -10.4100   -14.3900   -16.8000     0.9681     4.7500     4.800
     71     0.0000    -0.0000     3.8000    -0.0500      4.603     58.000  11001.000      5.000    98.9520   141.7955   -76.4090     0.4200    -1.0000    28.1520     0.0000     0.0000    18.8300    37.0857    -1.0000    -1.5000     0.0000     0.0000     0.0000     0.0000    17.0000     8.0000     8.0000    17.0000     0.0000     0.0000   142.0306   -75.9388     0.0000    -4.2998    -2.9995    -1.8994    -0.6005     0.4003     1.8994     2.7994     3.8002    31.3400    22.1100    13.8400     6.4800    -5.6200   -10.4100   -14.3900   -16.8000     0.9655     4.7500     4.800
     72    -0.0000    -0.0000     3.7900    -0.0500      4.679     69.000  11001.000      5.000    98.9520   141.7955   -76.4090     0.4200    -1.0000    28.1520     0.0000     0.0000    18.7800    36.9846    -1.0000    -1.5000     0.0000     0.0000     0.0000     0.0000    17.0000     8.0000     8.0000    17.0000     0.0000     0.0000   142.0306   -75.9388     0.0000    -4.2998    -2.9995    -1.8994    -0.6005     0.4003     1.8994     2.7994     3.8002    31.3400    22.1100    13.8400     6.4800    -5.6200   -10.4100   -14.3900   -16.8000     0.9630     4.7500     4.800
     73    -0.0000    -0.0000     3.7800    -0.0500      4.588     64.000  11001.000      5.000    98.9520   141.7955   -76.4090     0.4200    -1.0000    28.1520     0.0000     0.0000    18.7275    36.8834    -1.0000    -1.5000     0.0000     0.0000     0.0000     0.0000    17.0000     8.0000     8.0000    17.0000     0.0000     0.0000   142.0306   -75.9388     0.0000    -4.2998    -2.9995    -1.8994    -0.6005     0.4003     1.8994     2.7994     3.8002    31.3400    22.1100    13.8400     6.4800    -5.6200   -10.4100   -14.3900   -16.8000     0.9604     4.7500     4.800
     74     0.0000    -0.0000     3.7700    -0.0500      4.731     66.000  11001.000      5.000    98.9520   141.7955   -76.4090     0.4200    -1.0000    28.1520     0.0000     0.0000    18.6725    36.7824    -1.0000    -1.5000     0.0000     0.0000     0.0000     0.0000    17.0000     8.0000     8.0000    17.0000     0.0000     0.0000   142.0306   -75.9388     0.0000    -4.2998    -2.9995    -1.8994    -0.6005     0.4003     1.8994     2.7994     3.8002    31.3400    22.1100    13.8400     6.4800    -5.6200   -10.4100   -14.3900   -16.8000     0.9579     4.7500     4.800
     75    -0.0000    -0.0000     3.7600    -0.0500      4.706     58.000  11001.000      5.000    98.9520   141.7955   -76.4090     0.4200    -1.0000    28.1520     0.0000     0.0000    18.6250    36.6813    -1.0000    -1.5000     0.0000     0.0000     0.0000     0.0000    17.0000     8.0000     8.0000    17.0000     0.0000     0.0000   142.0306   -75.9388     0.0000    -4.2998    -2.9995    -1.8994    -0.6005     0.4003     1.8994     2.7994     3.8002    31.3400    22.1100    13.8400     6.4800    -5.6200   -10.4100   -14.3900   -16.8000     0.9554     4.7500     4.800
     76    -0.0000    -0.0000     3.7500    -0.0500      4.619     58.000  11001.000      5.000    98.9520   141.7955   -76.4090     0.4200    -1.0000    28.1520     0.0000     0.0000    18.5725    36.5803    -1.0000    -1.5000     0.0000     0.0000     0.0000     0.0000    17.0000     8.0000     8.0000    17.0000     0.0000     0.0000   142.0306   -75.9388     0.0000    -4.2998    -2.9995    -1.8994    -0.6005     0.4003     1.8994     2.7994     3.8002    31.3400    22.1100    13.8400     6.4800    -5.6200   -10.4100   -14.3900   -16.8000     0.9528     4.7500     4.800
     77    -0.0000    -0.0000     3.7400    -0.0500      4.628     64.000  11001.000      5.000    98.9520   141.7955   -76.4090     0.4200    -1.0000    28.1520     0.0000     0.0000    18.5200    36.4793    -1.0000    -1.5000     0.0000     0.0000     0.0000     0.0000    17.0000     8.0000     8.0000    17.0000     0.0000     0.0000   142.0306   -75.9388     0.0000    -4.2998    -2.9995    -1.8994    -0.6005     0.4003     1.8994     2.7994     3.8002    31.3400    22.1100    13.8400     6.4800    -5.6200   -10.4100   -14.3900   -16.8000     0.9503     4.7500     4.800
     78     0.0000    -0.0000     3.7300    -0.0500      4.670     61.000  11001.000      5.000    98.9520   141.7955   -76.4090     0.4200    -1.0000    28.1520     0.0000     0.0000    18.4675    36.3783    -1.0000    -1.5000     0.0000     0.0000     0.0000     0.0000    17.0000     8.0000     8.0000    17.0000     0.0000     0.0000   142.0306   -75.9388     0.0000    -4.2998    -2.9995    -1.8994    -0.6005     0.4003     1.8994     2.7994     3.8002    31.3400    22.1100    13.8400     6.4800    -5.6200   -10.4100   -14.3900   -16.8000     0.9477     4.7500     4.800
     79     0.0000    -0.0000     3.7200    -0.0500      4.627     56.000  11001.000      5.000    98.9520   141.7955   -76.4090     0.4200    -1.0000    28.1520     0.0000     0.0000    18.4150    36.2774    -1.0000    -1.5000     0.0000     0.0000     0.0000     0.0000    17.0000     8.0000     8.0000    17.0000     0.0000     0.0000   142.0306   -75.9388     0.0000    -4.2998    -2.9995    -1.8994    -0.6005     0.4003     1.8994     2.7994     3.8002    31.3400    22.1100    13.8400     6.4800    -5.6200   -10.4100   -14.3900   -16.8000     0.9452     4.7500     4.800
     80     0.0000    -0.0000     3.7100    -0.0500      4.681     84.000  11001.000      5.000    98.9520   141.7955   -76.4090     0.4200    -1.0000    28.1520     0.0000     0.0000    18.3625    36.1765    -1.0000    -1.5000     0.0000     0.0000     0.0000     0.0000    17.0000     8.0000     8.0000    17.0000     0.0000     0.0000   142.0306   -75.9388     0.0000    -4.2998    -2.9995    -1.8994    -0.6005     0.4003     1.8994     2.7994     3.8002    31.3400    22.1100    13.8400     6.4800    -5.6200   -10.4100   -14.3900   -16.8000     0.9427     4.7500     4.800
     81    -0.0000    -0.0000     3.7000    -0.0500      4.719     91.000  11001.000      5.000    98.9520   141.7955   -76.4090     0.4200    -1.0000    28.1520     0.0000     0.0000    18.3150    36.0756    -1.0000    -1.5000     0.0000     0.0000     0.0000     0.0000    17.0000     8.0000     8.0000    17.0000     0.0000     0.0000   142.0306   -75.9388     0.0000    -4.2998    -2.9995    -1.8994    -0.6005     0.4003     1.8994     2.7994     3.8002    31.3400    22.1100    13.8400     6.4800    -5.6200   -10.4100   -14.3900   -16.8000     0.9401     4.7500     4.800
     82     0.0000    -0.0000     3.6900    -0.0500      4.607     50.000  11001.000      5.000    98.9520   141.7955   -76.4090     0.4200    -1.0000    28.1520     0.0000     0.0000    18.2600    35.9748    -1.0000    -1.5000     0.0000     0.0000     0.0000     0.0000    17.0000     8.0000     8.0000    17.0000     0.0000     0.0000   142.0306   -75.9388     0.0000    -4.2998    -2.9995    -1.8994    -0.6005     0.4003     1.8994     2.7994     3.8002    31.3400    22.1100    13.8400     6.4800    -5.6200   -10.4100   -14.3900   -16.8000     0.9376     4.7500     4.800
     83    -0.0000    -0.0000     3.6800    -0.0500      4.746     66.000  11001.000      5.000    98.9520   141.7955   -76.4090     0.4200    -1.0000    28.1520     0.0000     0.0000    18.2100    35.8739    -1.0000    -1.5000     0.0000     0.0000     0.0000     0.0000    17.0000     8.0000     8.0000    17.0000     0.0000     0.0000   142.0306   -75.9388     0.0000    -4.2998    -2.9995    -1.8994    -0.6005     0.4003     1.8994     2.7994     3.8002    31.3400    22.1100    13.8400     6.4800    -5.6200   -10.4100   -14.3900   -16.8000     0.9350     4.7500     4.800
     84     0.0000    -0.0000     3.6700    -0.0500      4.671     74.000  11001.000      5.000    98.9520   141.7955   -76.4090     0.4200    -1.0000    28.1520     0.0000     0.0000    18.1550    35.7731    -1.0000    -1.5000     0.0000     0.0000     0.0000     0.0000    17.0000     8.0000     8.0000    17.0000     0.0000     0.0000   142.0306   -75.9388     0.0000    -4.2998    -2.9995    -1.8994    -0.6005     0.4003     1.8994     2.7994     3.8002    31.3400    22.1100    13.8400     6.4800    -5.6200   -10.4100   -14.3900   -16.8000     0.9325     4.7500     4.800
     85     0.0000    -0.0000     3.6600    -0.0500      4.671     64.000  11001.000      5.000    98.9520   141.7955   -76.4090     0.4200    -1.0000    28.1520     0.0000     0.0000    18.1050    35.6724    -1.0000    -1.5000     0.0000     0.0000     0.0000     0.0000    17.0000     8.0000     8.0000    17.0000     0.0000     0.0000   142.0306   -75.9388     0.0000    -4.2998    -2.9995    -1.8994    -0.6005     0.4003     1.8994     2.7994     3.8002    31.3400    22.1100    13.8400     6.4800    -5.6200   -10.4100   -14.3900   -16.8000     0.9300     4.7500     4.800
     86    -0.0000    -0.0000     3.6500    -0.0500      4.650     59.000  11001.000      5.000    98.9520   141.7955   -76.4090     0.4200    -1.0000    28.1520     0.0000     0.0000    18.0550    35.5716    -1.0000    -1.5000     0.0000     0.0000     0.0000     0.0000    17.0000     8.0000     8.0000    17.0000     0.0000     0.0000   142.0306   -75.9388     0.0000    -4.2998    -2.9995    -1.8994    -0.6005     0.4003     1.8994     2.7994     3.8002    31.3400    22.1100    13.8400     6.4800    -5.6200   -10.4100   -14.3900   -16.8000     0.9274     4.7500     4.800
     87     0.0000    -0.0000     3.6400    -0.0500      4.685     57.000  11001.000      5.000    98.9520   141.7955   -76.4090     0.4200    -1.0000    28.1520     0.0000     0.0000    18.0000    35.4709    -1.0000    -1.5000     0.0000     0.0000     0.0000     0.0000    17.0000     8.0000     8.0000    17.0000     0.0000     0.0000   142.0306   -75.9388     0.0000    -4.2998    -2.9995    -1.8994    -0.6005     0.4003     1.8994     2.7994     3.8002    31.3400    22.1100    13.8400     6.4800    -5.6200   -10.4100   -14.3900   -16.8000     0.9249     4.7500     4.800
     88    -0.0000    -0.0000     3.6300    -0.0500      4.621     48.000  11001.000      5.000    98.9520   141.7955   -76.4090     0.4200    -1.0000    28.1520     0.0000     0.0000    17.9500    35.3702    -1.0000    -1.5000     0.0000     0.0000     0.0000     0.0000    17.0000     8.0000     8.0000    17.0000     0.0000     0.0000   142.0306   -75.9388     0.0000    -4.2998    -2.9995    -1.8994    -0.6005     0.4003     1.8994     2.7994     3.8002    31.3400    22.1100    13.8400     6.4800    -5.6200   -10.4100   -14.3900   -16.8000     0.9223     4.7500     4.800
     89     0.0000    -0.0000     3.6200    -0.0500      4.686     71.000  11001.000      5.000    98.9520   141.7955   -76.4090     0.4200    -1.0000    28.1520     0.0000     0.0000    17.8975    35.2696    -1.0000    -1.5000     0.0000     0.0000     0.0000     0.0000    17.0000     8.0000     8.0000    17.0000     0.0000     0.0000   142.0306   -75.9388     0.0000    -4.2998    -2.9995    -1.8994    -0.6005     0.4003     1.8994     2.7994     3.8002    31.3400    22.1100    13.8400     6.4800    -5.6200   -10.4100   -14.3900   -16.8000     0.9198     4.7500     4.800
     90    -0.0000    -0.0000     3.6100    -0.0500      4.700     58.000  11001.000      5.000    98.9520   141.7955   -76.4090     0.4200    -1.0000    28.1520     0.0000     0.0000    17.8475    35.1690    -1.0000    -1.5000     0.0000     0.0000     0.0000     0.0000    17.0000     8.0000     8.0000    17.0000     0.0000     0.0000   142.0306   -75.9388     0.0000    -4.2998    -2.9995    -1.8994    -0.6005     0.4003     1.8994     2.7994     3.8002    31.3400    22.1100    13.8400     6.4800    -5.6200   -10.4100   -14.3900   -16.8000     0.9173     4.7500     4.800
     91    -0.0000    -0.0000     3.6000    -0.0500      4.666     54.000  11001.000      5.000    98.9520   141.7955   -76.4090     0.4200    -1.0000    28.1520     0.0000     0.0000    17.7950    35.0684    -1.0000    -1.5000     0.0000     0.0000     0.0000     0.0000    17.0000     8.0000     8.0000    17.0000     0.0000     0.0000   142.0306   -75.9388     0.0000    -4.2998    -2.9995    -1.8994    -0.6005     0.4003     1.8994     2.7994     3.8002    31.3400    22.1100    13.8400     6.4800    -5.6200   -10.4100   -14.3900   -16.8000     0.9147     4.7500     4.800
     92     0.0000    -0.0000     3.5900    -0.0500      4.672     64.000  11001.000      5.000    98.9520   141.7955   -76.4090     0.4200    -1.0000    28.1520     0.0000     0.0000    17.7425    34.9678    -1.0000    -1.5000     0.0000     0.0000     0.0000     0.0000    17.0000     8.0000     8.0000    17.0000     0.0000     0.0000   142.0306   -75.9388     0.0000    -4.2998    -2.9995    -1.8994    -0.6005     0.4003     1.8994     2.7994     3.8002    31.3400    22.1100    13.8400     6.4800    -5.6200   -10.4100   -14.3900   -16.8000     0.9122     4.7500     4.800
     93     0.0000    -0.0000     3.5800    -0.0500      4.746     69.000  11001.000      5.000    98.9520   141.7955   -76.4090     0.4200    -1.0000    28.1520     0.0000     0.0000    17.6900    34.8673    -1.0000    -1.5000     0.0000     0.0000     0.0000     0.0000    17.0000     8.0000     8.0000    17.0000     0.0000     0.0000   142.0306   -75.9388     0.0000    -4.2998    -2.9995    -1.8994    -0.6005     0.4003     1.8994     2.7994     3.8002    31.3400    22.1100    13.8400     6.4800    -5.6200   -10.4100   -14.3900   -16.8000     0.9096     4.7500     4.800
     94    -0.0000    -0.0000     3.5700    -0.0500      4.707     64.000  11001.000      5.000    98.9520   141.7955   -76.4090     0.4200    -1.0000    28.1520     0.0000     0.0000    17.6400    34.7668    -1.0000    -1.5000     0.0000     0.0000     0.0000     0.0000    17.0000     8.0000     8.0000    17.0000     0.0000     0.0000   142.0306   -75.9388     0.0000    -4.2998    -2.9995    -1.8994    -0.6005     0.4003     1.8994     2.7994     3.8002    31.3400    22.1100    13.8400     6.4800    -5.6200   -10.4100   -14.3900   -16.8000     0.9071     4.7500     4.800
     95     0.0000    -0.0000     3.5600    -0.0500      4.681     61.000  11001.000      5.000    98.9520   141.7955   -76.4090     0.4200    -1.0000    28.1520     0.0000     0.0000    17.5875    34.6663    -1.0000    -1.5000     0.0000     0.0000     0.0000     0.0000    17.0000     8.0000     8.0000    17.0000     0.0000     0.0000   142.0306   -75.9388     0.0000    -4.2998    -2.9995    -1.8994    -0.6005     0.4003     1.8994     2.7994     3.8002    31.3400    22.1100    13.8400     6.4800    -5.6200   -10.4100   -14.3900   -16.8000     0.9045     4.7500     4.800
     96     0.0000    -0.0000     3.5500    -0.0500      4.729     59.000  11001.000      5.000    98.9520   141.7955   -76.4090     0.4200    -1.0000    28.1520     0.0000     0.0000    17.5350    34.5658    -1.0000    -1.5000     0.0000     0.0000     0.0000     0.0000    17.0000     8.0000     8.0000    17.0000     0.0000     0.0000   142.0306   -75.9388     0.0000    -4.2998    -2.9995    -1.8994    -0.6005     0.4003     1.8994     2.7994     3.8002    31.3400    22.1100    13.8400     6.4800    -5.6200   -10.4100   -14.3900   -16.8000     0.9020     4.7500     4.800
     97    -0.0000    -0.0000     3.5400    -0.0500      4.725     58.000  11001.000      5.000    98.9520   141.7955   -76.4090     0.4200    -1.0000    28.1520     0.0000     0.0000    17.4850    34.4654    -1.0000    -1.5000     0.0000     0.0000     0.0000     0.0000    17.0000     8.0000     8.0000    17.0000     0.0000     0.0000   142.0306   -75.9388     0.0000    -4.2998    -2.9995    -1.8994    -0.6005     0.4003     1.8994     2.7994     3.8002    31.3400    22.1100    13.8400     6.4800    -5.6200   -10.4100   -14.3900   -16.8000     0.8995     4.7500     4.800
     98     0.0001    -0.0000     3.5300    -0.0500      4.705     79.000  11001.000      5.000    98.9520   141.7955   -76.4090     0.4200    -1.0000    28.1520     0.0000     0.0000    17.4275    34.3650    -1.0000    -1.5000     0.0000     0.0000     0.0000     0.0000    17.0000     8.0000     8.0000    17.0000     0.0000     0.0000   142.0306   -75.9388     0.0000    -4.2998    -2.9995    -1.8994    -0.6005     0.4003     1.8994     2.7994     3.8002    31.3400    22.1100    13.8400     6.4800    -5.6200   -10.4100   -14.3900   -16.8000     0.8969     4.7500     4.800
     99    -0.0000    -0.0000     3.5200    -0.0500      4.665     64.000  11001.000      5.000    98.9520   141.7955   -76.4090     0.4200    -1.0000    28.1520     0.0000     0.0000    17.3850    34.2646    -1.0000    -1.5000     0.0000     0.0000     0.0000     0.0000    17.0000     8.0000     8.0000    17.0000     0.0000     0.0000   142.0306   -75.9388     0.0000    -4.2998    -2.9995    -1.8994    -0.6005     0.4003     1.8994     2.7994     3.8002    31.3400    22.1100    13.8400     6.4800    -5.6200   -10.4100   -14.3900   -16.8000     0.8944     4.7500     4.800
    100    -0.0000    -0.0000     3.5100    -0.0500      4.696     73.000  11001.000      5.000    98.9520   141.7955   -76.4090     0.4200    -1.0000    28.1520     0.0000     0.0000    17.3300    34.1643    -1.0000    -1.5000     0.0000     0.0000     0.0000     0.0000    17.0000     8.0000     8.0000    17.0000     0.0000     0.0000   142.0306   -75.9388     0.0000    -4.2998    -2.9995    -1.8994    -0.6005     0.4003     1.8994     2.7994     3.8002    31.3400    22.1100    13.8400     6.4800    -5.6200   -10.4100   -14.3900   -16.8000     0.8918     4.7500     4.800
    101     0.0000    -0.0000     3.5000    -0.0500      4.744     54.000  11001.000      5.000    98.9520   141.7955   -76.4090     0.4200    -1.0000    28.1520     0.0000     0.0000    17.2750    34.0640    -1.0000    -1.5000     0.0000     0.0000     0.0000     0.0000    17.0000     8.0000     8.0000    17.0000     0.0000     0.0000   142.0306   -75.9388     0.0000    -4.2998    -2.9995    -1.8994    -0.6005     0.4003     1.8994     2.7994     3.8002    31.3400    22.1100    13.8400     6.4800    -5.6200   -10.4100   -14.3900   -16.8000     0.8893     4.7500     4.800
# Sum of Counts = 32229
# Center of Mass = 4.081526+/-0.032162
# Full Width Half-Maximum = 0.280214+/-0.005096
# 7:57:19 AM  3/13/2025   scan completed.
