# scan = 215
# date = 3/12/2025
# time = 1:42:53 PM
# proposal = 35030
# experiment = CTAX Instrumental resolution benchmarking
# experiment_number = 445
# command = scan h 1 k 0 l 7.5 6.5 0.01 e -0.4 preset mcu 5
# builtin_command = scan h 1 k 0 l 7.5 6.5 0.01 e -0.4 preset mcu 5
# users = Tao Hong, Tao Hong, Bing Li
# local_contact = Tao Hong
# scan_title = (10L) scan at E=-0.4 meV and hori-focusing
# monochromator = PG002
# analyzer = Pg002
# sense = -+-
# collimation = 48-40-40-120
# samplename = LaN
# sampletype = crystal
# samplemosaic = 30.000000
# latticeconstants = 5.058628,5.058628,24.728465,90.000000,90.000000,120.000000
# ubmatrix = -0.002928,0.001986,-0.040430,-0.228168,-0.119258,0.000500,-0.005924,0.194622,0.000719
# mode = 0
# plane_normal = 0.017452,-0.026173,0.999505
# ubconf = UB10Mar2025_114214AM.ini
# preset_type = normal 
# preset_channel = mcu
# preset_value = 5.000000
# def_x = l
# def_y = detector
# col_headers = 
#   Pt.          h          k          l          e       time   detector    monitor        mcu focal_length         m1         m2       marc     mtrans     mfocus   vti_temp  smpl_temp         s1         s2        sgl        sgu        bbb        bbl        bbr        bbt        bab        bal        bar        bat        stl        stu         a1         a2     afocus        qm1        qm2        qm3        qm4        qm5        qm6        qm7        qm8        xm1        xm2        xm3        xm4        xm5        xm6        xm7        xm8          q         ei         ef
      1     1.0000    -0.0000     7.4999    -0.4000      4.820      0.000  11001.000      5.000   102.8206   140.0142   -79.9715     0.4200    -1.0000    27.4160     0.0000     0.0000    16.0100   106.3494    -1.0000    -1.5000     0.0000     0.0000     0.0000     0.0000    17.0000     8.0000     8.0000    17.0000     0.0000     0.0000   142.0306   -75.9388     0.0000    -4.2998    -2.9995    -1.8994    -0.6005     0.4003     1.8994     2.7994     3.8002    31.3400    22.1100    13.8400     6.4800    -5.6200   -10.4100   -14.3900   -16.8000     2.3851     4.4000     4.800
      2     1.0000    -0.0000     7.4900    -0.4000      4.810      2.000  11001.000      5.000   102.8206   140.0142   -79.9715     0.4200    -1.0000    27.4160     0.0000     0.0000    15.9075   106.2192    -1.0000    -1.5000     0.0000     0.0000     0.0000     0.0000    17.0000     8.0000     8.0000    17.0000     0.0000     0.0000   142.0306   -75.9388     0.0000    -4.2998    -2.9995    -1.8994    -0.6005     0.4003     1.8994     2.7994     3.8002    31.3400    22.1100    13.8400     6.4800    -5.6200   -10.4100   -14.3900   -16.8000     2.3830     4.4000     4.800
      3     1.0000    -0.0000     7.4802    -0.4000      4.885      0.000  11001.000      5.000   102.8206   140.0142   -79.9715     0.4200    -1.0000    27.4160     0.0000     0.0000    15.8050   106.0892    -1.0000    -1.5000     0.0000     0.0000     0.0000     0.0000    17.0000     8.0000     8.0000    17.0000     0.0000     0.0000   142.0306   -75.9388     0.0000    -4.2998    -2.9995    -1.8994    -0.6005     0.4003     1.8994     2.7994     3.8002    31.3400    22.1100    13.8400     6.4800    -5.6200   -10.4100   -14.3900   -16.8000     2.3810     4.4000     4.800
      4     1.0000    -0.0000     7.4701    -0.4000      4.832      0.000  11001.000      5.000   102.8206   140.0142   -79.9715     0.4200    -1.0000    27.4160     0.0000     0.0000    15.7000   105.9595    -1.0000    -1.5000     0.0000     0.0000     0.0000     0.0000    17.0000     8.0000     8.0000    17.0000     0.0000     0.0000   142.0306   -75.9388     0.0000    -4.2998    -2.9995    -1.8994    -0.6005     0.4003     1.8994     2.7994     3.8002    31.3400    22.1100    13.8400     6.4800    -5.6200   -10.4100   -14.3900   -16.8000     2.3790     4.4000     4.800
      5     1.0000    -0.0000     7.4600    -0.4000      4.834      1.000  11001.000      5.000   102.8206   140.0142   -79.9715     0.4200    -1.0000    27.4160     0.0000     0.0000    15.5950   105.8300    -1.0000    -1.5000     0.0000     0.0000     0.0000     0.0000    17.0000     8.0000     8.0000    17.0000     0.0000     0.0000   142.0306   -75.9388     0.0000    -4.2998    -2.9995    -1.8994    -0.6005     0.4003     1.8994     2.7994     3.8002    31.3400    22.1100    13.8400     6.4800    -5.6200   -10.4100   -14.3900   -16.8000     2.3769     4.4000     4.800
      6     1.0000    -0.0000     7.4499    -0.4000      4.917      2.000  11001.000      5.000   102.8206   140.0142   -79.9715     0.4200    -1.0000    27.4160     0.0000     0.0000    15.4900   105.7008    -1.0000    -1.5000     0.0000     0.0000     0.0000     0.0000    17.0000     8.0000     8.0000    17.0000     0.0000     0.0000   142.0306   -75.9388     0.0000    -4.2998    -2.9995    -1.8994    -0.6005     0.4003     1.8994     2.7994     3.8002    31.3400    22.1100    13.8400     6.4800    -5.6200   -10.4100   -14.3900   -16.8000     2.3749     4.4000     4.800
      7     1.0000    -0.0000     7.4400    -0.4000      4.902      1.000  11001.000      5.000   102.8206   140.0142   -79.9715     0.4200    -1.0000    27.4160     0.0000     0.0000    15.3875   105.5719    -1.0000    -1.5000     0.0000     0.0000     0.0000     0.0000    17.0000     8.0000     8.0000    17.0000     0.0000     0.0000   142.0306   -75.9388     0.0000    -4.2998    -2.9995    -1.8994    -0.6005     0.4003     1.8994     2.7994     3.8002    31.3400    22.1100    13.8400     6.4800    -5.6200   -10.4100   -14.3900   -16.8000     2.3729     4.4000     4.800
      8     1.0000    -0.0000     7.4301    -0.4000      4.932      2.000  11001.000      5.000   102.8206   140.0142   -79.9715     0.4200    -1.0000    27.4160     0.0000     0.0000    15.2850   105.4432    -1.0000    -1.5000     0.0000     0.0000     0.0000     0.0000    17.0000     8.0000     8.0000    17.0000     0.0000     0.0000   142.0306   -75.9388     0.0000    -4.2998    -2.9995    -1.8994    -0.6005     0.4003     1.8994     2.7994     3.8002    31.3400    22.1100    13.8400     6.4800    -5.6200   -10.4100   -14.3900   -16.8000     2.3709     4.4000     4.800
      9     1.0000    -0.0000     7.4200    -0.4000      4.850      0.000  11001.000      5.000   102.8206   140.0142   -79.9715     0.4200    -1.0000    27.4160     0.0000     0.0000    15.1800   105.3148    -1.0000    -1.5000     0.0000     0.0000     0.0000     0.0000    17.0000     8.0000     8.0000    17.0000     0.0000     0.0000   142.0306   -75.9388     0.0000    -4.2998    -2.9995    -1.8994    -0.6005     0.4003     1.8994     2.7994     3.8002    31.3400    22.1100    13.8400     6.4800    -5.6200   -10.4100   -14.3900   -16.8000     2.3688     4.4000     4.800
     10     1.0000    -0.0000     7.4101    -0.4000      4.896      3.000  11001.000      5.000   102.8206   140.0142   -79.9715     0.4200    -1.0000    27.4160     0.0000     0.0000    15.0775   105.1866    -1.0000    -1.5000     0.0000     0.0000     0.0000     0.0000    17.0000     8.0000     8.0000    17.0000     0.0000     0.0000   142.0306   -75.9388     0.0000    -4.2998    -2.9995    -1.8994    -0.6005     0.4003     1.8994     2.7994     3.8002    31.3400    22.1100    13.8400     6.4800    -5.6200   -10.4100   -14.3900   -16.8000     2.3668     4.4000     4.800
     11     1.0000    -0.0000     7.4002    -0.4000      4.786      0.000  11001.000      5.000   102.8206   140.0142   -79.9715     0.4200    -1.0000    27.4160     0.0000     0.0000    14.9750   105.0587    -1.0000    -1.5000     0.0000     0.0000     0.0000     0.0000    17.0000     8.0000     8.0000    17.0000     0.0000     0.0000   142.0306   -75.9388     0.0000    -4.2998    -2.9995    -1.8994    -0.6005     0.4003     1.8994     2.7994     3.8002    31.3400    22.1100    13.8400     6.4800    -5.6200   -10.4100   -14.3900   -16.8000     2.3648     4.4000     4.800
     12     1.0000    -0.0000     7.3900    -0.4000      4.842      0.000  11001.000      5.000   102.8206   140.0142   -79.9715     0.4200    -1.0000    27.4160     0.0000     0.0000    14.8700   104.9310    -1.0000    -1.5000     0.0000     0.0000     0.0000     0.0000    17.0000     8.0000     8.0000    17.0000     0.0000     0.0000   142.0306   -75.9388     0.0000    -4.2998    -2.9995    -1.8994    -0.6005     0.4003     1.8994     2.7994     3.8002    31.3400    22.1100    13.8400     6.4800    -5.6200   -10.4100   -14.3900   -16.8000     2.3628     4.4000     4.800
     13     1.0000    -0.0000     7.3801    -0.4000      4.805      2.000  11001.000      5.000   102.8206   140.0142   -79.9715     0.4200    -1.0000    27.4160     0.0000     0.0000    14.7675   104.8036    -1.0000    -1.5000     0.0000     0.0000     0.0000     0.0000    17.0000     8.0000     8.0000    17.0000     0.0000     0.0000   142.0306   -75.9388     0.0000    -4.2998    -2.9995    -1.8994    -0.6005     0.4003     1.8994     2.7994     3.8002    31.3400    22.1100    13.8400     6.4800    -5.6200   -10.4100   -14.3900   -16.8000     2.3608     4.4000     4.800
     14     1.0000    -0.0000     7.3699    -0.4000      4.853      3.000  11001.000      5.000   102.8206   140.0142   -79.9715     0.4200    -1.0000    27.4160     0.0000     0.0000    14.6625   104.6764    -1.0000    -1.5000     0.0000     0.0000     0.0000     0.0000    17.0000     8.0000     8.0000    17.0000     0.0000     0.0000   142.0306   -75.9388     0.0000    -4.2998    -2.9995    -1.8994    -0.6005     0.4003     1.8994     2.7994     3.8002    31.3400    22.1100    13.8400     6.4800    -5.6200   -10.4100   -14.3900   -16.8000     2.3588     4.4000     4.800
     15     1.0000    -0.0000     7.3600    -0.4000      4.869      1.000  11001.000      5.000   102.8206   140.0142   -79.9715     0.4200    -1.0000    27.4160     0.0000     0.0000    14.5600   104.5494    -1.0000    -1.5000     0.0000     0.0000     0.0000     0.0000    17.0000     8.0000     8.0000    17.0000     0.0000     0.0000   142.0306   -75.9388     0.0000    -4.2998    -2.9995    -1.8994    -0.6005     0.4003     1.8994     2.7994     3.8002    31.3400    22.1100    13.8400     6.4800    -5.6200   -10.4100   -14.3900   -16.8000     2.3567     4.4000     4.800
     16     1.0000    -0.0000     7.3501    -0.4000      4.933      3.000  11001.000      5.000   102.8206   140.0142   -79.9715     0.4200    -1.0000    27.4160     0.0000     0.0000    14.4575   104.4227    -1.0000    -1.5000     0.0000     0.0000     0.0000     0.0000    17.0000     8.0000     8.0000    17.0000     0.0000     0.0000   142.0306   -75.9388     0.0000    -4.2998    -2.9995    -1.8994    -0.6005     0.4003     1.8994     2.7994     3.8002    31.3400    22.1100    13.8400     6.4800    -5.6200   -10.4100   -14.3900   -16.8000     2.3547     4.4000     4.800
     17     1.0000    -0.0000     7.3401    -0.4000      4.808      2.000  11001.000      5.000   102.8206   140.0142   -79.9715     0.4200    -1.0000    27.4160     0.0000     0.0000    14.3550   104.2963    -1.0000    -1.5000     0.0000     0.0000     0.0000     0.0000    17.0000     8.0000     8.0000    17.0000     0.0000     0.0000   142.0306   -75.9388     0.0000    -4.2998    -2.9995    -1.8994    -0.6005     0.4003     1.8994     2.7994     3.8002    31.3400    22.1100    13.8400     6.4800    -5.6200   -10.4100   -14.3900   -16.8000     2.3527     4.4000     4.800
     18     1.0000    -0.0000     7.3299    -0.4000      4.842      1.000  11001.000      5.000   102.8206   140.0142   -79.9715     0.4200    -1.0000    27.4160     0.0000     0.0000    14.2500   104.1700    -1.0000    -1.5000     0.0000     0.0000     0.0000     0.0000    17.0000     8.0000     8.0000    17.0000     0.0000     0.0000   142.0306   -75.9388     0.0000    -4.2998    -2.9995    -1.8994    -0.6005     0.4003     1.8994     2.7994     3.8002    31.3400    22.1100    13.8400     6.4800    -5.6200   -10.4100   -14.3900   -16.8000     2.3507     4.4000     4.800
     19     1.0000    -0.0000     7.3200    -0.4000      4.804      1.000  11001.000      5.000   102.8206   140.0142   -79.9715     0.4200    -1.0000    27.4160     0.0000     0.0000    14.1475   104.0441    -1.0000    -1.5000     0.0000     0.0000     0.0000     0.0000    17.0000     8.0000     8.0000    17.0000     0.0000     0.0000   142.0306   -75.9388     0.0000    -4.2998    -2.9995    -1.8994    -0.6005     0.4003     1.8994     2.7994     3.8002    31.3400    22.1100    13.8400     6.4800    -5.6200   -10.4100   -14.3900   -16.8000     2.3487     4.4000     4.800
     20     1.0000    -0.0000     7.3100    -0.4000      4.860      4.000  11001.000      5.000   102.8206   140.0142   -79.9715     0.4200    -1.0000    27.4160     0.0000     0.0000    14.0450   103.9184    -1.0000    -1.5000     0.0000     0.0000     0.0000     0.0000    17.0000     8.0000     8.0000    17.0000     0.0000     0.0000   142.0306   -75.9388     0.0000    -4.2998    -2.9995    -1.8994    -0.6005     0.4003     1.8994     2.7994     3.8002    31.3400    22.1100    13.8400     6.4800    -5.6200   -10.4100   -14.3900   -16.8000     2.3467     4.4000     4.800
     21     1.0000    -0.0000     7.3001    -0.4000      4.817     10.000  11001.000      5.000   102.8206   140.0142   -79.9715     0.4200    -1.0000    27.4160     0.0000     0.0000    13.9425   103.7929    -1.0000    -1.5000     0.0000     0.0000     0.0000     0.0000    17.0000     8.0000     8.0000    17.0000     0.0000     0.0000   142.0306   -75.9388     0.0000    -4.2998    -2.9995    -1.8994    -0.6005     0.4003     1.8994     2.7994     3.8002    31.3400    22.1100    13.8400     6.4800    -5.6200   -10.4100   -14.3900   -16.8000     2.3447     4.4000     4.800
     22     1.0000    -0.0000     7.2901    -0.4000      4.793     19.000  11001.000      5.000   102.8206   140.0142   -79.9715     0.4200    -1.0000    27.4160     0.0000     0.0000    13.8400   103.6676    -1.0000    -1.5000     0.0000     0.0000     0.0000     0.0000    17.0000     8.0000     8.0000    17.0000     0.0000     0.0000   142.0306   -75.9388     0.0000    -4.2998    -2.9995    -1.8994    -0.6005     0.4003     1.8994     2.7994     3.8002    31.3400    22.1100    13.8400     6.4800    -5.6200   -10.4100   -14.3900   -16.8000     2.3426     4.4000     4.800
     23     1.0000    -0.0000     7.2799    -0.4000      4.857     38.000  11001.000      5.000   102.8206   140.0142   -79.9715     0.4200    -1.0000    27.4160     0.0000     0.0000    13.7350   103.5426    -1.0000    -1.5000     0.0000     0.0000     0.0000     0.0000    17.0000     8.0000     8.0000    17.0000     0.0000     0.0000   142.0306   -75.9388     0.0000    -4.2998    -2.9995    -1.8994    -0.6005     0.4003     1.8994     2.7994     3.8002    31.3400    22.1100    13.8400     6.4800    -5.6200   -10.4100   -14.3900   -16.8000     2.3406     4.4000     4.800
     24     1.0000    -0.0000     7.2701    -0.4000      4.885     57.000  11001.000      5.000   102.8206   140.0142   -79.9715     0.4200    -1.0000    27.4160     0.0000     0.0000    13.6350   103.4178    -1.0000    -1.5000     0.0000     0.0000     0.0000     0.0000    17.0000     8.0000     8.0000    17.0000     0.0000     0.0000   142.0306   -75.9388     0.0000    -4.2998    -2.9995    -1.8994    -0.6005     0.4003     1.8994     2.7994     3.8002    31.3400    22.1100    13.8400     6.4800    -5.6200   -10.4100   -14.3900   -16.8000     2.3386     4.4000     4.800
     25     1.0000    -0.0000     7.2599    -0.4000      4.839     57.000  11001.000      5.000   102.8206   140.0142   -79.9715     0.4200    -1.0000    27.4160     0.0000     0.0000    13.5300   103.2933    -1.0000    -1.5000     0.0000     0.0000     0.0000     0.0000    17.0000     8.0000     8.0000    17.0000     0.0000     0.0000   142.0306   -75.9388     0.0000    -4.2998    -2.9995    -1.8994    -0.6005     0.4003     1.8994     2.7994     3.8002    31.3400    22.1100    13.8400     6.4800    -5.6200   -10.4100   -14.3900   -16.8000     2.3366     4.4000     4.800
     26     1.0000    -0.0000     7.2502    -0.4000      4.830     53.000  11001.000      5.000   102.8206   140.0142   -79.9715     0.4200    -1.0000    27.4160     0.0000     0.0000    13.4300   103.1690    -1.0000    -1.5000     0.0000     0.0000     0.0000     0.0000    17.0000     8.0000     8.0000    17.0000     0.0000     0.0000   142.0306   -75.9388     0.0000    -4.2998    -2.9995    -1.8994    -0.6005     0.4003     1.8994     2.7994     3.8002    31.3400    22.1100    13.8400     6.4800    -5.6200   -10.4100   -14.3900   -16.8000     2.3346     4.4000     4.800
     27     1.0000    -0.0000     7.2399    -0.4000      4.872     51.000  11001.000      5.000   102.8206   140.0142   -79.9715     0.4200    -1.0000    27.4160     0.0000     0.0000    13.3250   103.0449    -1.0000    -1.5000     0.0000     0.0000     0.0000     0.0000    17.0000     8.0000     8.0000    17.0000     0.0000     0.0000   142.0306   -75.9388     0.0000    -4.2998    -2.9995    -1.8994    -0.6005     0.4003     1.8994     2.7994     3.8002    31.3400    22.1100    13.8400     6.4800    -5.6200   -10.4100   -14.3900   -16.8000     2.3326     4.4000     4.800
     28     1.0000    -0.0000     7.2302    -0.4000      4.823     35.000  11001.000      5.000   102.8206   140.0142   -79.9715     0.4200    -1.0000    27.4160     0.0000     0.0000    13.2250   102.9211    -1.0000    -1.5000     0.0000     0.0000     0.0000     0.0000    17.0000     8.0000     8.0000    17.0000     0.0000     0.0000   142.0306   -75.9388     0.0000    -4.2998    -2.9995    -1.8994    -0.6005     0.4003     1.8994     2.7994     3.8002    31.3400    22.1100    13.8400     6.4800    -5.6200   -10.4100   -14.3900   -16.8000     2.3306     4.4000     4.800
     29     1.0000    -0.0000     7.2199    -0.4000      4.862     30.000  11001.000      5.000   102.8206   140.0142   -79.9715     0.4200    -1.0000    27.4160     0.0000     0.0000    13.1200   102.7975    -1.0000    -1.5000     0.0000     0.0000     0.0000     0.0000    17.0000     8.0000     8.0000    17.0000     0.0000     0.0000   142.0306   -75.9388     0.0000    -4.2998    -2.9995    -1.8994    -0.6005     0.4003     1.8994     2.7994     3.8002    31.3400    22.1100    13.8400     6.4800    -5.6200   -10.4100   -14.3900   -16.8000     2.3286     4.4000     4.800
     30     1.0000    -0.0000     7.2102    -0.4000      4.842      6.000  11001.000      5.000   102.8206   140.0142   -79.9715     0.4200    -1.0000    27.4160     0.0000     0.0000    13.0200   102.6741    -1.0000    -1.5000     0.0000     0.0000     0.0000     0.0000    17.0000     8.0000     8.0000    17.0000     0.0000     0.0000   142.0306   -75.9388     0.0000    -4.2998    -2.9995    -1.8994    -0.6005     0.4003     1.8994     2.7994     3.8002    31.3400    22.1100    13.8400     6.4800    -5.6200   -10.4100   -14.3900   -16.8000     2.3266     4.4000     4.800
     31     1.0000    -0.0000     7.1999    -0.4000      5.010      6.000  11001.000      5.000   102.8206   140.0142   -79.9715     0.4200    -1.0000    27.4160     0.0000     0.0000    12.9150   102.5510    -1.0000    -1.5000     0.0000     0.0000     0.0000     0.0000    17.0000     8.0000     8.0000    17.0000     0.0000     0.0000   142.0306   -75.9388     0.0000    -4.2998    -2.9995    -1.8994    -0.6005     0.4003     1.8994     2.7994     3.8002    31.3400    22.1100    13.8400     6.4800    -5.6200   -10.4100   -14.3900   -16.8000     2.3246     4.4000     4.800
     32     1.0000    -0.0000     7.1899    -0.4000      4.825      4.000  11001.000      5.000   102.8206   140.0142   -79.9715     0.4200    -1.0000    27.4160     0.0000     0.0000    12.8125   102.4281    -1.0000    -1.5000     0.0000     0.0000     0.0000     0.0000    17.0000     8.0000     8.0000    17.0000     0.0000     0.0000   142.0306   -75.9388     0.0000    -4.2998    -2.9995    -1.8994    -0.6005     0.4003     1.8994     2.7994     3.8002    31.3400    22.1100    13.8400     6.4800    -5.6200   -10.4100   -14.3900   -16.8000     2.3226     4.4000     4.800
     33     1.0000    -0.0000     7.1801    -0.4000      4.819      4.000  11001.000      5.000   102.8206   140.0142   -79.9715     0.4200    -1.0000    27.4160     0.0000     0.0000    12.7125   102.3054    -1.0000    -1.5000     0.0000     0.0000     0.0000     0.0000    17.0000     8.0000     8.0000    17.0000     0.0000     0.0000   142.0306   -75.9388     0.0000    -4.2998    -2.9995    -1.8994    -0.6005     0.4003     1.8994     2.7994     3.8002    31.3400    22.1100    13.8400     6.4800    -5.6200   -10.4100   -14.3900   -16.8000     2.3206     4.4000     4.800
     34     1.0000    -0.0000     7.1701    -0.4000      4.870      5.000  11001.000      5.000   102.8206   140.0142   -79.9715     0.4200    -1.0000    27.4160     0.0000     0.0000    12.6100   102.1829    -1.0000    -1.5000     0.0000     0.0000     0.0000     0.0000    17.0000     8.0000     8.0000    17.0000     0.0000     0.0000   142.0306   -75.9388     0.0000    -4.2998    -2.9995    -1.8994    -0.6005     0.4003     1.8994     2.7994     3.8002    31.3400    22.1100    13.8400     6.4800    -5.6200   -10.4100   -14.3900   -16.8000     2.3186     4.4000     4.800
     35     1.0000    -0.0000     7.1598    -0.4000      4.865      5.000  11001.000      5.000   102.8206   140.0142   -79.9715     0.4200    -1.0000    27.4160     0.0000     0.0000    12.5050   102.0607    -1.0000    -1.5000     0.0000     0.0000     0.0000     0.0000    17.0000     8.0000     8.0000    17.0000     0.0000     0.0000   142.0306   -75.9388     0.0000    -4.2998    -2.9995    -1.8994    -0.6005     0.4003     1.8994     2.7994     3.8002    31.3400    22.1100    13.8400     6.4800    -5.6200   -10.4100   -14.3900   -16.8000     2.3166     4.4000     4.800
     36     1.0000    -0.0000     7.1500    -0.4000      4.904      1.000  11001.000      5.000   102.8206   140.0142   -79.9715     0.4200    -1.0000    27.4160     0.0000     0.0000    12.4050   101.9387    -1.0000    -1.5000     0.0000     0.0000     0.0000     0.0000    17.0000     8.0000     8.0000    17.0000     0.0000     0.0000   142.0306   -75.9388     0.0000    -4.2998    -2.9995    -1.8994    -0.6005     0.4003     1.8994     2.7994     3.8002    31.3400    22.1100    13.8400     6.4800    -5.6200   -10.4100   -14.3900   -16.8000     2.3146     4.4000     4.800
     37     0.9999    -0.0000     7.1402    -0.4000      4.873      8.000  11001.000      5.000   102.8206   140.0142   -79.9715     0.4200    -1.0000    27.4160     0.0000     0.0000    12.3050   101.8169    -1.0000    -1.5000     0.0000     0.0000     0.0000     0.0000    17.0000     8.0000     8.0000    17.0000     0.0000     0.0000   142.0306   -75.9388     0.0000    -4.2998    -2.9995    -1.8994    -0.6005     0.4003     1.8994     2.7994     3.8002    31.3400    22.1100    13.8400     6.4800    -5.6200   -10.4100   -14.3900   -16.8000     2.3126     4.4000     4.800
     38     1.0000    -0.0000     7.1299    -0.4000      4.802      5.000  11001.000      5.000   102.8206   140.0142   -79.9715     0.4200    -1.0000    27.4160     0.0000     0.0000    12.2000   101.6954    -1.0000    -1.5000     0.0000     0.0000     0.0000     0.0000    17.0000     8.0000     8.0000    17.0000     0.0000     0.0000   142.0306   -75.9388     0.0000    -4.2998    -2.9995    -1.8994    -0.6005     0.4003     1.8994     2.7994     3.8002    31.3400    22.1100    13.8400     6.4800    -5.6200   -10.4100   -14.3900   -16.8000     2.3106     4.4000     4.800
     39     1.0000    -0.0000     7.1201    -0.4000      4.826      5.000  11001.000      5.000   102.8206   140.0142   -79.9715     0.4200    -1.0000    27.4160     0.0000     0.0000    12.1000   101.5740    -1.0000    -1.5000     0.0000     0.0000     0.0000     0.0000    17.0000     8.0000     8.0000    17.0000     0.0000     0.0000   142.0306   -75.9388     0.0000    -4.2998    -2.9995    -1.8994    -0.6005     0.4003     1.8994     2.7994     3.8002    31.3400    22.1100    13.8400     6.4800    -5.6200   -10.4100   -14.3900   -16.8000     2.3086     4.4000     4.800
     40     1.0000    -0.0000     7.1098    -0.4000      4.858      6.000  11001.000      5.000   102.8206   140.0142   -79.9715     0.4200    -1.0000    27.4160     0.0000     0.0000    11.9950   101.4530    -1.0000    -1.5000     0.0000     0.0000     0.0000     0.0000    17.0000     8.0000     8.0000    17.0000     0.0000     0.0000   142.0306   -75.9388     0.0000    -4.2998    -2.9995    -1.8994    -0.6005     0.4003     1.8994     2.7994     3.8002    31.3400    22.1100    13.8400     6.4800    -5.6200   -10.4100   -14.3900   -16.8000     2.3067     4.4000     4.800
     41     1.0000    -0.0000     7.0998    -0.4000      4.860      4.000  11001.000      5.000   102.8206   140.0142   -79.9715     0.4200    -1.0000    27.4160     0.0000     0.0000    11.8925   101.3321    -1.0000    -1.5000     0.0000     0.0000     0.0000     0.0000    17.0000     8.0000     8.0000    17.0000     0.0000     0.0000   142.0306   -75.9388     0.0000    -4.2998    -2.9995    -1.8994    -0.6005     0.4003     1.8994     2.7994     3.8002    31.3400    22.1100    13.8400     6.4800    -5.6200   -10.4100   -14.3900   -16.8000     2.3047     4.4000     4.800
     42     1.0000    -0.0000     7.0902    -0.4000      4.808      6.000  11001.000      5.000   102.8206   140.0142   -79.9715     0.4200    -1.0000    27.4160     0.0000     0.0000    11.7950   101.2114    -1.0000    -1.5000     0.0000     0.0000     0.0000     0.0000    17.0000     8.0000     8.0000    17.0000     0.0000     0.0000   142.0306   -75.9388     0.0000    -4.2998    -2.9995    -1.8994    -0.6005     0.4003     1.8994     2.7994     3.8002    31.3400    22.1100    13.8400     6.4800    -5.6200   -10.4100   -14.3900   -16.8000     2.3027     4.4000     4.800
     43     1.0000    -0.0000     7.0801    -0.4000      4.742      4.000  11001.000      5.000   102.8206   140.0142   -79.9715     0.4200    -1.0000    27.4160     0.0000     0.0000    11.6925   101.0910    -1.0000    -1.5000     0.0000     0.0000     0.0000     0.0000    17.0000     8.0000     8.0000    17.0000     0.0000     0.0000   142.0306   -75.9388     0.0000    -4.2998    -2.9995    -1.8994    -0.6005     0.4003     1.8994     2.7994     3.8002    31.3400    22.1100    13.8400     6.4800    -5.6200   -10.4100   -14.3900   -16.8000     2.3007     4.4000     4.800
     44     1.0000    -0.0000     7.0701    -0.4000      4.889      7.000  11001.000      5.000   102.8206   140.0142   -79.9715     0.4200    -1.0000    27.4160     0.0000     0.0000    11.5900   100.9708    -1.0000    -1.5000     0.0000     0.0000     0.0000     0.0000    17.0000     8.0000     8.0000    17.0000     0.0000     0.0000   142.0306   -75.9388     0.0000    -4.2998    -2.9995    -1.8994    -0.6005     0.4003     1.8994     2.7994     3.8002    31.3400    22.1100    13.8400     6.4800    -5.6200   -10.4100   -14.3900   -16.8000     2.2987     4.4000     4.800
     45     1.0000    -0.0000     7.0600    -0.4000      4.829      7.000  11001.000      5.000   102.8206   140.0142   -79.9715     0.4200    -1.0000    27.4160     0.0000     0.0000    11.4875   100.8507    -1.0000    -1.5000     0.0000     0.0000     0.0000     0.0000    17.0000     8.0000     8.0000    17.0000     0.0000     0.0000   142.0306   -75.9388     0.0000    -4.2998    -2.9995    -1.8994    -0.6005     0.4003     1.8994     2.7994     3.8002    31.3400    22.1100    13.8400     6.4800    -5.6200   -10.4100   -14.3900   -16.8000     2.2967     4.4000     4.800
     46     1.0000    -0.0000     7.0499    -0.4000      4.919      5.000  11001.000      5.000   102.8206   140.0142   -79.9715     0.4200    -1.0000    27.4160     0.0000     0.0000    11.3850   100.7310    -1.0000    -1.5000     0.0000     0.0000     0.0000     0.0000    17.0000     8.0000     8.0000    17.0000     0.0000     0.0000   142.0306   -75.9388     0.0000    -4.2998    -2.9995    -1.8994    -0.6005     0.4003     1.8994     2.7994     3.8002    31.3400    22.1100    13.8400     6.4800    -5.6200   -10.4100   -14.3900   -16.8000     2.2947     4.4000     4.800
     47     1.0000    -0.0000     7.0401    -0.4000      4.860     10.000  11001.000      5.000   102.8206   140.0142   -79.9715     0.4200    -1.0000    27.4160     0.0000     0.0000    11.2850   100.6114    -1.0000    -1.5000     0.0000     0.0000     0.0000     0.0000    17.0000     8.0000     8.0000    17.0000     0.0000     0.0000   142.0306   -75.9388     0.0000    -4.2998    -2.9995    -1.8994    -0.6005     0.4003     1.8994     2.7994     3.8002    31.3400    22.1100    13.8400     6.4800    -5.6200   -10.4100   -14.3900   -16.8000     2.2928     4.4000     4.800
     48     1.0000    -0.0000     7.0300    -0.4000      4.807      7.000  11001.000      5.000   102.8206   140.0142   -79.9715     0.4200    -1.0000    27.4160     0.0000     0.0000    11.1825   100.4920    -1.0000    -1.5000     0.0000     0.0000     0.0000     0.0000    17.0000     8.0000     8.0000    17.0000     0.0000     0.0000   142.0306   -75.9388     0.0000    -4.2998    -2.9995    -1.8994    -0.6005     0.4003     1.8994     2.7994     3.8002    31.3400    22.1100    13.8400     6.4800    -5.6200   -10.4100   -14.3900   -16.8000     2.2908     4.4000     4.800
     49     1.0000    -0.0000     7.0199    -0.4000      4.768      3.000  11001.000      5.000   102.8206   140.0142   -79.9715     0.4200    -1.0000    27.4160     0.0000     0.0000    11.0800   100.3729    -1.0000    -1.5000     0.0000     0.0000     0.0000     0.0000    17.0000     8.0000     8.0000    17.0000     0.0000     0.0000   142.0306   -75.9388     0.0000    -4.2998    -2.9995    -1.8994    -0.6005     0.4003     1.8994     2.7994     3.8002    31.3400    22.1100    13.8400     6.4800    -5.6200   -10.4100   -14.3900   -16.8000     2.2888     4.4000     4.800
     50     1.0000    -0.0000     7.0101    -0.4000      4.774      1.000  11001.000      5.000   102.8206   140.0142   -79.9715     0.4200    -1.0000    27.4160     0.0000     0.0000    10.9800   100.2540    -1.0000    -1.5000     0.0000     0.0000     0.0000     0.0000    17.0000     8.0000     8.0000    17.0000     0.0000     0.0000   142.0306   -75.9388     0.0000    -4.2998    -2.9995    -1.8994    -0.6005     0.4003     1.8994     2.7994     3.8002    31.3400    22.1100    13.8400     6.4800    -5.6200   -10.4100   -14.3900   -16.8000     2.2868     4.4000     4.800
     51     1.0000    -0.0000     7.0000    -0.4000      4.844      6.000  11001.000      5.000   102.8206   140.0142   -79.9715     0.4200    -1.0000    27.4160     0.0000     0.0000    10.8775   100.1353    -1.0000    -1.5000     0.0000     0.0000     0.0000     0.0000    17.0000     8.0000     8.0000    17.0000     0.0000     0.0000   142.0306   -75.9388     0.0000    -4.2998    -2.9995    -1.8994    -0.6005     0.4003     1.8994     2.7994     3.8002    31.3400    22.1100    13.8400     6.4800    -5.6200   -10.4100   -14.3900   -16.8000     2.2848     4.4000     4.800
     52     1.0000    -0.0000     6.9899    -0.4000      4.808      5.000  11001.000      5.000   102.8206   140.0142   -79.9715     0.4200    -1.0000    27.4160     0.0000     0.0000    10.7750   100.0168    -1.0000    -1.5000     0.0000     0.0000     0.0000     0.0000    17.0000     8.0000     8.0000    17.0000     0.0000     0.0000   142.0306   -75.9388     0.0000    -4.2998    -2.9995    -1.8994    -0.6005     0.4003     1.8994     2.7994     3.8002    31.3400    22.1100    13.8400     6.4800    -5.6200   -10.4100   -14.3900   -16.8000     2.2829     4.4000     4.800
     53     0.9999    -0.0000     6.9802    -0.4000      4.878      1.000  11001.000      5.000   102.8206   140.0142   -79.9715     0.4200    -1.0000    27.4160     0.0000     0.0000    10.6775    99.8985    -1.0000    -1.5000     0.0000     0.0000     0.0000     0.0000    17.0000     8.0000     8.0000    17.0000     0.0000     0.0000   142.0306   -75.9388     0.0000    -4.2998    -2.9995    -1.8994    -0.6005     0.4003     1.8994     2.7994     3.8002    31.3400    22.1100    13.8400     6.4800    -5.6200   -10.4100   -14.3900   -16.8000     2.2809     4.4000     4.800
     54     1.0000    -0.0000     6.9699    -0.4000      4.816      5.000  11001.000      5.000   102.8206   140.0142   -79.9715     0.4200    -1.0000    27.4160     0.0000     0.0000    10.5725    99.7804    -1.0000    -1.5000     0.0000     0.0000     0.0000     0.0000    17.0000     8.0000     8.0000    17.0000     0.0000     0.0000   142.0306   -75.9388     0.0000    -4.2998    -2.9995    -1.8994    -0.6005     0.4003     1.8994     2.7994     3.8002    31.3400    22.1100    13.8400     6.4800    -5.6200   -10.4100   -14.3900   -16.8000     2.2789     4.4000     4.800
     55     1.0000    -0.0000     6.9600    -0.4000      4.835      1.000  11001.000      5.000   102.8206   140.0142   -79.9715     0.4200    -1.0000    27.4160     0.0000     0.0000    10.4725    99.6626    -1.0000    -1.5000     0.0000     0.0000     0.0000     0.0000    17.0000     8.0000     8.0000    17.0000     0.0000     0.0000   142.0306   -75.9388     0.0000    -4.2998    -2.9995    -1.8994    -0.6005     0.4003     1.8994     2.7994     3.8002    31.3400    22.1100    13.8400     6.4800    -5.6200   -10.4100   -14.3900   -16.8000     2.2769     4.4000     4.800
     56     1.0000    -0.0000     6.9502    -0.4000      4.924      5.000  11001.000      5.000   102.8206   140.0142   -79.9715     0.4200    -1.0000    27.4160     0.0000     0.0000    10.3725    99.5449    -1.0000    -1.5000     0.0000     0.0000     0.0000     0.0000    17.0000     8.0000     8.0000    17.0000     0.0000     0.0000   142.0306   -75.9388     0.0000    -4.2998    -2.9995    -1.8994    -0.6005     0.4003     1.8994     2.7994     3.8002    31.3400    22.1100    13.8400     6.4800    -5.6200   -10.4100   -14.3900   -16.8000     2.2750     4.4000     4.800
     57     1.0000    -0.0000     6.9400    -0.4000      4.861      2.000  11001.000      5.000   102.8206   140.0142   -79.9715     0.4200    -1.0000    27.4160     0.0000     0.0000    10.2700    99.4275    -1.0000    -1.5000     0.0000     0.0000     0.0000     0.0000    17.0000     8.0000     8.0000    17.0000     0.0000     0.0000   142.0306   -75.9388     0.0000    -4.2998    -2.9995    -1.8994    -0.6005     0.4003     1.8994     2.7994     3.8002    31.3400    22.1100    13.8400     6.4800    -5.6200   -10.4100   -14.3900   -16.8000     2.2730     4.4000     4.800
     58     1.0000    -0.0000     6.9299    -0.4000      4.792      2.000  11001.000      5.000   102.8206   140.0142   -79.9715     0.4200    -1.0000    27.4160     0.0000     0.0000    10.1675    99.3102    -1.0000    -1.5000     0.0000     0.0000     0.0000     0.0000    17.0000     8.0000     8.0000    17.0000     0.0000     0.0000   142.0306   -75.9388     0.0000    -4.2998    -2.9995    -1.8994    -0.6005     0.4003     1.8994     2.7994     3.8002    31.3400    22.1100    13.8400     6.4800    -5.6200   -10.4100   -14.3900   -16.8000     2.2710     4.4000     4.800
     59     1.0000    -0.0000     6.9200    -0.4000      4.870      2.000  11001.000      5.000   102.8206   140.0142   -79.9715     0.4200    -1.0000    27.4160     0.0000     0.0000    10.0675    99.1932    -1.0000    -1.5000     0.0000     0.0000     0.0000     0.0000    17.0000     8.0000     8.0000    17.0000     0.0000     0.0000   142.0306   -75.9388     0.0000    -4.2998    -2.9995    -1.8994    -0.6005     0.4003     1.8994     2.7994     3.8002    31.3400    22.1100    13.8400     6.4800    -5.6200   -10.4100   -14.3900   -16.8000     2.2690     4.4000     4.800
     60     1.0000    -0.0000     6.9099    -0.4000      4.945      2.000  11001.000      5.000   102.8206   140.0142   -79.9715     0.4200    -1.0000    27.4160     0.0000     0.0000     9.9650    99.0764    -1.0000    -1.5000     0.0000     0.0000     0.0000     0.0000    17.0000     8.0000     8.0000    17.0000     0.0000     0.0000   142.0306   -75.9388     0.0000    -4.2998    -2.9995    -1.8994    -0.6005     0.4003     1.8994     2.7994     3.8002    31.3400    22.1100    13.8400     6.4800    -5.6200   -10.4100   -14.3900   -16.8000     2.2671     4.4000     4.800
     61     1.0000    -0.0000     6.9000    -0.4000      4.837      1.000  11001.000      5.000   102.8206   140.0142   -79.9715     0.4200    -1.0000    27.4160     0.0000     0.0000     9.8650    98.9598    -1.0000    -1.5000     0.0000     0.0000     0.0000     0.0000    17.0000     8.0000     8.0000    17.0000     0.0000     0.0000   142.0306   -75.9388     0.0000    -4.2998    -2.9995    -1.8994    -0.6005     0.4003     1.8994     2.7994     3.8002    31.3400    22.1100    13.8400     6.4800    -5.6200   -10.4100   -14.3900   -16.8000     2.2651     4.4000     4.800
     62     1.0000    -0.0000     6.8901    -0.4000      4.819      0.000  11001.000      5.000   102.8206   140.0142   -79.9715     0.4200    -1.0000    27.4160     0.0000     0.0000     9.7650    98.8434    -1.0000    -1.5000     0.0000     0.0000     0.0000     0.0000    17.0000     8.0000     8.0000    17.0000     0.0000     0.0000   142.0306   -75.9388     0.0000    -4.2998    -2.9995    -1.8994    -0.6005     0.4003     1.8994     2.7994     3.8002    31.3400    22.1100    13.8400     6.4800    -5.6200   -10.4100   -14.3900   -16.8000     2.2631     4.4000     4.800
     63     1.0000    -0.0000     6.8800    -0.4000      4.840      1.000  11001.000      5.000   102.8206   140.0142   -79.9715     0.4200    -1.0000    27.4160     0.0000     0.0000     9.6625    98.7272    -1.0000    -1.5000     0.0000     0.0000     0.0000     0.0000    17.0000     8.0000     8.0000    17.0000     0.0000     0.0000   142.0306   -75.9388     0.0000    -4.2998    -2.9995    -1.8994    -0.6005     0.4003     1.8994     2.7994     3.8002    31.3400    22.1100    13.8400     6.4800    -5.6200   -10.4100   -14.3900   -16.8000     2.2612     4.4000     4.800
     64     1.0000    -0.0000     6.8698    -0.4000      4.846      0.000  11001.000      5.000   102.8206   140.0142   -79.9715     0.4200    -1.0000    27.4160     0.0000     0.0000     9.5600    98.6112    -1.0000    -1.5000     0.0000     0.0000     0.0000     0.0000    17.0000     8.0000     8.0000    17.0000     0.0000     0.0000   142.0306   -75.9388     0.0000    -4.2998    -2.9995    -1.8994    -0.6005     0.4003     1.8994     2.7994     3.8002    31.3400    22.1100    13.8400     6.4800    -5.6200   -10.4100   -14.3900   -16.8000     2.2592     4.4000     4.800
     65     1.0000    -0.0000     6.8600    -0.4000      4.836      0.000  11001.000      5.000   102.8206   140.0142   -79.9715     0.4200    -1.0000    27.4160     0.0000     0.0000     9.4600    98.4954    -1.0000    -1.5000     0.0000     0.0000     0.0000     0.0000    17.0000     8.0000     8.0000    17.0000     0.0000     0.0000   142.0306   -75.9388     0.0000    -4.2998    -2.9995    -1.8994    -0.6005     0.4003     1.8994     2.7994     3.8002    31.3400    22.1100    13.8400     6.4800    -5.6200   -10.4100   -14.3900   -16.8000     2.2572     4.4000     4.800
     66     1.0000    -0.0000     6.8500    -0.4000      4.868      0.000  11001.000      5.000   102.8206   140.0142   -79.9715     0.4200    -1.0000    27.4160     0.0000     0.0000     9.3600    98.3798    -1.0000    -1.5000     0.0000     0.0000     0.0000     0.0000    17.0000     8.0000     8.0000    17.0000     0.0000     0.0000   142.0306   -75.9388     0.0000    -4.2998    -2.9995    -1.8994    -0.6005     0.4003     1.8994     2.7994     3.8002    31.3400    22.1100    13.8400     6.4800    -5.6200   -10.4100   -14.3900   -16.8000     2.2553     4.4000     4.800
     67     1.0000    -0.0000     6.8401    -0.4000      4.930      1.000  11001.000      5.000   102.8206   140.0142   -79.9715     0.4200    -1.0000    27.4160     0.0000     0.0000     9.2600    98.2645    -1.0000    -1.5000     0.0000     0.0000     0.0000     0.0000    17.0000     8.0000     8.0000    17.0000     0.0000     0.0000   142.0306   -75.9388     0.0000    -4.2998    -2.9995    -1.8994    -0.6005     0.4003     1.8994     2.7994     3.8002    31.3400    22.1100    13.8400     6.4800    -5.6200   -10.4100   -14.3900   -16.8000     2.2533     4.4000     4.800
     68     1.0000    -0.0000     6.8300    -0.4000      4.813      1.000  11001.000      5.000   102.8206   140.0142   -79.9715     0.4200    -1.0000    27.4160     0.0000     0.0000     9.1575    98.1493    -1.0000    -1.5000     0.0000     0.0000     0.0000     0.0000    17.0000     8.0000     8.0000    17.0000     0.0000     0.0000   142.0306   -75.9388     0.0000    -4.2998    -2.9995    -1.8994    -0.6005     0.4003     1.8994     2.7994     3.8002    31.3400    22.1100    13.8400     6.4800    -5.6200   -10.4100   -14.3900   -16.8000     2.2514     4.4000     4.800
     69     1.0000    -0.0000     6.8198    -0.4000      4.858      2.000  11001.000      5.000   102.8206   140.0142   -79.9715     0.4200    -1.0000    27.4160     0.0000     0.0000     9.0550    98.0343    -1.0000    -1.5000     0.0000     0.0000     0.0000     0.0000    17.0000     8.0000     8.0000    17.0000     0.0000     0.0000   142.0306   -75.9388     0.0000    -4.2998    -2.9995    -1.8994    -0.6005     0.4003     1.8994     2.7994     3.8002    31.3400    22.1100    13.8400     6.4800    -5.6200   -10.4100   -14.3900   -16.8000     2.2494     4.4000     4.800
     70     1.0000    -0.0000     6.8099    -0.4000      4.897      1.000  11001.000      5.000   102.8206   140.0142   -79.9715     0.4200    -1.0000    27.4160     0.0000     0.0000     8.9550    97.9196    -1.0000    -1.5000     0.0000     0.0000     0.0000     0.0000    17.0000     8.0000     8.0000    17.0000     0.0000     0.0000   142.0306   -75.9388     0.0000    -4.2998    -2.9995    -1.8994    -0.6005     0.4003     1.8994     2.7994     3.8002    31.3400    22.1100    13.8400     6.4800    -5.6200   -10.4100   -14.3900   -16.8000     2.2475     4.4000     4.800
     71     1.0000    -0.0000     6.8000    -0.4000      4.835      1.000  11001.000      5.000   102.8206   140.0142   -79.9715     0.4200    -1.0000    27.4160     0.0000     0.0000     8.8550    97.8050    -1.0000    -1.5000     0.0000     0.0000     0.0000     0.0000    17.0000     8.0000     8.0000    17.0000     0.0000     0.0000   142.0306   -75.9388     0.0000    -4.2998    -2.9995    -1.8994    -0.6005     0.4003     1.8994     2.7994     3.8002    31.3400    22.1100    13.8400     6.4800    -5.6200   -10.4100   -14.3900   -16.8000     2.2455     4.4000     4.800
     72     1.0000    -0.0000     6.7901    -0.4000      4.905      0.000  11001.000      5.000   102.8206   140.0142   -79.9715     0.4200    -1.0000    27.4160     0.0000     0.0000     8.7550    97.6906    -1.0000    -1.5000     0.0000     0.0000     0.0000     0.0000    17.0000     8.0000     8.0000    17.0000     0.0000     0.0000   142.0306   -75.9388     0.0000    -4.2998    -2.9995    -1.8994    -0.6005     0.4003     1.8994     2.7994     3.8002    31.3400    22.1100    13.8400     6.4800    -5.6200   -10.4100   -14.3900   -16.8000     2.2435     4.4000     4.800
     73     1.0000    -0.0000     6.7802    -0.4000      4.863      1.000  11001.000      5.000   102.8206   140.0142   -79.9715     0.4200    -1.0000    27.4160     0.0000     0.0000     8.6550    97.5764    -1.0000    -1.5000     0.0000     0.0000     0.0000     0.0000    17.0000     8.0000     8.0000    17.0000     0.0000     0.0000   142.0306   -75.9388     0.0000    -4.2998    -2.9995    -1.8994    -0.6005     0.4003     1.8994     2.7994     3.8002    31.3400    22.1100    13.8400     6.4800    -5.6200   -10.4100   -14.3900   -16.8000     2.2416     4.4000     4.800
     74     1.0000    -0.0000     6.7700    -0.4000      4.855      1.000  11001.000      5.000   102.8206   140.0142   -79.9715     0.4200    -1.0000    27.4160     0.0000     0.0000     8.5525    97.4624    -1.0000    -1.5000     0.0000     0.0000     0.0000     0.0000    17.0000     8.0000     8.0000    17.0000     0.0000     0.0000   142.0306   -75.9388     0.0000    -4.2998    -2.9995    -1.8994    -0.6005     0.4003     1.8994     2.7994     3.8002    31.3400    22.1100    13.8400     6.4800    -5.6200   -10.4100   -14.3900   -16.8000     2.2396     4.4000     4.800
     75     1.0000    -0.0000     6.7601    -0.4000      4.805      1.000  11001.000      5.000   102.8206   140.0142   -79.9715     0.4200    -1.0000    27.4160     0.0000     0.0000     8.4525    97.3487    -1.0000    -1.5000     0.0000     0.0000     0.0000     0.0000    17.0000     8.0000     8.0000    17.0000     0.0000     0.0000   142.0306   -75.9388     0.0000    -4.2998    -2.9995    -1.8994    -0.6005     0.4003     1.8994     2.7994     3.8002    31.3400    22.1100    13.8400     6.4800    -5.6200   -10.4100   -14.3900   -16.8000     2.2377     4.4000     4.800
     76     1.0000    -0.0000     6.7501    -0.4000      4.793      2.000  11001.000      5.000   102.8206   140.0142   -79.9715     0.4200    -1.0000    27.4160     0.0000     0.0000     8.3525    97.2351    -1.0000    -1.5000     0.0000     0.0000     0.0000     0.0000    17.0000     8.0000     8.0000    17.0000     0.0000     0.0000   142.0306   -75.9388     0.0000    -4.2998    -2.9995    -1.8994    -0.6005     0.4003     1.8994     2.7994     3.8002    31.3400    22.1100    13.8400     6.4800    -5.6200   -10.4100   -14.3900   -16.8000     2.2357     4.4000     4.800
     77     1.0000    -0.0000     6.7400    -0.4000      4.765      1.000  11001.000      5.000   102.8206   140.0142   -79.9715     0.4200    -1.0000    27.4160     0.0000     0.0000     8.2500    97.1217    -1.0000    -1.5000     0.0000     0.0000     0.0000     0.0000    17.0000     8.0000     8.0000    17.0000     0.0000     0.0000   142.0306   -75.9388     0.0000    -4.2998    -2.9995    -1.8994    -0.6005     0.4003     1.8994     2.7994     3.8002    31.3400    22.1100    13.8400     6.4800    -5.6200   -10.4100   -14.3900   -16.8000     2.2338     4.4000     4.800
     78     1.0000    -0.0000     6.7300    -0.4000      4.868      1.000  11001.000      5.000   102.8206   140.0142   -79.9715     0.4200    -1.0000    27.4160     0.0000     0.0000     8.1500    97.0085    -1.0000    -1.5000     0.0000     0.0000     0.0000     0.0000    17.0000     8.0000     8.0000    17.0000     0.0000     0.0000   142.0306   -75.9388     0.0000    -4.2998    -2.9995    -1.8994    -0.6005     0.4003     1.8994     2.7994     3.8002    31.3400    22.1100    13.8400     6.4800    -5.6200   -10.4100   -14.3900   -16.8000     2.2318     4.4000     4.800
     79     1.0000    -0.0000     6.7198    -0.4000      4.771      1.000  11001.000      5.000   102.8206   140.0142   -79.9715     0.4200    -1.0000    27.4160     0.0000     0.0000     8.0475    96.8955    -1.0000    -1.5000     0.0000     0.0000     0.0000     0.0000    17.0000     8.0000     8.0000    17.0000     0.0000     0.0000   142.0306   -75.9388     0.0000    -4.2998    -2.9995    -1.8994    -0.6005     0.4003     1.8994     2.7994     3.8002    31.3400    22.1100    13.8400     6.4800    -5.6200   -10.4100   -14.3900   -16.8000     2.2299     4.4000     4.800
     80     1.0000    -0.0000     6.7101    -0.4000      4.860      1.000  11001.000      5.000   102.8206   140.0142   -79.9715     0.4200    -1.0000    27.4160     0.0000     0.0000     7.9500    96.7827    -1.0000    -1.5000     0.0000     0.0000     0.0000     0.0000    17.0000     8.0000     8.0000    17.0000     0.0000     0.0000   142.0306   -75.9388     0.0000    -4.2998    -2.9995    -1.8994    -0.6005     0.4003     1.8994     2.7994     3.8002    31.3400    22.1100    13.8400     6.4800    -5.6200   -10.4100   -14.3900   -16.8000     2.2280     4.4000     4.800
     81     1.0000    -0.0000     6.7000    -0.4000      4.761      0.000  11001.000      5.000   102.8206   140.0142   -79.9715     0.4200    -1.0000    27.4160     0.0000     0.0000     7.8475    96.6701    -1.0000    -1.5000     0.0000     0.0000     0.0000     0.0000    17.0000     8.0000     8.0000    17.0000     0.0000     0.0000   142.0306   -75.9388     0.0000    -4.2998    -2.9995    -1.8994    -0.6005     0.4003     1.8994     2.7994     3.8002    31.3400    22.1100    13.8400     6.4800    -5.6200   -10.4100   -14.3900   -16.8000     2.2260     4.4000     4.800
     82     1.0000    -0.0000     6.6900    -0.4000      4.833      1.000  11001.000      5.000   102.8206   140.0142   -79.9715     0.4200    -1.0000    27.4160     0.0000     0.0000     7.7475    96.5577    -1.0000    -1.5000     0.0000     0.0000     0.0000     0.0000    17.0000     8.0000     8.0000    17.0000     0.0000     0.0000   142.0306   -75.9388     0.0000    -4.2998    -2.9995    -1.8994    -0.6005     0.4003     1.8994     2.7994     3.8002    31.3400    22.1100    13.8400     6.4800    -5.6200   -10.4100   -14.3900   -16.8000     2.2241     4.4000     4.800
     83     1.0000    -0.0000     6.6801    -0.4000      4.858      2.000  11001.000      5.000   102.8206   140.0142   -79.9715     0.4200    -1.0000    27.4160     0.0000     0.0000     7.6475    96.4455    -1.0000    -1.5000     0.0000     0.0000     0.0000     0.0000    17.0000     8.0000     8.0000    17.0000     0.0000     0.0000   142.0306   -75.9388     0.0000    -4.2998    -2.9995    -1.8994    -0.6005     0.4003     1.8994     2.7994     3.8002    31.3400    22.1100    13.8400     6.4800    -5.6200   -10.4100   -14.3900   -16.8000     2.2221     4.4000     4.800
     84     1.0000    -0.0000     6.6701    -0.4000      4.895      0.000  11001.000      5.000   102.8206   140.0142   -79.9715     0.4200    -1.0000    27.4160     0.0000     0.0000     7.5475    96.3335    -1.0000    -1.5000     0.0000     0.0000     0.0000     0.0000    17.0000     8.0000     8.0000    17.0000     0.0000     0.0000   142.0306   -75.9388     0.0000    -4.2998    -2.9995    -1.8994    -0.6005     0.4003     1.8994     2.7994     3.8002    31.3400    22.1100    13.8400     6.4800    -5.6200   -10.4100   -14.3900   -16.8000     2.2202     4.4000     4.800
     85     1.0000    -0.0000     6.6599    -0.4000      4.821      0.000  11001.000      5.000   102.8206   140.0142   -79.9715     0.4200    -1.0000    27.4160     0.0000     0.0000     7.4450    96.2216    -1.0000    -1.5000     0.0000     0.0000     0.0000     0.0000    17.0000     8.0000     8.0000    17.0000     0.0000     0.0000   142.0306   -75.9388     0.0000    -4.2998    -2.9995    -1.8994    -0.6005     0.4003     1.8994     2.7994     3.8002    31.3400    22.1100    13.8400     6.4800    -5.6200   -10.4100   -14.3900   -16.8000     2.2182     4.4000     4.800
     86     1.0000    -0.0000     6.6500    -0.4000      4.859      2.000  11001.000      5.000   102.8206   140.0142   -79.9715     0.4200    -1.0000    27.4160     0.0000     0.0000     7.3450    96.1100    -1.0000    -1.5000     0.0000     0.0000     0.0000     0.0000    17.0000     8.0000     8.0000    17.0000     0.0000     0.0000   142.0306   -75.9388     0.0000    -4.2998    -2.9995    -1.8994    -0.6005     0.4003     1.8994     2.7994     3.8002    31.3400    22.1100    13.8400     6.4800    -5.6200   -10.4100   -14.3900   -16.8000     2.2163     4.4000     4.800
     87     1.0000    -0.0000     6.6400    -0.4000      4.830      2.000  11001.000      5.000   102.8206   140.0142   -79.9715     0.4200    -1.0000    27.4160     0.0000     0.0000     7.2450    95.9986    -1.0000    -1.5000     0.0000     0.0000     0.0000     0.0000    17.0000     8.0000     8.0000    17.0000     0.0000     0.0000   142.0306   -75.9388     0.0000    -4.2998    -2.9995    -1.8994    -0.6005     0.4003     1.8994     2.7994     3.8002    31.3400    22.1100    13.8400     6.4800    -5.6200   -10.4100   -14.3900   -16.8000     2.2144     4.4000     4.800
     88     1.0000    -0.0000     6.6301    -0.4000      4.844      0.000  11001.000      5.000   102.8206   140.0142   -79.9715     0.4200    -1.0000    27.4160     0.0000     0.0000     7.1450    95.8873    -1.0000    -1.5000     0.0000     0.0000     0.0000     0.0000    17.0000     8.0000     8.0000    17.0000     0.0000     0.0000   142.0306   -75.9388     0.0000    -4.2998    -2.9995    -1.8994    -0.6005     0.4003     1.8994     2.7994     3.8002    31.3400    22.1100    13.8400     6.4800    -5.6200   -10.4100   -14.3900   -16.8000     2.2124     4.4000     4.800
     89     1.0000    -0.0000     6.6201    -0.4000      4.795      0.000  11001.000      5.000   102.8206   140.0142   -79.9715     0.4200    -1.0000    27.4160     0.0000     0.0000     7.0450    95.7762    -1.0000    -1.5000     0.0000     0.0000     0.0000     0.0000    17.0000     8.0000     8.0000    17.0000     0.0000     0.0000   142.0306   -75.9388     0.0000    -4.2998    -2.9995    -1.8994    -0.6005     0.4003     1.8994     2.7994     3.8002    31.3400    22.1100    13.8400     6.4800    -5.6200   -10.4100   -14.3900   -16.8000     2.2105     4.4000     4.800
     90     1.0000    -0.0000     6.6101    -0.4000      4.875      1.000  11001.000      5.000   102.8206   140.0142   -79.9715     0.4200    -1.0000    27.4160     0.0000     0.0000     6.9450    95.6653    -1.0000    -1.5000     0.0000     0.0000     0.0000     0.0000    17.0000     8.0000     8.0000    17.0000     0.0000     0.0000   142.0306   -75.9388     0.0000    -4.2998    -2.9995    -1.8994    -0.6005     0.4003     1.8994     2.7994     3.8002    31.3400    22.1100    13.8400     6.4800    -5.6200   -10.4100   -14.3900   -16.8000     2.2086     4.4000     4.800
     91     1.0000    -0.0000     6.5999    -0.4000      4.830      2.000  11001.000      5.000   102.8206   140.0142   -79.9715     0.4200    -1.0000    27.4160     0.0000     0.0000     6.8425    95.5546    -1.0000    -1.5000     0.0000     0.0000     0.0000     0.0000    17.0000     8.0000     8.0000    17.0000     0.0000     0.0000   142.0306   -75.9388     0.0000    -4.2998    -2.9995    -1.8994    -0.6005     0.4003     1.8994     2.7994     3.8002    31.3400    22.1100    13.8400     6.4800    -5.6200   -10.4100   -14.3900   -16.8000     2.2066     4.4000     4.800
     92     1.0000    -0.0000     6.5900    -0.4000      4.889      1.000  11001.000      5.000   102.8206   140.0142   -79.9715     0.4200    -1.0000    27.4160     0.0000     0.0000     6.7425    95.4441    -1.0000    -1.5000     0.0000     0.0000     0.0000     0.0000    17.0000     8.0000     8.0000    17.0000     0.0000     0.0000   142.0306   -75.9388     0.0000    -4.2998    -2.9995    -1.8994    -0.6005     0.4003     1.8994     2.7994     3.8002    31.3400    22.1100    13.8400     6.4800    -5.6200   -10.4100   -14.3900   -16.8000     2.2047     4.4000     4.800
     93     0.9999    -0.0000     6.5803    -0.4000      4.869      0.000  11001.000      5.000   102.8206   140.0142   -79.9715     0.4200    -1.0000    27.4160     0.0000     0.0000     6.6450    95.3338    -1.0000    -1.5000     0.0000     0.0000     0.0000     0.0000    17.0000     8.0000     8.0000    17.0000     0.0000     0.0000   142.0306   -75.9388     0.0000    -4.2998    -2.9995    -1.8994    -0.6005     0.4003     1.8994     2.7994     3.8002    31.3400    22.1100    13.8400     6.4800    -5.6200   -10.4100   -14.3900   -16.8000     2.2028     4.4000     4.800
     94     1.0000    -0.0000     6.5700    -0.4000      4.883      0.000  11001.000      5.000   102.8206   140.0142   -79.9715     0.4200    -1.0000    27.4160     0.0000     0.0000     6.5425    95.2237    -1.0000    -1.5000     0.0000     0.0000     0.0000     0.0000    17.0000     8.0000     8.0000    17.0000     0.0000     0.0000   142.0306   -75.9388     0.0000    -4.2998    -2.9995    -1.8994    -0.6005     0.4003     1.8994     2.7994     3.8002    31.3400    22.1100    13.8400     6.4800    -5.6200   -10.4100   -14.3900   -16.8000     2.2008     4.4000     4.800
     95     1.0000    -0.0000     6.5601    -0.4000      4.854      2.000  11001.000      5.000   102.8206   140.0142   -79.9715     0.4200    -1.0000    27.4160     0.0000     0.0000     6.4425    95.1138    -1.0000    -1.5000     0.0000     0.0000     0.0000     0.0000    17.0000     8.0000     8.0000    17.0000     0.0000     0.0000   142.0306   -75.9388     0.0000    -4.2998    -2.9995    -1.8994    -0.6005     0.4003     1.8994     2.7994     3.8002    31.3400    22.1100    13.8400     6.4800    -5.6200   -10.4100   -14.3900   -16.8000     2.1989     4.4000     4.800
     96     1.0000    -0.0000     6.5498    -0.4000      4.824      3.000  11001.000      5.000   102.8206   140.0142   -79.9715     0.4200    -1.0000    27.4160     0.0000     0.0000     6.3400    95.0040    -1.0000    -1.5000     0.0000     0.0000     0.0000     0.0000    17.0000     8.0000     8.0000    17.0000     0.0000     0.0000   142.0306   -75.9388     0.0000    -4.2998    -2.9995    -1.8994    -0.6005     0.4003     1.8994     2.7994     3.8002    31.3400    22.1100    13.8400     6.4800    -5.6200   -10.4100   -14.3900   -16.8000     2.1970     4.4000     4.800
     97     1.0000    -0.0000     6.5401    -0.4000      4.866      0.000  11001.000      5.000   102.8206   140.0142   -79.9715     0.4200    -1.0000    27.4160     0.0000     0.0000     6.2425    94.8944    -1.0000    -1.5000     0.0000     0.0000     0.0000     0.0000    17.0000     8.0000     8.0000    17.0000     0.0000     0.0000   142.0306   -75.9388     0.0000    -4.2998    -2.9995    -1.8994    -0.6005     0.4003     1.8994     2.7994     3.8002    31.3400    22.1100    13.8400     6.4800    -5.6200   -10.4100   -14.3900   -16.8000     2.1951     4.4000     4.800
     98     1.0000    -0.0000     6.5299    -0.4000      4.878      0.000  11001.000      5.000   102.8206   140.0142   -79.9715     0.4200    -1.0000    27.4160     0.0000     0.0000     6.1400    94.7850    -1.0000    -1.5000     0.0000     0.0000     0.0000     0.0000    17.0000     8.0000     8.0000    17.0000     0.0000     0.0000   142.0306   -75.9388     0.0000    -4.2998    -2.9995    -1.8994    -0.6005     0.4003     1.8994     2.7994     3.8002    31.3400    22.1100    13.8400     6.4800    -5.6200   -10.4100   -14.3900   -16.8000     2.1931     4.4000     4.800
     99     1.0000    -0.0000     6.5199    -0.4000      4.874      0.000  11001.000      5.000   102.8206   140.0142   -79.9715     0.4200    -1.0000    27.4160     0.0000     0.0000     6.0400    94.6758    -1.0000    -1.5000     0.0000     0.0000     0.0000     0.0000    17.0000     8.0000     8.0000    17.0000     0.0000     0.0000   142.0306   -75.9388     0.0000    -4.2998    -2.9995    -1.8994    -0.6005     0.4003     1.8994     2.7994     3.8002    31.3400    22.1100    13.8400     6.4800    -5.6200   -10.4100   -14.3900   -16.8000     2.1912     4.4000     4.800
    100     1.0000    -0.0000     6.5099    -0.4000      4.852      1.000  11001.000      5.000   102.8206   140.0142   -79.9715     0.4200    -1.0000    27.4160     0.0000     0.0000     5.9400    94.5668    -1.0000    -1.5000     0.0000     0.0000     0.0000     0.0000    17.0000     8.0000     8.0000    17.0000     0.0000     0.0000   142.0306   -75.9388     0.0000    -4.2998    -2.9995    -1.8994    -0.6005     0.4003     1.8994     2.7994     3.8002    31.3400    22.1100    13.8400     6.4800    -5.6200   -10.4100   -14.3900   -16.8000     2.1893     4.4000     4.800
    101     1.0000    -0.0000     6.5002    -0.4000      4.776      2.000  11001.000      5.000   102.8206   140.0142   -79.9715     0.4200    -1.0000    27.4160     0.0000     0.0000     5.8425    94.4580    -1.0000    -1.5000     0.0000     0.0000     0.0000     0.0000    17.0000     8.0000     8.0000    17.0000     0.0000     0.0000   142.0306   -75.9388     0.0000    -4.2998    -2.9995    -1.8994    -0.6005     0.4003     1.8994     2.7994     3.8002    31.3400    22.1100    13.8400     6.4800    -5.6200   -10.4100   -14.3900   -16.8000     2.1874     4.4000     4.800
# Sum of Counts = 554
# Center of Mass = 7.179984+/-0.431460
# Full Width Half-Maximum = 0.329179+/-0.108031
# 1:56:49 PM  3/12/2025   scan completed.
