# scan = 222
# date = 3/12/2025
# time = 3:14:42 PM
# proposal = 35030
# experiment = CTAX Instrumental resolution benchmarking
# experiment_number = 445
# command = scan h 1 k 0 l 7.5 6.5 0.01 e -0.05 preset mcu 5
# builtin_command = scan h 1 k 0 l 7.5 6.5 0.01 e -0.05 preset mcu 5
# users = Tao Hong, Tao Hong, Bing Li
# local_contact = Tao Hong
# scan_title = (10L) scan at E=-0.05 meV and hori-focusing
# monochromator = PG002
# analyzer = Pg002
# sense = -+-
# collimation = 48-40-40-120
# samplename = LaN
# sampletype = crystal
# samplemosaic = 30.000000
# latticeconstants = 5.058628,5.058628,24.728465,90.000000,90.000000,120.000000
# ubmatrix = -0.002928,0.001986,-0.040430,-0.228168,-0.119258,0.000500,-0.005924,0.194622,0.000719
# mode = 0
# plane_normal = 0.017452,-0.026173,0.999505
# ubconf = UB10Mar2025_114214AM.ini
# preset_type = normal 
# preset_channel = mcu
# preset_value = 5.000000
# def_x = l
# def_y = detector
# col_headers = 
#   Pt.          h          k          l          e       time   detector    monitor        mcu focal_length         m1         m2       marc     mtrans     mfocus   vti_temp  smpl_temp         s1         s2        sgl        sgu        bbb        bbl        bbr        bbt        bab        bal        bar        bat        stl        stu         a1         a2     afocus        qm1        qm2        qm3        qm4        qm5        qm6        qm7        qm8        xm1        xm2        xm3        xm4        xm5        xm6        xm7        xm8          q         ei         ef
      1     1.0000    -0.0000     7.4999    -0.0500      4.681     47.000  11001.000      5.000    98.9520   141.7955   -76.4090     0.4200    -1.0000    28.1520     0.0000     0.0000    15.4250   103.5489    -1.0000    -1.5000     0.0000     0.0000     0.0000     0.0000    17.0000     8.0000     8.0000    17.0000     0.0000     0.0000   142.0306   -75.9388     0.0000    -4.2998    -2.9995    -1.8994    -0.6005     0.4003     1.8994     2.7994     3.8002    31.3400    22.1100    13.8400     6.4800    -5.6200   -10.4100   -14.3900   -16.8000     2.3851     4.7500     4.800
      2     1.0000    -0.0000     7.4901    -0.0500      4.676     64.000  11001.000      5.000    98.9520   141.7955   -76.4090     0.4200    -1.0000    28.1520     0.0000     0.0000    15.3275   103.4252    -1.0000    -1.5000     0.0000     0.0000     0.0000     0.0000    17.0000     8.0000     8.0000    17.0000     0.0000     0.0000   142.0306   -75.9388     0.0000    -4.2998    -2.9995    -1.8994    -0.6005     0.4003     1.8994     2.7994     3.8002    31.3400    22.1100    13.8400     6.4800    -5.6200   -10.4100   -14.3900   -16.8000     2.3830     4.7500     4.800
      3     1.0000    -0.0000     7.4799    -0.0500      4.614     49.000  11001.000      5.000    98.9520   141.7955   -76.4090     0.4200    -1.0000    28.1520     0.0000     0.0000    15.2275   103.3017    -1.0000    -1.5000     0.0000     0.0000     0.0000     0.0000    17.0000     8.0000     8.0000    17.0000     0.0000     0.0000   142.0306   -75.9388     0.0000    -4.2998    -2.9995    -1.8994    -0.6005     0.4003     1.8994     2.7994     3.8002    31.3400    22.1100    13.8400     6.4800    -5.6200   -10.4100   -14.3900   -16.8000     2.3810     4.7500     4.800
      4     1.0000    -0.0000     7.4701    -0.0500      4.565     65.000  11001.000      5.000    98.9520   141.7955   -76.4090     0.4200    -1.0000    28.1520     0.0000     0.0000    15.1300   103.1784    -1.0000    -1.5000     0.0000     0.0000     0.0000     0.0000    17.0000     8.0000     8.0000    17.0000     0.0000     0.0000   142.0306   -75.9388     0.0000    -4.2998    -2.9995    -1.8994    -0.6005     0.4003     1.8994     2.7994     3.8002    31.3400    22.1100    13.8400     6.4800    -5.6200   -10.4100   -14.3900   -16.8000     2.3790     4.7500     4.800
      5     1.0000    -0.0000     7.4602    -0.0500      4.636     61.000  11001.000      5.000    98.9520   141.7955   -76.4090     0.4200    -1.0000    28.1520     0.0000     0.0000    15.0325   103.0554    -1.0000    -1.5000     0.0000     0.0000     0.0000     0.0000    17.0000     8.0000     8.0000    17.0000     0.0000     0.0000   142.0306   -75.9388     0.0000    -4.2998    -2.9995    -1.8994    -0.6005     0.4003     1.8994     2.7994     3.8002    31.3400    22.1100    13.8400     6.4800    -5.6200   -10.4100   -14.3900   -16.8000     2.3769     4.7500     4.800
      6     1.0000    -0.0000     7.4498    -0.0500      4.666     51.000  11001.000      5.000    98.9520   141.7955   -76.4090     0.4200    -1.0000    28.1520     0.0000     0.0000    14.9300   102.9326    -1.0000    -1.5000     0.0000     0.0000     0.0000     0.0000    17.0000     8.0000     8.0000    17.0000     0.0000     0.0000   142.0306   -75.9388     0.0000    -4.2998    -2.9995    -1.8994    -0.6005     0.4003     1.8994     2.7994     3.8002    31.3400    22.1100    13.8400     6.4800    -5.6200   -10.4100   -14.3900   -16.8000     2.3749     4.7500     4.800
      7     1.0000    -0.0000     7.4399    -0.0500      4.682     60.000  11001.000      5.000    98.9520   141.7955   -76.4090     0.4200    -1.0000    28.1520     0.0000     0.0000    14.8325   102.8100    -1.0000    -1.5000     0.0000     0.0000     0.0000     0.0000    17.0000     8.0000     8.0000    17.0000     0.0000     0.0000   142.0306   -75.9388     0.0000    -4.2998    -2.9995    -1.8994    -0.6005     0.4003     1.8994     2.7994     3.8002    31.3400    22.1100    13.8400     6.4800    -5.6200   -10.4100   -14.3900   -16.8000     2.3729     4.7500     4.800
      8     0.9999    -0.0000     7.4303    -0.0500      4.684     47.000  11001.000      5.000    98.9520   141.7955   -76.4090     0.4200    -1.0000    28.1520     0.0000     0.0000    14.7375   102.6876    -1.0000    -1.5000     0.0000     0.0000     0.0000     0.0000    17.0000     8.0000     8.0000    17.0000     0.0000     0.0000   142.0306   -75.9388     0.0000    -4.2998    -2.9995    -1.8994    -0.6005     0.4003     1.8994     2.7994     3.8002    31.3400    22.1100    13.8400     6.4800    -5.6200   -10.4100   -14.3900   -16.8000     2.3709     4.7500     4.800
      9     1.0000    -0.0000     7.4201    -0.0500      4.696     52.000  11001.000      5.000    98.9520   141.7955   -76.4090     0.4200    -1.0000    28.1520     0.0000     0.0000    14.6375   102.5655    -1.0000    -1.5000     0.0000     0.0000     0.0000     0.0000    17.0000     8.0000     8.0000    17.0000     0.0000     0.0000   142.0306   -75.9388     0.0000    -4.2998    -2.9995    -1.8994    -0.6005     0.4003     1.8994     2.7994     3.8002    31.3400    22.1100    13.8400     6.4800    -5.6200   -10.4100   -14.3900   -16.8000     2.3688     4.7500     4.800
     10     0.9999    -0.0000     7.4102    -0.0500      4.662     53.000  11001.000      5.000    98.9520   141.7955   -76.4090     0.4200    -1.0000    28.1520     0.0000     0.0000    14.5400   102.4436    -1.0000    -1.5000     0.0000     0.0000     0.0000     0.0000    17.0000     8.0000     8.0000    17.0000     0.0000     0.0000   142.0306   -75.9388     0.0000    -4.2998    -2.9995    -1.8994    -0.6005     0.4003     1.8994     2.7994     3.8002    31.3400    22.1100    13.8400     6.4800    -5.6200   -10.4100   -14.3900   -16.8000     2.3668     4.7500     4.800
     11     1.0000    -0.0000     7.4001    -0.0500      4.691     60.000  11001.000      5.000    98.9520   141.7955   -76.4090     0.4200    -1.0000    28.1520     0.0000     0.0000    14.4400   102.3219    -1.0000    -1.5000     0.0000     0.0000     0.0000     0.0000    17.0000     8.0000     8.0000    17.0000     0.0000     0.0000   142.0306   -75.9388     0.0000    -4.2998    -2.9995    -1.8994    -0.6005     0.4003     1.8994     2.7994     3.8002    31.3400    22.1100    13.8400     6.4800    -5.6200   -10.4100   -14.3900   -16.8000     2.3648     4.7500     4.800
     12     1.0000    -0.0000     7.3901    -0.0500      4.654     44.000  11001.000      5.000    98.9520   141.7955   -76.4090     0.4200    -1.0000    28.1520     0.0000     0.0000    14.3425   102.2004    -1.0000    -1.5000     0.0000     0.0000     0.0000     0.0000    17.0000     8.0000     8.0000    17.0000     0.0000     0.0000   142.0306   -75.9388     0.0000    -4.2998    -2.9995    -1.8994    -0.6005     0.4003     1.8994     2.7994     3.8002    31.3400    22.1100    13.8400     6.4800    -5.6200   -10.4100   -14.3900   -16.8000     2.3628     4.7500     4.800
     13     1.0000    -0.0000     7.3800    -0.0500      4.674     43.000  11001.000      5.000    98.9520   141.7955   -76.4090     0.4200    -1.0000    28.1520     0.0000     0.0000    14.2425   102.0791    -1.0000    -1.5000     0.0000     0.0000     0.0000     0.0000    17.0000     8.0000     8.0000    17.0000     0.0000     0.0000   142.0306   -75.9388     0.0000    -4.2998    -2.9995    -1.8994    -0.6005     0.4003     1.8994     2.7994     3.8002    31.3400    22.1100    13.8400     6.4800    -5.6200   -10.4100   -14.3900   -16.8000     2.3608     4.7500     4.800
     14     1.0000    -0.0000     7.3701    -0.0500      4.667     38.000  11001.000      5.000    98.9520   141.7955   -76.4090     0.4200    -1.0000    28.1520     0.0000     0.0000    14.1450   101.9581    -1.0000    -1.5000     0.0000     0.0000     0.0000     0.0000    17.0000     8.0000     8.0000    17.0000     0.0000     0.0000   142.0306   -75.9388     0.0000    -4.2998    -2.9995    -1.8994    -0.6005     0.4003     1.8994     2.7994     3.8002    31.3400    22.1100    13.8400     6.4800    -5.6200   -10.4100   -14.3900   -16.8000     2.3588     4.7500     4.800
     15     1.0000    -0.0000     7.3599    -0.0500      4.715     45.000  11001.000      5.000    98.9520   141.7955   -76.4090     0.4200    -1.0000    28.1520     0.0000     0.0000    14.0450   101.8373    -1.0000    -1.5000     0.0000     0.0000     0.0000     0.0000    17.0000     8.0000     8.0000    17.0000     0.0000     0.0000   142.0306   -75.9388     0.0000    -4.2998    -2.9995    -1.8994    -0.6005     0.4003     1.8994     2.7994     3.8002    31.3400    22.1100    13.8400     6.4800    -5.6200   -10.4100   -14.3900   -16.8000     2.3567     4.7500     4.800
     16     1.0000    -0.0000     7.3502    -0.0500      4.691     41.000  11001.000      5.000    98.9520   141.7955   -76.4090     0.4200    -1.0000    28.1520     0.0000     0.0000    13.9500   101.7167    -1.0000    -1.5000     0.0000     0.0000     0.0000     0.0000    17.0000     8.0000     8.0000    17.0000     0.0000     0.0000   142.0306   -75.9388     0.0000    -4.2998    -2.9995    -1.8994    -0.6005     0.4003     1.8994     2.7994     3.8002    31.3400    22.1100    13.8400     6.4800    -5.6200   -10.4100   -14.3900   -16.8000     2.3547     4.7500     4.800
     17     1.0000    -0.0000     7.3400    -0.0500      4.745     65.000  11001.000      5.000    98.9520   141.7955   -76.4090     0.4200    -1.0000    28.1520     0.0000     0.0000    13.8500   101.5963    -1.0000    -1.5000     0.0000     0.0000     0.0000     0.0000    17.0000     8.0000     8.0000    17.0000     0.0000     0.0000   142.0306   -75.9388     0.0000    -4.2998    -2.9995    -1.8994    -0.6005     0.4003     1.8994     2.7994     3.8002    31.3400    22.1100    13.8400     6.4800    -5.6200   -10.4100   -14.3900   -16.8000     2.3527     4.7500     4.800
     18     1.0000    -0.0000     7.3301    -0.0500      4.692     36.000  11001.000      5.000    98.9520   141.7955   -76.4090     0.4200    -1.0000    28.1520     0.0000     0.0000    13.7525   101.4761    -1.0000    -1.5000     0.0000     0.0000     0.0000     0.0000    17.0000     8.0000     8.0000    17.0000     0.0000     0.0000   142.0306   -75.9388     0.0000    -4.2998    -2.9995    -1.8994    -0.6005     0.4003     1.8994     2.7994     3.8002    31.3400    22.1100    13.8400     6.4800    -5.6200   -10.4100   -14.3900   -16.8000     2.3507     4.7500     4.800
     19     1.0000    -0.0000     7.3201    -0.0500      4.671     37.000  11001.000      5.000    98.9520   141.7955   -76.4090     0.4200    -1.0000    28.1520     0.0000     0.0000    13.6550   101.3562    -1.0000    -1.5000     0.0000     0.0000     0.0000     0.0000    17.0000     8.0000     8.0000    17.0000     0.0000     0.0000   142.0306   -75.9388     0.0000    -4.2998    -2.9995    -1.8994    -0.6005     0.4003     1.8994     2.7994     3.8002    31.3400    22.1100    13.8400     6.4800    -5.6200   -10.4100   -14.3900   -16.8000     2.3487     4.7500     4.800
     20     1.0000    -0.0000     7.3099    -0.0500      4.710     32.000  11001.000      5.000    98.9520   141.7955   -76.4090     0.4200    -1.0000    28.1520     0.0000     0.0000    13.5550   101.2364    -1.0000    -1.5000     0.0000     0.0000     0.0000     0.0000    17.0000     8.0000     8.0000    17.0000     0.0000     0.0000   142.0306   -75.9388     0.0000    -4.2998    -2.9995    -1.8994    -0.6005     0.4003     1.8994     2.7994     3.8002    31.3400    22.1100    13.8400     6.4800    -5.6200   -10.4100   -14.3900   -16.8000     2.3467     4.7500     4.800
     21     1.0000    -0.0000     7.3000    -0.0500      4.630     37.000  11001.000      5.000    98.9520   141.7955   -76.4090     0.4200    -1.0000    28.1520     0.0000     0.0000    13.4575   101.1169    -1.0000    -1.5000     0.0000     0.0000     0.0000     0.0000    17.0000     8.0000     8.0000    17.0000     0.0000     0.0000   142.0306   -75.9388     0.0000    -4.2998    -2.9995    -1.8994    -0.6005     0.4003     1.8994     2.7994     3.8002    31.3400    22.1100    13.8400     6.4800    -5.6200   -10.4100   -14.3900   -16.8000     2.3447     4.7500     4.800
     22     1.0000    -0.0000     7.2900    -0.0500      4.641     45.000  11001.000      5.000    98.9520   141.7955   -76.4090     0.4200    -1.0000    28.1520     0.0000     0.0000    13.3600   100.9976    -1.0000    -1.5000     0.0000     0.0000     0.0000     0.0000    17.0000     8.0000     8.0000    17.0000     0.0000     0.0000   142.0306   -75.9388     0.0000    -4.2998    -2.9995    -1.8994    -0.6005     0.4003     1.8994     2.7994     3.8002    31.3400    22.1100    13.8400     6.4800    -5.6200   -10.4100   -14.3900   -16.8000     2.3426     4.7500     4.800
     23     1.0000    -0.0000     7.2801    -0.0500      4.667     55.000  11001.000      5.000    98.9520   141.7955   -76.4090     0.4200    -1.0000    28.1520     0.0000     0.0000    13.2625   100.8785    -1.0000    -1.5000     0.0000     0.0000     0.0000     0.0000    17.0000     8.0000     8.0000    17.0000     0.0000     0.0000   142.0306   -75.9388     0.0000    -4.2998    -2.9995    -1.8994    -0.6005     0.4003     1.8994     2.7994     3.8002    31.3400    22.1100    13.8400     6.4800    -5.6200   -10.4100   -14.3900   -16.8000     2.3406     4.7500     4.800
     24     1.0000    -0.0000     7.2701    -0.0500      4.678     35.000  11001.000      5.000    98.9520   141.7955   -76.4090     0.4200    -1.0000    28.1520     0.0000     0.0000    13.1650   100.7596    -1.0000    -1.5000     0.0000     0.0000     0.0000     0.0000    17.0000     8.0000     8.0000    17.0000     0.0000     0.0000   142.0306   -75.9388     0.0000    -4.2998    -2.9995    -1.8994    -0.6005     0.4003     1.8994     2.7994     3.8002    31.3400    22.1100    13.8400     6.4800    -5.6200   -10.4100   -14.3900   -16.8000     2.3386     4.7500     4.800
     25     1.0000    -0.0000     7.2599    -0.0500      4.663     46.000  11001.000      5.000    98.9520   141.7955   -76.4090     0.4200    -1.0000    28.1520     0.0000     0.0000    13.0650   100.6409    -1.0000    -1.5000     0.0000     0.0000     0.0000     0.0000    17.0000     8.0000     8.0000    17.0000     0.0000     0.0000   142.0306   -75.9388     0.0000    -4.2998    -2.9995    -1.8994    -0.6005     0.4003     1.8994     2.7994     3.8002    31.3400    22.1100    13.8400     6.4800    -5.6200   -10.4100   -14.3900   -16.8000     2.3366     4.7500     4.800
     26     1.0000    -0.0000     7.2502    -0.0500      4.676     45.000  11001.000      5.000    98.9520   141.7955   -76.4090     0.4200    -1.0000    28.1520     0.0000     0.0000    12.9700   100.5224    -1.0000    -1.5000     0.0000     0.0000     0.0000     0.0000    17.0000     8.0000     8.0000    17.0000     0.0000     0.0000   142.0306   -75.9388     0.0000    -4.2998    -2.9995    -1.8994    -0.6005     0.4003     1.8994     2.7994     3.8002    31.3400    22.1100    13.8400     6.4800    -5.6200   -10.4100   -14.3900   -16.8000     2.3346     4.7500     4.800
     27     1.0000    -0.0000     7.2399    -0.0500      4.709     38.000  11001.000      5.000    98.9520   141.7955   -76.4090     0.4200    -1.0000    28.1520     0.0000     0.0000    12.8700   100.4042    -1.0000    -1.5000     0.0000     0.0000     0.0000     0.0000    17.0000     8.0000     8.0000    17.0000     0.0000     0.0000   142.0306   -75.9388     0.0000    -4.2998    -2.9995    -1.8994    -0.6005     0.4003     1.8994     2.7994     3.8002    31.3400    22.1100    13.8400     6.4800    -5.6200   -10.4100   -14.3900   -16.8000     2.3326     4.7500     4.800
     28     1.0000    -0.0000     7.2300    -0.0500      4.749     36.000  11001.000      5.000    98.9520   141.7955   -76.4090     0.4200    -1.0000    28.1520     0.0000     0.0000    12.7725   100.2861    -1.0000    -1.5000     0.0000     0.0000     0.0000     0.0000    17.0000     8.0000     8.0000    17.0000     0.0000     0.0000   142.0306   -75.9388     0.0000    -4.2998    -2.9995    -1.8994    -0.6005     0.4003     1.8994     2.7994     3.8002    31.3400    22.1100    13.8400     6.4800    -5.6200   -10.4100   -14.3900   -16.8000     2.3306     4.7500     4.800
     29     1.0000    -0.0000     7.2200    -0.0500      4.728     55.000  11001.000      5.000    98.9520   141.7955   -76.4090     0.4200    -1.0000    28.1520     0.0000     0.0000    12.6750   100.1682    -1.0000    -1.5000     0.0000     0.0000     0.0000     0.0000    17.0000     8.0000     8.0000    17.0000     0.0000     0.0000   142.0306   -75.9388     0.0000    -4.2998    -2.9995    -1.8994    -0.6005     0.4003     1.8994     2.7994     3.8002    31.3400    22.1100    13.8400     6.4800    -5.6200   -10.4100   -14.3900   -16.8000     2.3286     4.7500     4.800
     30     1.0000    -0.0000     7.2100    -0.0500      4.690     52.000  11001.000      5.000    98.9520   141.7955   -76.4090     0.4200    -1.0000    28.1520     0.0000     0.0000    12.5775   100.0506    -1.0000    -1.5000     0.0000     0.0000     0.0000     0.0000    17.0000     8.0000     8.0000    17.0000     0.0000     0.0000   142.0306   -75.9388     0.0000    -4.2998    -2.9995    -1.8994    -0.6005     0.4003     1.8994     2.7994     3.8002    31.3400    22.1100    13.8400     6.4800    -5.6200   -10.4100   -14.3900   -16.8000     2.3266     4.7500     4.800
     31     0.9999    -0.0000     7.2002    -0.0500      4.634     65.000  11001.000      5.000    98.9520   141.7955   -76.4090     0.4200    -1.0000    28.1520     0.0000     0.0000    12.4825    99.9332    -1.0000    -1.5000     0.0000     0.0000     0.0000     0.0000    17.0000     8.0000     8.0000    17.0000     0.0000     0.0000   142.0306   -75.9388     0.0000    -4.2998    -2.9995    -1.8994    -0.6005     0.4003     1.8994     2.7994     3.8002    31.3400    22.1100    13.8400     6.4800    -5.6200   -10.4100   -14.3900   -16.8000     2.3246     4.7500     4.800
     32     0.9999    -0.0000     7.1902    -0.0500      4.637     56.000  11001.000      5.000    98.9520   141.7955   -76.4090     0.4200    -1.0000    28.1520     0.0000     0.0000    12.3850    99.8159    -1.0000    -1.5000     0.0000     0.0000     0.0000     0.0000    17.0000     8.0000     8.0000    17.0000     0.0000     0.0000   142.0306   -75.9388     0.0000    -4.2998    -2.9995    -1.8994    -0.6005     0.4003     1.8994     2.7994     3.8002    31.3400    22.1100    13.8400     6.4800    -5.6200   -10.4100   -14.3900   -16.8000     2.3226     4.7500     4.800
     33     1.0000    -0.0000     7.1800    -0.0500      4.690     35.000  11001.000      5.000    98.9520   141.7955   -76.4090     0.4200    -1.0000    28.1520     0.0000     0.0000    12.2850    99.6989    -1.0000    -1.5000     0.0000     0.0000     0.0000     0.0000    17.0000     8.0000     8.0000    17.0000     0.0000     0.0000   142.0306   -75.9388     0.0000    -4.2998    -2.9995    -1.8994    -0.6005     0.4003     1.8994     2.7994     3.8002    31.3400    22.1100    13.8400     6.4800    -5.6200   -10.4100   -14.3900   -16.8000     2.3206     4.7500     4.800
     34     1.0000    -0.0000     7.1700    -0.0500      4.679     46.000  11001.000      5.000    98.9520   141.7955   -76.4090     0.4200    -1.0000    28.1520     0.0000     0.0000    12.1875    99.5821    -1.0000    -1.5000     0.0000     0.0000     0.0000     0.0000    17.0000     8.0000     8.0000    17.0000     0.0000     0.0000   142.0306   -75.9388     0.0000    -4.2998    -2.9995    -1.8994    -0.6005     0.4003     1.8994     2.7994     3.8002    31.3400    22.1100    13.8400     6.4800    -5.6200   -10.4100   -14.3900   -16.8000     2.3186     4.7500     4.800
     35     1.0000    -0.0000     7.1600    -0.0500      4.654     56.000  11001.000      5.000    98.9520   141.7955   -76.4090     0.4200    -1.0000    28.1520     0.0000     0.0000    12.0900    99.4654    -1.0000    -1.5000     0.0000     0.0000     0.0000     0.0000    17.0000     8.0000     8.0000    17.0000     0.0000     0.0000   142.0306   -75.9388     0.0000    -4.2998    -2.9995    -1.8994    -0.6005     0.4003     1.8994     2.7994     3.8002    31.3400    22.1100    13.8400     6.4800    -5.6200   -10.4100   -14.3900   -16.8000     2.3166     4.7500     4.800
     36     1.0000    -0.0000     7.1500    -0.0500      4.742     52.000  11001.000      5.000    98.9520   141.7955   -76.4090     0.4200    -1.0000    28.1520     0.0000     0.0000    11.9925    99.3490    -1.0000    -1.5000     0.0000     0.0000     0.0000     0.0000    17.0000     8.0000     8.0000    17.0000     0.0000     0.0000   142.0306   -75.9388     0.0000    -4.2998    -2.9995    -1.8994    -0.6005     0.4003     1.8994     2.7994     3.8002    31.3400    22.1100    13.8400     6.4800    -5.6200   -10.4100   -14.3900   -16.8000     2.3146     4.7500     4.800
     37     1.0000    -0.0000     7.1400    -0.0500      4.669     69.000  11001.000      5.000    98.9520   141.7955   -76.4090     0.4200    -1.0000    28.1520     0.0000     0.0000    11.8950    99.2328    -1.0000    -1.5000     0.0000     0.0000     0.0000     0.0000    17.0000     8.0000     8.0000    17.0000     0.0000     0.0000   142.0306   -75.9388     0.0000    -4.2998    -2.9995    -1.8994    -0.6005     0.4003     1.8994     2.7994     3.8002    31.3400    22.1100    13.8400     6.4800    -5.6200   -10.4100   -14.3900   -16.8000     2.3126     4.7500     4.800
     38     1.0000    -0.0000     7.1300    -0.0500      4.644     84.000  11001.000      5.000    98.9520   141.7955   -76.4090     0.4200    -1.0000    28.1520     0.0000     0.0000    11.7975    99.1168    -1.0000    -1.5000     0.0000     0.0000     0.0000     0.0000    17.0000     8.0000     8.0000    17.0000     0.0000     0.0000   142.0306   -75.9388     0.0000    -4.2998    -2.9995    -1.8994    -0.6005     0.4003     1.8994     2.7994     3.8002    31.3400    22.1100    13.8400     6.4800    -5.6200   -10.4100   -14.3900   -16.8000     2.3106     4.7500     4.800
     39     1.0000    -0.0000     7.1202    -0.0500      4.724    105.000  11001.000      5.000    98.9520   141.7955   -76.4090     0.4200    -1.0000    28.1520     0.0000     0.0000    11.7025    99.0010    -1.0000    -1.5000     0.0000     0.0000     0.0000     0.0000    17.0000     8.0000     8.0000    17.0000     0.0000     0.0000   142.0306   -75.9388     0.0000    -4.2998    -2.9995    -1.8994    -0.6005     0.4003     1.8994     2.7994     3.8002    31.3400    22.1100    13.8400     6.4800    -5.6200   -10.4100   -14.3900   -16.8000     2.3086     4.7500     4.800
     40     1.0000    -0.0000     7.1099    -0.0500      4.680    121.000  11001.000      5.000    98.9520   141.7955   -76.4090     0.4200    -1.0000    28.1520     0.0000     0.0000    11.6025    98.8854    -1.0000    -1.5000     0.0000     0.0000     0.0000     0.0000    17.0000     8.0000     8.0000    17.0000     0.0000     0.0000   142.0306   -75.9388     0.0000    -4.2998    -2.9995    -1.8994    -0.6005     0.4003     1.8994     2.7994     3.8002    31.3400    22.1100    13.8400     6.4800    -5.6200   -10.4100   -14.3900   -16.8000     2.3067     4.7500     4.800
     41     1.0000    -0.0000     7.1001    -0.0500      4.682    194.000  11001.000      5.000    98.9520   141.7955   -76.4090     0.4200    -1.0000    28.1520     0.0000     0.0000    11.5075    98.7700    -1.0000    -1.5000     0.0000     0.0000     0.0000     0.0000    17.0000     8.0000     8.0000    17.0000     0.0000     0.0000   142.0306   -75.9388     0.0000    -4.2998    -2.9995    -1.8994    -0.6005     0.4003     1.8994     2.7994     3.8002    31.3400    22.1100    13.8400     6.4800    -5.6200   -10.4100   -14.3900   -16.8000     2.3047     4.7500     4.800
     42     1.0000    -0.0000     7.0899    -0.0500      4.705    478.000  11001.000      5.000    98.9520   141.7955   -76.4090     0.4200    -1.0000    28.1520     0.0000     0.0000    11.4075    98.6547    -1.0000    -1.5000     0.0000     0.0000     0.0000     0.0000    17.0000     8.0000     8.0000    17.0000     0.0000     0.0000   142.0306   -75.9388     0.0000    -4.2998    -2.9995    -1.8994    -0.6005     0.4003     1.8994     2.7994     3.8002    31.3400    22.1100    13.8400     6.4800    -5.6200   -10.4100   -14.3900   -16.8000     2.3027     4.7500     4.800
     43     1.0000    -0.0000     7.0801    -0.0500      4.651   1195.000  11001.000      5.000    98.9520   141.7955   -76.4090     0.4200    -1.0000    28.1520     0.0000     0.0000    11.3125    98.5397    -1.0000    -1.5000     0.0000     0.0000     0.0000     0.0000    17.0000     8.0000     8.0000    17.0000     0.0000     0.0000   142.0306   -75.9388     0.0000    -4.2998    -2.9995    -1.8994    -0.6005     0.4003     1.8994     2.7994     3.8002    31.3400    22.1100    13.8400     6.4800    -5.6200   -10.4100   -14.3900   -16.8000     2.3007     4.7500     4.800
     44     1.0000    -0.0000     7.0700    -0.0500      4.695   2844.000  11001.000      5.000    98.9520   141.7955   -76.4090     0.4200    -1.0000    28.1520     0.0000     0.0000    11.2150    98.4249    -1.0000    -1.5000     0.0000     0.0000     0.0000     0.0000    17.0000     8.0000     8.0000    17.0000     0.0000     0.0000   142.0306   -75.9388     0.0000    -4.2998    -2.9995    -1.8994    -0.6005     0.4003     1.8994     2.7994     3.8002    31.3400    22.1100    13.8400     6.4800    -5.6200   -10.4100   -14.3900   -16.8000     2.2987     4.7500     4.800
     45     1.0000    -0.0000     7.0600    -0.0500      4.702   5055.000  11001.000      5.000    98.9520   141.7955   -76.4090     0.4200    -1.0000    28.1520     0.0000     0.0000    11.1175    98.3102    -1.0000    -1.5000     0.0000     0.0000     0.0000     0.0000    17.0000     8.0000     8.0000    17.0000     0.0000     0.0000   142.0306   -75.9388     0.0000    -4.2998    -2.9995    -1.8994    -0.6005     0.4003     1.8994     2.7994     3.8002    31.3400    22.1100    13.8400     6.4800    -5.6200   -10.4100   -14.3900   -16.8000     2.2967     4.7500     4.800
     46     1.0000    -0.0000     7.0500    -0.0500      4.787   8379.000  11001.000      5.000    98.9520   141.7955   -76.4090     0.4200    -1.0000    28.1520     0.0000     0.0000    11.0200    98.1958    -1.0000    -1.5000     0.0000     0.0000     0.0000     0.0000    17.0000     8.0000     8.0000    17.0000     0.0000     0.0000   142.0306   -75.9388     0.0000    -4.2998    -2.9995    -1.8994    -0.6005     0.4003     1.8994     2.7994     3.8002    31.3400    22.1100    13.8400     6.4800    -5.6200   -10.4100   -14.3900   -16.8000     2.2947     4.7500     4.800
     47     1.0000    -0.0000     7.0399    -0.0500      4.704   9595.000  11001.000      5.000    98.9520   141.7955   -76.4090     0.4200    -1.0000    28.1520     0.0000     0.0000    10.9225    98.0816    -1.0000    -1.5000     0.0000     0.0000     0.0000     0.0000    17.0000     8.0000     8.0000    17.0000     0.0000     0.0000   142.0306   -75.9388     0.0000    -4.2998    -2.9995    -1.8994    -0.6005     0.4003     1.8994     2.7994     3.8002    31.3400    22.1100    13.8400     6.4800    -5.6200   -10.4100   -14.3900   -16.8000     2.2928     4.7500     4.800
     48     1.0000    -0.0000     7.0301    -0.0500      4.684   8656.000  11001.000      5.000    98.9520   141.7955   -76.4090     0.4200    -1.0000    28.1520     0.0000     0.0000    10.8275    97.9675    -1.0000    -1.5000     0.0000     0.0000     0.0000     0.0000    17.0000     8.0000     8.0000    17.0000     0.0000     0.0000   142.0306   -75.9388     0.0000    -4.2998    -2.9995    -1.8994    -0.6005     0.4003     1.8994     2.7994     3.8002    31.3400    22.1100    13.8400     6.4800    -5.6200   -10.4100   -14.3900   -16.8000     2.2908     4.7500     4.800
     49     1.0000    -0.0000     7.0201    -0.0500      4.664   6343.000  11001.000      5.000    98.9520   141.7955   -76.4090     0.4200    -1.0000    28.1520     0.0000     0.0000    10.7300    97.8537    -1.0000    -1.5000     0.0000     0.0000     0.0000     0.0000    17.0000     8.0000     8.0000    17.0000     0.0000     0.0000   142.0306   -75.9388     0.0000    -4.2998    -2.9995    -1.8994    -0.6005     0.4003     1.8994     2.7994     3.8002    31.3400    22.1100    13.8400     6.4800    -5.6200   -10.4100   -14.3900   -16.8000     2.2888     4.7500     4.800
     50     1.0000    -0.0000     7.0100    -0.0500      4.641   3671.000  11001.000      5.000    98.9520   141.7955   -76.4090     0.4200    -1.0000    28.1520     0.0000     0.0000    10.6325    97.7400    -1.0000    -1.5000     0.0000     0.0000     0.0000     0.0000    17.0000     8.0000     8.0000    17.0000     0.0000     0.0000   142.0306   -75.9388     0.0000    -4.2998    -2.9995    -1.8994    -0.6005     0.4003     1.8994     2.7994     3.8002    31.3400    22.1100    13.8400     6.4800    -5.6200   -10.4100   -14.3900   -16.8000     2.2868     4.7500     4.800
     51     1.0000    -0.0000     7.0000    -0.0500      4.697   1854.000  11001.000      5.000    98.9520   141.7955   -76.4090     0.4200    -1.0000    28.1520     0.0000     0.0000    10.5350    97.6266    -1.0000    -1.5000     0.0000     0.0000     0.0000     0.0000    17.0000     8.0000     8.0000    17.0000     0.0000     0.0000   142.0306   -75.9388     0.0000    -4.2998    -2.9995    -1.8994    -0.6005     0.4003     1.8994     2.7994     3.8002    31.3400    22.1100    13.8400     6.4800    -5.6200   -10.4100   -14.3900   -16.8000     2.2848     4.7500     4.800
     52     1.0000    -0.0000     6.9899    -0.0500      4.666    747.000  11001.000      5.000    98.9520   141.7955   -76.4090     0.4200    -1.0000    28.1520     0.0000     0.0000    10.4375    97.5133    -1.0000    -1.5000     0.0000     0.0000     0.0000     0.0000    17.0000     8.0000     8.0000    17.0000     0.0000     0.0000   142.0306   -75.9388     0.0000    -4.2998    -2.9995    -1.8994    -0.6005     0.4003     1.8994     2.7994     3.8002    31.3400    22.1100    13.8400     6.4800    -5.6200   -10.4100   -14.3900   -16.8000     2.2829     4.7500     4.800
     53     1.0000    -0.0000     6.9801    -0.0500      4.699    304.000  11001.000      5.000    98.9520   141.7955   -76.4090     0.4200    -1.0000    28.1520     0.0000     0.0000    10.3425    97.4002    -1.0000    -1.5000     0.0000     0.0000     0.0000     0.0000    17.0000     8.0000     8.0000    17.0000     0.0000     0.0000   142.0306   -75.9388     0.0000    -4.2998    -2.9995    -1.8994    -0.6005     0.4003     1.8994     2.7994     3.8002    31.3400    22.1100    13.8400     6.4800    -5.6200   -10.4100   -14.3900   -16.8000     2.2809     4.7500     4.800
     54     1.0000    -0.0000     6.9700    -0.0500      4.682    179.000  11001.000      5.000    98.9520   141.7955   -76.4090     0.4200    -1.0000    28.1520     0.0000     0.0000    10.2450    97.2873    -1.0000    -1.5000     0.0000     0.0000     0.0000     0.0000    17.0000     8.0000     8.0000    17.0000     0.0000     0.0000   142.0306   -75.9388     0.0000    -4.2998    -2.9995    -1.8994    -0.6005     0.4003     1.8994     2.7994     3.8002    31.3400    22.1100    13.8400     6.4800    -5.6200   -10.4100   -14.3900   -16.8000     2.2789     4.7500     4.800
     55     1.0000    -0.0000     6.9600    -0.0500      4.743    118.000  11001.000      5.000    98.9520   141.7955   -76.4090     0.4200    -1.0000    28.1520     0.0000     0.0000    10.1475    97.1746    -1.0000    -1.5000     0.0000     0.0000     0.0000     0.0000    17.0000     8.0000     8.0000    17.0000     0.0000     0.0000   142.0306   -75.9388     0.0000    -4.2998    -2.9995    -1.8994    -0.6005     0.4003     1.8994     2.7994     3.8002    31.3400    22.1100    13.8400     6.4800    -5.6200   -10.4100   -14.3900   -16.8000     2.2769     4.7500     4.800
     56     1.0000    -0.0000     6.9499    -0.0500      4.717     93.000  11001.000      5.000    98.9520   141.7955   -76.4090     0.4200    -1.0000    28.1520     0.0000     0.0000    10.0500    97.0621    -1.0000    -1.5000     0.0000     0.0000     0.0000     0.0000    17.0000     8.0000     8.0000    17.0000     0.0000     0.0000   142.0306   -75.9388     0.0000    -4.2998    -2.9995    -1.8994    -0.6005     0.4003     1.8994     2.7994     3.8002    31.3400    22.1100    13.8400     6.4800    -5.6200   -10.4100   -14.3900   -16.8000     2.2750     4.7500     4.800
     57     1.0000    -0.0000     6.9401    -0.0500      4.642     90.000  11001.000      5.000    98.9520   141.7955   -76.4090     0.4200    -1.0000    28.1520     0.0000     0.0000     9.9550    96.9498    -1.0000    -1.5000     0.0000     0.0000     0.0000     0.0000    17.0000     8.0000     8.0000    17.0000     0.0000     0.0000   142.0306   -75.9388     0.0000    -4.2998    -2.9995    -1.8994    -0.6005     0.4003     1.8994     2.7994     3.8002    31.3400    22.1100    13.8400     6.4800    -5.6200   -10.4100   -14.3900   -16.8000     2.2730     4.7500     4.800
     58     1.0000    -0.0000     6.9300    -0.0500      4.666    100.000  11001.000      5.000    98.9520   141.7955   -76.4090     0.4200    -1.0000    28.1520     0.0000     0.0000     9.8575    96.8376    -1.0000    -1.5000     0.0000     0.0000     0.0000     0.0000    17.0000     8.0000     8.0000    17.0000     0.0000     0.0000   142.0306   -75.9388     0.0000    -4.2998    -2.9995    -1.8994    -0.6005     0.4003     1.8994     2.7994     3.8002    31.3400    22.1100    13.8400     6.4800    -5.6200   -10.4100   -14.3900   -16.8000     2.2710     4.7500     4.800
     59     1.0000    -0.0000     6.9199    -0.0500      4.636     82.000  11001.000      5.000    98.9520   141.7955   -76.4090     0.4200    -1.0000    28.1520     0.0000     0.0000     9.7600    96.7257    -1.0000    -1.5000     0.0000     0.0000     0.0000     0.0000    17.0000     8.0000     8.0000    17.0000     0.0000     0.0000   142.0306   -75.9388     0.0000    -4.2998    -2.9995    -1.8994    -0.6005     0.4003     1.8994     2.7994     3.8002    31.3400    22.1100    13.8400     6.4800    -5.6200   -10.4100   -14.3900   -16.8000     2.2690     4.7500     4.800
     60     1.0000    -0.0000     6.9099    -0.0500      4.689     79.000  11001.000      5.000    98.9520   141.7955   -76.4090     0.4200    -1.0000    28.1520     0.0000     0.0000     9.6625    96.6139    -1.0000    -1.5000     0.0000     0.0000     0.0000     0.0000    17.0000     8.0000     8.0000    17.0000     0.0000     0.0000   142.0306   -75.9388     0.0000    -4.2998    -2.9995    -1.8994    -0.6005     0.4003     1.8994     2.7994     3.8002    31.3400    22.1100    13.8400     6.4800    -5.6200   -10.4100   -14.3900   -16.8000     2.2671     4.7500     4.800
     61     0.9999    -0.0000     6.9003    -0.0500      4.651     75.000  11001.000      5.000    98.9520   141.7955   -76.4090     0.4200    -1.0000    28.1520     0.0000     0.0000     9.5700    96.5024    -1.0000    -1.5000     0.0000     0.0000     0.0000     0.0000    17.0000     8.0000     8.0000    17.0000     0.0000     0.0000   142.0306   -75.9388     0.0000    -4.2998    -2.9995    -1.8994    -0.6005     0.4003     1.8994     2.7994     3.8002    31.3400    22.1100    13.8400     6.4800    -5.6200   -10.4100   -14.3900   -16.8000     2.2651     4.7500     4.800
     62     1.0000    -0.0000     6.8900    -0.0500      4.748     65.000  11001.000      5.000    98.9520   141.7955   -76.4090     0.4200    -1.0000    28.1520     0.0000     0.0000     9.4700    96.3910    -1.0000    -1.5000     0.0000     0.0000     0.0000     0.0000    17.0000     8.0000     8.0000    17.0000     0.0000     0.0000   142.0306   -75.9388     0.0000    -4.2998    -2.9995    -1.8994    -0.6005     0.4003     1.8994     2.7994     3.8002    31.3400    22.1100    13.8400     6.4800    -5.6200   -10.4100   -14.3900   -16.8000     2.2631     4.7500     4.800
     63     1.0000    -0.0000     6.8801    -0.0500      4.721     74.000  11001.000      5.000    98.9520   141.7955   -76.4090     0.4200    -1.0000    28.1520     0.0000     0.0000     9.3750    96.2798    -1.0000    -1.5000     0.0000     0.0000     0.0000     0.0000    17.0000     8.0000     8.0000    17.0000     0.0000     0.0000   142.0306   -75.9388     0.0000    -4.2998    -2.9995    -1.8994    -0.6005     0.4003     1.8994     2.7994     3.8002    31.3400    22.1100    13.8400     6.4800    -5.6200   -10.4100   -14.3900   -16.8000     2.2612     4.7500     4.800
     64     0.9999    -0.0000     6.8703    -0.0500      4.689     59.000  11001.000      5.000    98.9520   141.7955   -76.4090     0.4200    -1.0000    28.1520     0.0000     0.0000     9.2800    96.1688    -1.0000    -1.5000     0.0000     0.0000     0.0000     0.0000    17.0000     8.0000     8.0000    17.0000     0.0000     0.0000   142.0306   -75.9388     0.0000    -4.2998    -2.9995    -1.8994    -0.6005     0.4003     1.8994     2.7994     3.8002    31.3400    22.1100    13.8400     6.4800    -5.6200   -10.4100   -14.3900   -16.8000     2.2592     4.7500     4.800
     65     1.0000    -0.0000     6.8599    -0.0500      4.711     55.000  11001.000      5.000    98.9520   141.7955   -76.4090     0.4200    -1.0000    28.1520     0.0000     0.0000     9.1800    96.0580    -1.0000    -1.5000     0.0000     0.0000     0.0000     0.0000    17.0000     8.0000     8.0000    17.0000     0.0000     0.0000   142.0306   -75.9388     0.0000    -4.2998    -2.9995    -1.8994    -0.6005     0.4003     1.8994     2.7994     3.8002    31.3400    22.1100    13.8400     6.4800    -5.6200   -10.4100   -14.3900   -16.8000     2.2572     4.7500     4.800
     66     1.0000    -0.0000     6.8499    -0.0500      4.698     62.000  11001.000      5.000    98.9520   141.7955   -76.4090     0.4200    -1.0000    28.1520     0.0000     0.0000     9.0825    95.9473    -1.0000    -1.5000     0.0000     0.0000     0.0000     0.0000    17.0000     8.0000     8.0000    17.0000     0.0000     0.0000   142.0306   -75.9388     0.0000    -4.2998    -2.9995    -1.8994    -0.6005     0.4003     1.8994     2.7994     3.8002    31.3400    22.1100    13.8400     6.4800    -5.6200   -10.4100   -14.3900   -16.8000     2.2553     4.7500     4.800
     67     1.0000    -0.0000     6.8400    -0.0500      4.743     61.000  11001.000      5.000    98.9520   141.7955   -76.4090     0.4200    -1.0000    28.1520     0.0000     0.0000     8.9875    95.8368    -1.0000    -1.5000     0.0000     0.0000     0.0000     0.0000    17.0000     8.0000     8.0000    17.0000     0.0000     0.0000   142.0306   -75.9388     0.0000    -4.2998    -2.9995    -1.8994    -0.6005     0.4003     1.8994     2.7994     3.8002    31.3400    22.1100    13.8400     6.4800    -5.6200   -10.4100   -14.3900   -16.8000     2.2533     4.7500     4.800
     68     1.0000    -0.0000     6.8299    -0.0500      4.714     52.000  11001.000      5.000    98.9520   141.7955   -76.4090     0.4200    -1.0000    28.1520     0.0000     0.0000     8.8900    95.7266    -1.0000    -1.5000     0.0000     0.0000     0.0000     0.0000    17.0000     8.0000     8.0000    17.0000     0.0000     0.0000   142.0306   -75.9388     0.0000    -4.2998    -2.9995    -1.8994    -0.6005     0.4003     1.8994     2.7994     3.8002    31.3400    22.1100    13.8400     6.4800    -5.6200   -10.4100   -14.3900   -16.8000     2.2514     4.7500     4.800
     69     1.0000    -0.0000     6.8201    -0.0500      4.712     45.000  11001.000      5.000    98.9520   141.7955   -76.4090     0.4200    -1.0000    28.1520     0.0000     0.0000     8.7950    95.6165    -1.0000    -1.5000     0.0000     0.0000     0.0000     0.0000    17.0000     8.0000     8.0000    17.0000     0.0000     0.0000   142.0306   -75.9388     0.0000    -4.2998    -2.9995    -1.8994    -0.6005     0.4003     1.8994     2.7994     3.8002    31.3400    22.1100    13.8400     6.4800    -5.6200   -10.4100   -14.3900   -16.8000     2.2494     4.7500     4.800
     70     1.0000    -0.0000     6.8100    -0.0500      4.679     52.000  11001.000      5.000    98.9520   141.7955   -76.4090     0.4200    -1.0000    28.1520     0.0000     0.0000     8.6975    95.5066    -1.0000    -1.5000     0.0000     0.0000     0.0000     0.0000    17.0000     8.0000     8.0000    17.0000     0.0000     0.0000   142.0306   -75.9388     0.0000    -4.2998    -2.9995    -1.8994    -0.6005     0.4003     1.8994     2.7994     3.8002    31.3400    22.1100    13.8400     6.4800    -5.6200   -10.4100   -14.3900   -16.8000     2.2475     4.7500     4.800
     71     1.0000    -0.0000     6.7999    -0.0500      4.763     39.000  11001.000      5.000    98.9520   141.7955   -76.4090     0.4200    -1.0000    28.1520     0.0000     0.0000     8.6000    95.3968    -1.0000    -1.5000     0.0000     0.0000     0.0000     0.0000    17.0000     8.0000     8.0000    17.0000     0.0000     0.0000   142.0306   -75.9388     0.0000    -4.2998    -2.9995    -1.8994    -0.6005     0.4003     1.8994     2.7994     3.8002    31.3400    22.1100    13.8400     6.4800    -5.6200   -10.4100   -14.3900   -16.8000     2.2455     4.7500     4.800
     72     1.0000    -0.0000     6.7900    -0.0500      4.649     45.000  11001.000      5.000    98.9520   141.7955   -76.4090     0.4200    -1.0000    28.1520     0.0000     0.0000     8.5050    95.2873    -1.0000    -1.5000     0.0000     0.0000     0.0000     0.0000    17.0000     8.0000     8.0000    17.0000     0.0000     0.0000   142.0306   -75.9388     0.0000    -4.2998    -2.9995    -1.8994    -0.6005     0.4003     1.8994     2.7994     3.8002    31.3400    22.1100    13.8400     6.4800    -5.6200   -10.4100   -14.3900   -16.8000     2.2435     4.7500     4.800
     73     1.0000    -0.0000     6.7802    -0.0500      4.683     43.000  11001.000      5.000    98.9520   141.7955   -76.4090     0.4200    -1.0000    28.1520     0.0000     0.0000     8.4100    95.1779    -1.0000    -1.5000     0.0000     0.0000     0.0000     0.0000    17.0000     8.0000     8.0000    17.0000     0.0000     0.0000   142.0306   -75.9388     0.0000    -4.2998    -2.9995    -1.8994    -0.6005     0.4003     1.8994     2.7994     3.8002    31.3400    22.1100    13.8400     6.4800    -5.6200   -10.4100   -14.3900   -16.8000     2.2416     4.7500     4.800
     74     1.0000    -0.0000     6.7698    -0.0500      4.755     43.000  11001.000      5.000    98.9520   141.7955   -76.4090     0.4200    -1.0000    28.1520     0.0000     0.0000     8.3100    95.0687    -1.0000    -1.5000     0.0000     0.0000     0.0000     0.0000    17.0000     8.0000     8.0000    17.0000     0.0000     0.0000   142.0306   -75.9388     0.0000    -4.2998    -2.9995    -1.8994    -0.6005     0.4003     1.8994     2.7994     3.8002    31.3400    22.1100    13.8400     6.4800    -5.6200   -10.4100   -14.3900   -16.8000     2.2396     4.7500     4.800
     75     1.0000    -0.0000     6.7600    -0.0500      4.651     40.000  11001.000      5.000    98.9520   141.7955   -76.4090     0.4200    -1.0000    28.1520     0.0000     0.0000     8.2150    94.9597    -1.0000    -1.5000     0.0000     0.0000     0.0000     0.0000    17.0000     8.0000     8.0000    17.0000     0.0000     0.0000   142.0306   -75.9388     0.0000    -4.2998    -2.9995    -1.8994    -0.6005     0.4003     1.8994     2.7994     3.8002    31.3400    22.1100    13.8400     6.4800    -5.6200   -10.4100   -14.3900   -16.8000     2.2377     4.7500     4.800
     76     1.0000    -0.0000     6.7501    -0.0500      4.715     58.000  11001.000      5.000    98.9520   141.7955   -76.4090     0.4200    -1.0000    28.1520     0.0000     0.0000     8.1200    94.8509    -1.0000    -1.5000     0.0000     0.0000     0.0000     0.0000    17.0000     8.0000     8.0000    17.0000     0.0000     0.0000   142.0306   -75.9388     0.0000    -4.2998    -2.9995    -1.8994    -0.6005     0.4003     1.8994     2.7994     3.8002    31.3400    22.1100    13.8400     6.4800    -5.6200   -10.4100   -14.3900   -16.8000     2.2357     4.7500     4.800
     77     1.0001    -0.0000     6.7397    -0.0500      4.700     35.000  11001.000      5.000    98.9520   141.7955   -76.4090     0.4200    -1.0000    28.1520     0.0000     0.0000     8.0200    94.7422    -1.0000    -1.5000     0.0000     0.0000     0.0000     0.0000    17.0000     8.0000     8.0000    17.0000     0.0000     0.0000   142.0306   -75.9388     0.0000    -4.2998    -2.9995    -1.8994    -0.6005     0.4003     1.8994     2.7994     3.8002    31.3400    22.1100    13.8400     6.4800    -5.6200   -10.4100   -14.3900   -16.8000     2.2338     4.7500     4.800
     78     1.0000    -0.0000     6.7301    -0.0500      4.729     34.000  11001.000      5.000    98.9520   141.7955   -76.4090     0.4200    -1.0000    28.1520     0.0000     0.0000     7.9275    94.6337    -1.0000    -1.5000     0.0000     0.0000     0.0000     0.0000    17.0000     8.0000     8.0000    17.0000     0.0000     0.0000   142.0306   -75.9388     0.0000    -4.2998    -2.9995    -1.8994    -0.6005     0.4003     1.8994     2.7994     3.8002    31.3400    22.1100    13.8400     6.4800    -5.6200   -10.4100   -14.3900   -16.8000     2.2318     4.7500     4.800
     79     1.0000    -0.0000     6.7200    -0.0500      4.732     29.000  11001.000      5.000    98.9520   141.7955   -76.4090     0.4200    -1.0000    28.1520     0.0000     0.0000     7.8300    94.5254    -1.0000    -1.5000     0.0000     0.0000     0.0000     0.0000    17.0000     8.0000     8.0000    17.0000     0.0000     0.0000   142.0306   -75.9388     0.0000    -4.2998    -2.9995    -1.8994    -0.6005     0.4003     1.8994     2.7994     3.8002    31.3400    22.1100    13.8400     6.4800    -5.6200   -10.4100   -14.3900   -16.8000     2.2299     4.7500     4.800
     80     1.0000    -0.0000     6.7101    -0.0500      4.764     31.000  11001.000      5.000    98.9520   141.7955   -76.4090     0.4200    -1.0000    28.1520     0.0000     0.0000     7.7350    94.4173    -1.0000    -1.5000     0.0000     0.0000     0.0000     0.0000    17.0000     8.0000     8.0000    17.0000     0.0000     0.0000   142.0306   -75.9388     0.0000    -4.2998    -2.9995    -1.8994    -0.6005     0.4003     1.8994     2.7994     3.8002    31.3400    22.1100    13.8400     6.4800    -5.6200   -10.4100   -14.3900   -16.8000     2.2280     4.7500     4.800
     81     1.0000    -0.0000     6.6998    -0.0500      4.742     45.000  11001.000      5.000    98.9520   141.7955   -76.4090     0.4200    -1.0000    28.1520     0.0000     0.0000     7.6350    94.3094    -1.0000    -1.5000     0.0000     0.0000     0.0000     0.0000    17.0000     8.0000     8.0000    17.0000     0.0000     0.0000   142.0306   -75.9388     0.0000    -4.2998    -2.9995    -1.8994    -0.6005     0.4003     1.8994     2.7994     3.8002    31.3400    22.1100    13.8400     6.4800    -5.6200   -10.4100   -14.3900   -16.8000     2.2260     4.7500     4.800
     82     1.0000    -0.0000     6.6899    -0.0500      4.655     41.000  11001.000      5.000    98.9520   141.7955   -76.4090     0.4200    -1.0000    28.1520     0.0000     0.0000     7.5400    94.2016    -1.0000    -1.5000     0.0000     0.0000     0.0000     0.0000    17.0000     8.0000     8.0000    17.0000     0.0000     0.0000   142.0306   -75.9388     0.0000    -4.2998    -2.9995    -1.8994    -0.6005     0.4003     1.8994     2.7994     3.8002    31.3400    22.1100    13.8400     6.4800    -5.6200   -10.4100   -14.3900   -16.8000     2.2241     4.7500     4.800
     83     1.0000    -0.0000     6.6800    -0.0500      4.697     39.000  11001.000      5.000    98.9520   141.7955   -76.4090     0.4200    -1.0000    28.1520     0.0000     0.0000     7.4450    94.0940    -1.0000    -1.5000     0.0000     0.0000     0.0000     0.0000    17.0000     8.0000     8.0000    17.0000     0.0000     0.0000   142.0306   -75.9388     0.0000    -4.2998    -2.9995    -1.8994    -0.6005     0.4003     1.8994     2.7994     3.8002    31.3400    22.1100    13.8400     6.4800    -5.6200   -10.4100   -14.3900   -16.8000     2.2221     4.7500     4.800
     84     1.0000    -0.0000     6.6702    -0.0500      4.717     34.000  11001.000      5.000    98.9520   141.7955   -76.4090     0.4200    -1.0000    28.1520     0.0000     0.0000     7.3500    93.9866    -1.0000    -1.5000     0.0000     0.0000     0.0000     0.0000    17.0000     8.0000     8.0000    17.0000     0.0000     0.0000   142.0306   -75.9388     0.0000    -4.2998    -2.9995    -1.8994    -0.6005     0.4003     1.8994     2.7994     3.8002    31.3400    22.1100    13.8400     6.4800    -5.6200   -10.4100   -14.3900   -16.8000     2.2202     4.7500     4.800
     85     1.0000    -0.0000     6.6601    -0.0500      4.690     42.000  11001.000      5.000    98.9520   141.7955   -76.4090     0.4200    -1.0000    28.1520     0.0000     0.0000     7.2525    93.8794    -1.0000    -1.5000     0.0000     0.0000     0.0000     0.0000    17.0000     8.0000     8.0000    17.0000     0.0000     0.0000   142.0306   -75.9388     0.0000    -4.2998    -2.9995    -1.8994    -0.6005     0.4003     1.8994     2.7994     3.8002    31.3400    22.1100    13.8400     6.4800    -5.6200   -10.4100   -14.3900   -16.8000     2.2182     4.7500     4.800
     86     1.0000    -0.0000     6.6499    -0.0500      4.703     37.000  11001.000      5.000    98.9520   141.7955   -76.4090     0.4200    -1.0000    28.1520     0.0000     0.0000     7.1550    93.7723    -1.0000    -1.5000     0.0000     0.0000     0.0000     0.0000    17.0000     8.0000     8.0000    17.0000     0.0000     0.0000   142.0306   -75.9388     0.0000    -4.2998    -2.9995    -1.8994    -0.6005     0.4003     1.8994     2.7994     3.8002    31.3400    22.1100    13.8400     6.4800    -5.6200   -10.4100   -14.3900   -16.8000     2.2163     4.7500     4.800
     87     1.0000    -0.0000     6.6401    -0.0500      4.665     53.000  11001.000      5.000    98.9520   141.7955   -76.4090     0.4200    -1.0000    28.1520     0.0000     0.0000     7.0600    93.6654    -1.0000    -1.5000     0.0000     0.0000     0.0000     0.0000    17.0000     8.0000     8.0000    17.0000     0.0000     0.0000   142.0306   -75.9388     0.0000    -4.2998    -2.9995    -1.8994    -0.6005     0.4003     1.8994     2.7994     3.8002    31.3400    22.1100    13.8400     6.4800    -5.6200   -10.4100   -14.3900   -16.8000     2.2144     4.7500     4.800
     88     1.0000    -0.0000     6.6299    -0.0500      4.715     35.000  11001.000      5.000    98.9520   141.7955   -76.4090     0.4200    -1.0000    28.1520     0.0000     0.0000     6.9625    93.5587    -1.0000    -1.5000     0.0000     0.0000     0.0000     0.0000    17.0000     8.0000     8.0000    17.0000     0.0000     0.0000   142.0306   -75.9388     0.0000    -4.2998    -2.9995    -1.8994    -0.6005     0.4003     1.8994     2.7994     3.8002    31.3400    22.1100    13.8400     6.4800    -5.6200   -10.4100   -14.3900   -16.8000     2.2124     4.7500     4.800
     89     1.0000    -0.0000     6.6198    -0.0500      4.681     38.000  11001.000      5.000    98.9520   141.7955   -76.4090     0.4200    -1.0000    28.1520     0.0000     0.0000     6.8650    93.4521    -1.0000    -1.5000     0.0000     0.0000     0.0000     0.0000    17.0000     8.0000     8.0000    17.0000     0.0000     0.0000   142.0306   -75.9388     0.0000    -4.2998    -2.9995    -1.8994    -0.6005     0.4003     1.8994     2.7994     3.8002    31.3400    22.1100    13.8400     6.4800    -5.6200   -10.4100   -14.3900   -16.8000     2.2105     4.7500     4.800
     90     1.0000    -0.0000     6.6102    -0.0500      4.736     45.000  11001.000      5.000    98.9520   141.7955   -76.4090     0.4200    -1.0000    28.1520     0.0000     0.0000     6.7725    93.3458    -1.0000    -1.5000     0.0000     0.0000     0.0000     0.0000    17.0000     8.0000     8.0000    17.0000     0.0000     0.0000   142.0306   -75.9388     0.0000    -4.2998    -2.9995    -1.8994    -0.6005     0.4003     1.8994     2.7994     3.8002    31.3400    22.1100    13.8400     6.4800    -5.6200   -10.4100   -14.3900   -16.8000     2.2086     4.7500     4.800
     91     1.0000    -0.0000     6.6000    -0.0500      4.651     48.000  11001.000      5.000    98.9520   141.7955   -76.4090     0.4200    -1.0000    28.1520     0.0000     0.0000     6.6750    93.2396    -1.0000    -1.5000     0.0000     0.0000     0.0000     0.0000    17.0000     8.0000     8.0000    17.0000     0.0000     0.0000   142.0306   -75.9388     0.0000    -4.2998    -2.9995    -1.8994    -0.6005     0.4003     1.8994     2.7994     3.8002    31.3400    22.1100    13.8400     6.4800    -5.6200   -10.4100   -14.3900   -16.8000     2.2066     4.7500     4.800
     92     1.0000    -0.0000     6.5899    -0.0500      4.655     49.000  11001.000      5.000    98.9520   141.7955   -76.4090     0.4200    -1.0000    28.1520     0.0000     0.0000     6.5775    93.1335    -1.0000    -1.5000     0.0000     0.0000     0.0000     0.0000    17.0000     8.0000     8.0000    17.0000     0.0000     0.0000   142.0306   -75.9388     0.0000    -4.2998    -2.9995    -1.8994    -0.6005     0.4003     1.8994     2.7994     3.8002    31.3400    22.1100    13.8400     6.4800    -5.6200   -10.4100   -14.3900   -16.8000     2.2047     4.7500     4.800
     93     1.0000    -0.0000     6.5800    -0.0500      4.667     43.000  11001.000      5.000    98.9520   141.7955   -76.4090     0.4200    -1.0000    28.1520     0.0000     0.0000     6.4825    93.0277    -1.0000    -1.5000     0.0000     0.0000     0.0000     0.0000    17.0000     8.0000     8.0000    17.0000     0.0000     0.0000   142.0306   -75.9388     0.0000    -4.2998    -2.9995    -1.8994    -0.6005     0.4003     1.8994     2.7994     3.8002    31.3400    22.1100    13.8400     6.4800    -5.6200   -10.4100   -14.3900   -16.8000     2.2028     4.7500     4.800
     94     1.0000    -0.0000     6.5699    -0.0500      4.719     45.000  11001.000      5.000    98.9520   141.7955   -76.4090     0.4200    -1.0000    28.1520     0.0000     0.0000     6.3850    92.9220    -1.0000    -1.5000     0.0000     0.0000     0.0000     0.0000    17.0000     8.0000     8.0000    17.0000     0.0000     0.0000   142.0306   -75.9388     0.0000    -4.2998    -2.9995    -1.8994    -0.6005     0.4003     1.8994     2.7994     3.8002    31.3400    22.1100    13.8400     6.4800    -5.6200   -10.4100   -14.3900   -16.8000     2.2008     4.7500     4.800
     95     1.0000    -0.0000     6.5600    -0.0500      4.668     38.000  11001.000      5.000    98.9520   141.7955   -76.4090     0.4200    -1.0000    28.1520     0.0000     0.0000     6.2900    92.8165    -1.0000    -1.5000     0.0000     0.0000     0.0000     0.0000    17.0000     8.0000     8.0000    17.0000     0.0000     0.0000   142.0306   -75.9388     0.0000    -4.2998    -2.9995    -1.8994    -0.6005     0.4003     1.8994     2.7994     3.8002    31.3400    22.1100    13.8400     6.4800    -5.6200   -10.4100   -14.3900   -16.8000     2.1989     4.7500     4.800
     96     1.0000    -0.0000     6.5501    -0.0500      4.705     42.000  11001.000      5.000    98.9520   141.7955   -76.4090     0.4200    -1.0000    28.1520     0.0000     0.0000     6.1950    92.7111    -1.0000    -1.5000     0.0000     0.0000     0.0000     0.0000    17.0000     8.0000     8.0000    17.0000     0.0000     0.0000   142.0306   -75.9388     0.0000    -4.2998    -2.9995    -1.8994    -0.6005     0.4003     1.8994     2.7994     3.8002    31.3400    22.1100    13.8400     6.4800    -5.6200   -10.4100   -14.3900   -16.8000     2.1970     4.7500     4.800
     97     1.0000    -0.0000     6.5400    -0.0500      4.655     45.000  11001.000      5.000    98.9520   141.7955   -76.4090     0.4200    -1.0000    28.1520     0.0000     0.0000     6.0975    92.6060    -1.0000    -1.5000     0.0000     0.0000     0.0000     0.0000    17.0000     8.0000     8.0000    17.0000     0.0000     0.0000   142.0306   -75.9388     0.0000    -4.2998    -2.9995    -1.8994    -0.6005     0.4003     1.8994     2.7994     3.8002    31.3400    22.1100    13.8400     6.4800    -5.6200   -10.4100   -14.3900   -16.8000     2.1951     4.7500     4.800
     98     1.0000    -0.0000     6.5301    -0.0500      4.641     47.000  11001.000      5.000    98.9520   141.7955   -76.4090     0.4200    -1.0000    28.1520     0.0000     0.0000     6.0025    92.5010    -1.0000    -1.5000     0.0000     0.0000     0.0000     0.0000    17.0000     8.0000     8.0000    17.0000     0.0000     0.0000   142.0306   -75.9388     0.0000    -4.2998    -2.9995    -1.8994    -0.6005     0.4003     1.8994     2.7994     3.8002    31.3400    22.1100    13.8400     6.4800    -5.6200   -10.4100   -14.3900   -16.8000     2.1931     4.7500     4.800
     99     1.0000    -0.0000     6.5200    -0.0500      4.598     35.000  11001.000      5.000    98.9520   141.7955   -76.4090     0.4200    -1.0000    28.1520     0.0000     0.0000     5.9050    92.3961    -1.0000    -1.5000     0.0000     0.0000     0.0000     0.0000    17.0000     8.0000     8.0000    17.0000     0.0000     0.0000   142.0306   -75.9388     0.0000    -4.2998    -2.9995    -1.8994    -0.6005     0.4003     1.8994     2.7994     3.8002    31.3400    22.1100    13.8400     6.4800    -5.6200   -10.4100   -14.3900   -16.8000     2.1912     4.7500     4.800
    100     1.0000    -0.0000     6.5098    -0.0500      4.694     33.000  11001.000      5.000    98.9520   141.7955   -76.4090     0.4200    -1.0000    28.1520     0.0000     0.0000     5.8075    92.2914    -1.0000    -1.5000     0.0000     0.0000     0.0000     0.0000    17.0000     8.0000     8.0000    17.0000     0.0000     0.0000   142.0306   -75.9388     0.0000    -4.2998    -2.9995    -1.8994    -0.6005     0.4003     1.8994     2.7994     3.8002    31.3400    22.1100    13.8400     6.4800    -5.6200   -10.4100   -14.3900   -16.8000     2.1893     4.7500     4.800
    101     1.0000    -0.0000     6.5002    -0.0500      4.670     42.000  11001.000      5.000    98.9520   141.7955   -76.4090     0.4200    -1.0000    28.1520     0.0000     0.0000     5.7150    92.1870    -1.0000    -1.5000     0.0000     0.0000     0.0000     0.0000    17.0000     8.0000     8.0000    17.0000     0.0000     0.0000   142.0306   -75.9388     0.0000    -4.2998    -2.9995    -1.8994    -0.6005     0.4003     1.8994     2.7994     3.8002    31.3400    22.1100    13.8400     6.4800    -5.6200   -10.4100   -14.3900   -16.8000     2.1874     4.7500     4.800
# Sum of Counts = 54052
# Center of Mass = 7.035581+/-0.042798
# Full Width Half-Maximum = 0.176672+/-0.005658
# 3:27:21 PM  3/12/2025   scan completed.
