# scan = 154
# date = 3/11/2025
# time = 9:07:37 PM
# proposal = 35030
# experiment = CTAX Instrumental resolution benchmarking
# experiment_number = 445
# command = scan h 0 k 0 l 4 e -0.2 0.2 0.01 preset mcu 2
# builtin_command = scan h 0 k 0 l 4 e -0.2 0.2 0.01 preset mcu 2
# users = Tao Hong, Tao Hong, Bing Li
# local_contact = Tao Hong
# scan_title = (004) scans-hori-focusing
# monochromator = PG002
# analyzer = Pg002
# sense = -+-
# collimation = 48-40-40-120
# samplename = LaN
# sampletype = crystal
# samplemosaic = 30.000000
# latticeconstants = 5.058628,5.058628,24.728465,90.000000,90.000000,120.000000
# ubmatrix = -0.002928,0.001986,-0.040430,-0.228168,-0.119258,0.000500,-0.005924,0.194622,0.000719
# mode = 0
# plane_normal = 0.017452,-0.026173,0.999505
# ubconf = UB10Mar2025_114214AM.ini
# preset_type = normal 
# preset_channel = mcu
# preset_value = 2.000000
# def_x = e
# def_y = detector
# col_headers = 
#   Pt.          h          k          l          e       time   detector    monitor        mcu focal_length         m1         m2       marc     mtrans     mfocus   vti_temp  smpl_temp         s1         s2        sgl        sgu        bbb        bbl        bbr        bbt        bab        bal        bar        bat        stl        stu         a1         a2     afocus        qm1        qm2        qm3        qm4        qm5        qm6        qm7        qm8        xm1        xm2        xm3        xm4        xm5        xm6        xm7        xm8          q         ei         ef
      1     0.0000     0.0000     4.0000    -0.2000      1.901      6.000   4401.000      2.000   100.5558   141.0625   -77.8750     0.4200    -1.0000    27.8400     0.0000     0.0000    18.7450    39.4238    -1.0000    -1.5000     0.0000     0.0000     0.0000     0.0000    17.0000     8.0000     8.0000    17.0000     0.0000     0.0000   142.0306   -75.9388     0.0000    -4.2998    -2.9995    -1.8994    -0.6005     0.4003     1.8994     2.7994     3.8002    31.3400    22.1100    13.8400     6.4800    -5.6200   -10.4100   -14.3900   -16.8000     1.0163     4.6000     4.800
      2    -0.0000     0.0000     4.0000    -0.1900      1.917     11.000   4401.000      2.000   100.4515   141.1127   -77.7746     0.4200    -1.0000    27.8600     0.0000     0.0000    18.8225    39.4036    -1.0000    -1.5000     0.0000     0.0000     0.0000     0.0000    17.0000     8.0000     8.0000    17.0000     0.0000     0.0000   142.0306   -75.9388     0.0000    -4.2998    -2.9995    -1.8994    -0.6005     0.4003     1.8994     2.7994     3.8002    31.3400    22.1100    13.8400     6.4800    -5.6200   -10.4100   -14.3900   -16.8000     1.0163     4.6100     4.800
      3    -0.0000     0.0000     4.0000    -0.1800      1.871     11.000   4401.000      2.000   100.3473   141.1627   -77.6746     0.4200    -1.0000    27.8800     0.0000     0.0000    18.8975    39.3832    -1.0000    -1.5000     0.0000     0.0000     0.0000     0.0000    17.0000     8.0000     8.0000    17.0000     0.0000     0.0000   142.0306   -75.9388     0.0000    -4.2998    -2.9995    -1.8994    -0.6005     0.4003     1.8994     2.7994     3.8002    31.3400    22.1100    13.8400     6.4800    -5.6200   -10.4100   -14.3900   -16.8000     1.0163     4.6200     4.800
      4    -0.0000     0.0000     4.0000    -0.1700      1.876      5.000   4401.000      2.000   100.2226   141.2125   -77.5749     0.4200    -1.0000    27.9040     0.0000     0.0000    18.9750    39.3629    -1.0000    -1.5000     0.0000     0.0000     0.0000     0.0000    17.0000     8.0000     8.0000    17.0000     0.0000     0.0000   142.0306   -75.9388     0.0000    -4.2998    -2.9995    -1.8994    -0.6005     0.4003     1.8994     2.7994     3.8002    31.3400    22.1100    13.8400     6.4800    -5.6200   -10.4100   -14.3900   -16.8000     1.0163     4.6300     4.800
      5    -0.0001     0.0000     4.0000    -0.1600      1.906     17.000   4401.000      2.000   100.1190   141.2622   -77.4757     0.4200    -1.0000    27.9240     0.0000     0.0000    19.0525    39.3425    -1.0000    -1.5000     0.0000     0.0000     0.0000     0.0000    17.0000     8.0000     8.0000    17.0000     0.0000     0.0000   142.0306   -75.9388     0.0000    -4.2998    -2.9995    -1.8994    -0.6005     0.4003     1.8994     2.7994     3.8002    31.3400    22.1100    13.8400     6.4800    -5.6200   -10.4100   -14.3900   -16.8000     1.0163     4.6400     4.800
      6    -0.0000     0.0000     4.0000    -0.1500      1.904     16.000   4401.000      2.000   100.0155   141.3116   -77.3768     0.4200    -1.0000    27.9440     0.0000     0.0000    19.1250    39.3220    -1.0000    -1.5000     0.0000     0.0000     0.0000     0.0000    17.0000     8.0000     8.0000    17.0000     0.0000     0.0000   142.0306   -75.9388     0.0000    -4.2998    -2.9995    -1.8994    -0.6005     0.4003     1.8994     2.7994     3.8002    31.3400    22.1100    13.8400     6.4800    -5.6200   -10.4100   -14.3900   -16.8000     1.0163     4.6500     4.800
      7     0.0000     0.0000     4.0000    -0.1400      1.871     15.000   4401.000      2.000    99.9123   141.3608   -77.2783     0.4200    -1.0000    27.9640     0.0000     0.0000    19.1975    39.3015    -1.0000    -1.5000     0.0000     0.0000     0.0000     0.0000    17.0000     8.0000     8.0000    17.0000     0.0000     0.0000   142.0306   -75.9388     0.0000    -4.2998    -2.9995    -1.8994    -0.6005     0.4003     1.8994     2.7994     3.8002    31.3400    22.1100    13.8400     6.4800    -5.6200   -10.4100   -14.3900   -16.8000     1.0163     4.6600     4.800
      8    -0.0000     0.0000     4.0000    -0.1300      1.911     20.000   4401.000      2.000    99.8092   141.4099   -77.1802     0.4200    -1.0000    27.9840     0.0000     0.0000    19.2750    39.2810    -1.0000    -1.5000     0.0000     0.0000     0.0000     0.0000    17.0000     8.0000     8.0000    17.0000     0.0000     0.0000   142.0306   -75.9388     0.0000    -4.2998    -2.9995    -1.8994    -0.6005     0.4003     1.8994     2.7994     3.8002    31.3400    22.1100    13.8400     6.4800    -5.6200   -10.4100   -14.3900   -16.8000     1.0163     4.6700     4.800
      9     0.0000     0.0000     4.0000    -0.1200      1.874     23.000   4401.000      2.000    99.6859   141.4588   -77.0825     0.4200    -1.0000    28.0080     0.0000     0.0000    19.3475    39.2604    -1.0000    -1.5000     0.0000     0.0000     0.0000     0.0000    17.0000     8.0000     8.0000    17.0000     0.0000     0.0000   142.0306   -75.9388     0.0000    -4.2998    -2.9995    -1.8994    -0.6005     0.4003     1.8994     2.7994     3.8002    31.3400    22.1100    13.8400     6.4800    -5.6200   -10.4100   -14.3900   -16.8000     1.0163     4.6800     4.800
     10     0.0000     0.0000     4.0000    -0.1100      1.901     25.000   4401.000      2.000    99.5833   141.5074   -76.9852     0.4200    -1.0000    28.0280     0.0000     0.0000    19.4225    39.2397    -1.0000    -1.5000     0.0000     0.0000     0.0000     0.0000    17.0000     8.0000     8.0000    17.0000     0.0000     0.0000   142.0306   -75.9388     0.0000    -4.2998    -2.9995    -1.8994    -0.6005     0.4003     1.8994     2.7994     3.8002    31.3400    22.1100    13.8400     6.4800    -5.6200   -10.4100   -14.3900   -16.8000     1.0163     4.6900     4.800
     11    -0.0000     0.0000     4.0000    -0.1000      1.880     18.000   4401.000      2.000    99.4809   141.5559   -76.8882     0.4200    -1.0000    28.0480     0.0000     0.0000    19.5000    39.2190    -1.0000    -1.5000     0.0000     0.0000     0.0000     0.0000    17.0000     8.0000     8.0000    17.0000     0.0000     0.0000   142.0306   -75.9388     0.0000    -4.2998    -2.9995    -1.8994    -0.6005     0.4003     1.8994     2.7994     3.8002    31.3400    22.1100    13.8400     6.4800    -5.6200   -10.4100   -14.3900   -16.8000     1.0163     4.7000     4.800
     12     0.0000     0.0000     4.0000    -0.0900      1.939     26.000   4401.000      2.000    99.3788   141.6042   -76.7916     0.4200    -1.0000    28.0680     0.0000     0.0000    19.5725    39.1983    -1.0000    -1.5000     0.0000     0.0000     0.0000     0.0000    17.0000     8.0000     8.0000    17.0000     0.0000     0.0000   142.0306   -75.9388     0.0000    -4.2998    -2.9995    -1.8994    -0.6005     0.4003     1.8994     2.7994     3.8002    31.3400    22.1100    13.8400     6.4800    -5.6200   -10.4100   -14.3900   -16.8000     1.0163     4.7100     4.800
     13    -0.0000     0.0000     4.0000    -0.0800      1.873     28.000   4401.000      2.000    99.2768   141.6523   -76.6954     0.4200    -1.0000    28.0880     0.0000     0.0000    19.6475    39.1776    -1.0000    -1.5000     0.0000     0.0000     0.0000     0.0000    17.0000     8.0000     8.0000    17.0000     0.0000     0.0000   142.0306   -75.9388     0.0000    -4.2998    -2.9995    -1.8994    -0.6005     0.4003     1.8994     2.7994     3.8002    31.3400    22.1100    13.8400     6.4800    -5.6200   -10.4100   -14.3900   -16.8000     1.0163     4.7200     4.800
     14    -0.0000     0.0000     4.0000    -0.0700      1.922     21.000   4401.000      2.000    99.1548   141.7002   -76.5996     0.4200    -1.0000    28.1120     0.0000     0.0000    19.7225    39.1567    -1.0000    -1.5000     0.0000     0.0000     0.0000     0.0000    17.0000     8.0000     8.0000    17.0000     0.0000     0.0000   142.0306   -75.9388     0.0000    -4.2998    -2.9995    -1.8994    -0.6005     0.4003     1.8994     2.7994     3.8002    31.3400    22.1100    13.8400     6.4800    -5.6200   -10.4100   -14.3900   -16.8000     1.0163     4.7300     4.800
     15     0.0000     0.0000     4.0000    -0.0600      1.892     26.000   4401.000      2.000    99.0533   141.7480   -76.5041     0.4200    -1.0000    28.1320     0.0000     0.0000    19.7950    39.1359    -1.0000    -1.5000     0.0000     0.0000     0.0000     0.0000    17.0000     8.0000     8.0000    17.0000     0.0000     0.0000   142.0306   -75.9388     0.0000    -4.2998    -2.9995    -1.8994    -0.6005     0.4003     1.8994     2.7994     3.8002    31.3400    22.1100    13.8400     6.4800    -5.6200   -10.4100   -14.3900   -16.8000     1.0163     4.7400     4.800
     16    -0.0000     0.0000     4.0000    -0.0500      1.877     30.000   4401.000      2.000    98.9520   141.7955   -76.4089     0.4200    -1.0000    28.1520     0.0000     0.0000    19.8725    39.1150    -1.0000    -1.5000     0.0000     0.0000     0.0000     0.0000    17.0000     8.0000     8.0000    17.0000     0.0000     0.0000   142.0306   -75.9388     0.0000    -4.2998    -2.9995    -1.8994    -0.6005     0.4003     1.8994     2.7994     3.8002    31.3400    22.1100    13.8400     6.4800    -5.6200   -10.4100   -14.3900   -16.8000     1.0163     4.7500     4.800
     17    -0.0000     0.0000     4.0000    -0.0400      1.851    118.000   4401.000      2.000    98.8510   141.8429   -76.3142     0.4200    -1.0000    28.1720     0.0000     0.0000    19.9450    39.0940    -1.0000    -1.5000     0.0000     0.0000     0.0000     0.0000    17.0000     8.0000     8.0000    17.0000     0.0000     0.0000   142.0306   -75.9388     0.0000    -4.2998    -2.9995    -1.8994    -0.6005     0.4003     1.8994     2.7994     3.8002    31.3400    22.1100    13.8400     6.4800    -5.6200   -10.4100   -14.3900   -16.8000     1.0163     4.7600     4.800
     18    -0.0000     0.0000     4.0000    -0.0300      1.859    535.000   4401.000      2.000    98.7501   141.8901   -76.2198     0.4200    -1.0000    28.1920     0.0000     0.0000    20.0200    39.0730    -1.0000    -1.5000     0.0000     0.0000     0.0000     0.0000    17.0000     8.0000     8.0000    17.0000     0.0000     0.0000   142.0306   -75.9388     0.0000    -4.2998    -2.9995    -1.8994    -0.6005     0.4003     1.8994     2.7994     3.8002    31.3400    22.1100    13.8400     6.4800    -5.6200   -10.4100   -14.3900   -16.8000     1.0163     4.7700     4.800
     19    -0.0000     0.0000     4.0000    -0.0200      1.809   1515.000   4401.000      2.000    98.6495   141.9371   -76.1258     0.4200    -1.0000    28.2120     0.0000     0.0000    20.0925    39.0520    -1.0000    -1.5000     0.0000     0.0000     0.0000     0.0000    17.0000     8.0000     8.0000    17.0000     0.0000     0.0000   142.0306   -75.9388     0.0000    -4.2998    -2.9995    -1.8994    -0.6005     0.4003     1.8994     2.7994     3.8002    31.3400    22.1100    13.8400     6.4800    -5.6200   -10.4100   -14.3900   -16.8000     1.0163     4.7800     4.800
     20    -0.0000     0.0000     4.0000    -0.0100      1.862   2474.000   4401.000      2.000    98.5490   141.9840   -76.0321     0.4200    -1.0000    28.2320     0.0000     0.0000    20.1700    39.0309    -1.0000    -1.5000     0.0000     0.0000     0.0000     0.0000    17.0000     8.0000     8.0000    17.0000     0.0000     0.0000   142.0306   -75.9388     0.0000    -4.2998    -2.9995    -1.8994    -0.6005     0.4003     1.8994     2.7994     3.8002    31.3400    22.1100    13.8400     6.4800    -5.6200   -10.4100   -14.3900   -16.8000     1.0163     4.7900     4.800
     21    -0.0000     0.0000     4.0000     0.0000      1.851   2626.000   4401.000      2.000    98.4288   142.0306   -75.9387     0.4200    -1.0000    28.2560     0.0000     0.0000    20.2425    39.0098    -1.0000    -1.5000     0.0000     0.0000     0.0000     0.0000    17.0000     8.0000     8.0000    17.0000     0.0000     0.0000   142.0306   -75.9388     0.0000    -4.2998    -2.9995    -1.8994    -0.6005     0.4003     1.8994     2.7994     3.8002    31.3400    22.1100    13.8400     6.4800    -5.6200   -10.4100   -14.3900   -16.8000     1.0163     4.8000     4.800
     22     0.0000     0.0000     4.0000     0.0100      1.911   1940.000   4401.000      2.000    98.3288   142.0771   -75.8458     0.4200    -1.0000    28.2760     0.0000     0.0000    20.3125    38.9886    -1.0000    -1.5000     0.0000     0.0000     0.0000     0.0000    17.0000     8.0000     8.0000    17.0000     0.0000     0.0000   142.0306   -75.9388     0.0000    -4.2998    -2.9995    -1.8994    -0.6005     0.4003     1.8994     2.7994     3.8002    31.3400    22.1100    13.8400     6.4800    -5.6200   -10.4100   -14.3900   -16.8000     1.0163     4.8100     4.800
     23    -0.0000     0.0000     4.0000     0.0200      1.844    795.000   4401.000      2.000    98.2290   142.1234   -75.7531     0.4200    -1.0000    28.2960     0.0000     0.0000    20.3875    38.9674    -1.0000    -1.5000     0.0000     0.0000     0.0000     0.0000    17.0000     8.0000     8.0000    17.0000     0.0000     0.0000   142.0306   -75.9388     0.0000    -4.2998    -2.9995    -1.8994    -0.6005     0.4003     1.8994     2.7994     3.8002    31.3400    22.1100    13.8400     6.4800    -5.6200   -10.4100   -14.3900   -16.8000     1.0163     4.8200     4.800
     24     0.0000     0.0000     4.0000     0.0300      1.854    165.000   4401.000      2.000    98.1294   142.1696   -75.6608     0.4200    -1.0000    28.3160     0.0000     0.0000    20.4600    38.9462    -1.0000    -1.5000     0.0000     0.0000     0.0000     0.0000    17.0000     8.0000     8.0000    17.0000     0.0000     0.0000   142.0306   -75.9388     0.0000    -4.2998    -2.9995    -1.8994    -0.6005     0.4003     1.8994     2.7994     3.8002    31.3400    22.1100    13.8400     6.4800    -5.6200   -10.4100   -14.3900   -16.8000     1.0163     4.8300     4.800
     25    -0.0000     0.0000     4.0000     0.0400      1.909     38.000   4401.000      2.000    98.0300   142.2156   -75.5689     0.4200    -1.0000    28.3360     0.0000     0.0000    20.5350    38.9249    -1.0000    -1.5000     0.0000     0.0000     0.0000     0.0000    17.0000     8.0000     8.0000    17.0000     0.0000     0.0000   142.0306   -75.9388     0.0000    -4.2998    -2.9995    -1.8994    -0.6005     0.4003     1.8994     2.7994     3.8002    31.3400    22.1100    13.8400     6.4800    -5.6200   -10.4100   -14.3900   -16.8000     1.0163     4.8400     4.800
     26    -0.0000     0.0000     4.0000     0.0500      1.913     32.000   4401.000      2.000    97.9308   142.2614   -75.4773     0.4200    -1.0000    28.3560     0.0000     0.0000    20.6075    38.9036    -1.0000    -1.5000     0.0000     0.0000     0.0000     0.0000    17.0000     8.0000     8.0000    17.0000     0.0000     0.0000   142.0306   -75.9388     0.0000    -4.2998    -2.9995    -1.8994    -0.6005     0.4003     1.8994     2.7994     3.8002    31.3400    22.1100    13.8400     6.4800    -5.6200   -10.4100   -14.3900   -16.8000     1.0163     4.8500     4.800
     27    -0.0000     0.0000     4.0000     0.0600      1.881     34.000   4401.000      2.000    97.8318   142.3070   -75.3860     0.4200    -1.0000    28.3760     0.0000     0.0000    20.6825    38.8822    -1.0000    -1.5000     0.0000     0.0000     0.0000     0.0000    17.0000     8.0000     8.0000    17.0000     0.0000     0.0000   142.0306   -75.9388     0.0000    -4.2998    -2.9995    -1.8994    -0.6005     0.4003     1.8994     2.7994     3.8002    31.3400    22.1100    13.8400     6.4800    -5.6200   -10.4100   -14.3900   -16.8000     1.0163     4.8600     4.800
     28    -0.0000     0.0000     4.0000     0.0700      1.892     22.000   4401.000      2.000    97.7330   142.3524   -75.2951     0.4200    -1.0000    28.3960     0.0000     0.0000    20.7550    38.8608    -1.0000    -1.5000     0.0000     0.0000     0.0000     0.0000    17.0000     8.0000     8.0000    17.0000     0.0000     0.0000   142.0306   -75.9388     0.0000    -4.2998    -2.9995    -1.8994    -0.6005     0.4003     1.8994     2.7994     3.8002    31.3400    22.1100    13.8400     6.4800    -5.6200   -10.4100   -14.3900   -16.8000     1.0163     4.8700     4.800
     29     0.0000     0.0000     4.0000     0.0800      1.875     24.000   4401.000      2.000    97.6344   142.3978   -75.2045     0.4200    -1.0000    28.4160     0.0000     0.0000    20.8250    38.8393    -1.0000    -1.5000     0.0000     0.0000     0.0000     0.0000    17.0000     8.0000     8.0000    17.0000     0.0000     0.0000   142.0306   -75.9388     0.0000    -4.2998    -2.9995    -1.8994    -0.6005     0.4003     1.8994     2.7994     3.8002    31.3400    22.1100    13.8400     6.4800    -5.6200   -10.4100   -14.3900   -16.8000     1.0163     4.8800     4.800
     30    -0.0000     0.0000     4.0000     0.0900      1.965     34.000   4401.000      2.000    97.5360   142.4429   -75.1142     0.4200    -1.0000    28.4360     0.0000     0.0000    20.9025    38.8178    -1.0000    -1.5000     0.0000     0.0000     0.0000     0.0000    17.0000     8.0000     8.0000    17.0000     0.0000     0.0000   142.0306   -75.9388     0.0000    -4.2998    -2.9995    -1.8994    -0.6005     0.4003     1.8994     2.7994     3.8002    31.3400    22.1100    13.8400     6.4800    -5.6200   -10.4100   -14.3900   -16.8000     1.0163     4.8900     4.800
     31    -0.0000     0.0000     4.0000     0.1000      1.987     22.000   4401.000      2.000    97.4378   142.4878   -75.0243     0.4200    -1.0000    28.4560     0.0000     0.0000    20.9725    38.7963    -1.0000    -1.5000     0.0000     0.0000     0.0000     0.0000    17.0000     8.0000     8.0000    17.0000     0.0000     0.0000   142.0306   -75.9388     0.0000    -4.2998    -2.9995    -1.8994    -0.6005     0.4003     1.8994     2.7994     3.8002    31.3400    22.1100    13.8400     6.4800    -5.6200   -10.4100   -14.3900   -16.8000     1.0163     4.9000     4.800
     32    -0.0000     0.0000     4.0000     0.1100      1.943     16.000   4401.000      2.000    97.3203   142.5326   -74.9347     0.4200    -1.0000    28.4800     0.0000     0.0000    21.0450    38.7747    -1.0000    -1.5000     0.0000     0.0000     0.0000     0.0000    17.0000     8.0000     8.0000    17.0000     0.0000     0.0000   142.0306   -75.9388     0.0000    -4.2998    -2.9995    -1.8994    -0.6005     0.4003     1.8994     2.7994     3.8002    31.3400    22.1100    13.8400     6.4800    -5.6200   -10.4100   -14.3900   -16.8000     1.0163     4.9100     4.800
     33    -0.0000     0.0000     4.0000     0.1200      1.982     26.000   4401.000      2.000    97.2225   142.5773   -74.8455     0.4200    -1.0000    28.5000     0.0000     0.0000    21.1175    38.7531    -1.0000    -1.5000     0.0000     0.0000     0.0000     0.0000    17.0000     8.0000     8.0000    17.0000     0.0000     0.0000   142.0306   -75.9388     0.0000    -4.2998    -2.9995    -1.8994    -0.6005     0.4003     1.8994     2.7994     3.8002    31.3400    22.1100    13.8400     6.4800    -5.6200   -10.4100   -14.3900   -16.8000     1.0163     4.9200     4.800
     34    -0.0000     0.0000     4.0000     0.1300      1.939     16.000   4401.000      2.000    97.1249   142.6218   -74.7565     0.4200    -1.0000    28.5200     0.0000     0.0000    21.1925    38.7315    -1.0000    -1.5000     0.0000     0.0000     0.0000     0.0000    17.0000     8.0000     8.0000    17.0000     0.0000     0.0000   142.0306   -75.9388     0.0000    -4.2998    -2.9995    -1.8994    -0.6005     0.4003     1.8994     2.7994     3.8002    31.3400    22.1100    13.8400     6.4800    -5.6200   -10.4100   -14.3900   -16.8000     1.0163     4.9300     4.800
     35    -0.0000     0.0000     4.0000     0.1400      2.032     13.000   4401.000      2.000    97.0276   142.6660   -74.6679     0.4200    -1.0000    28.5400     0.0000     0.0000    21.2625    38.7098    -1.0000    -1.5000     0.0000     0.0000     0.0000     0.0000    17.0000     8.0000     8.0000    17.0000     0.0000     0.0000   142.0306   -75.9388     0.0000    -4.2998    -2.9995    -1.8994    -0.6005     0.4003     1.8994     2.7994     3.8002    31.3400    22.1100    13.8400     6.4800    -5.6200   -10.4100   -14.3900   -16.8000     1.0163     4.9400     4.800
     36    -0.0000     0.0000     4.0000     0.1500      2.018      7.000   4401.000      2.000    96.9304   142.7102   -74.5796     0.4200    -1.0000    28.5600     0.0000     0.0000    21.3350    38.6880    -1.0000    -1.5000     0.0000     0.0000     0.0000     0.0000    17.0000     8.0000     8.0000    17.0000     0.0000     0.0000   142.0306   -75.9388     0.0000    -4.2998    -2.9995    -1.8994    -0.6005     0.4003     1.8994     2.7994     3.8002    31.3400    22.1100    13.8400     6.4800    -5.6200   -10.4100   -14.3900   -16.8000     1.0163     4.9500     4.800
     37    -0.0000     0.0000     4.0000     0.1600      2.045     16.000   4401.000      2.000    96.8334   142.7542   -74.4916     0.4200    -1.0000    28.5800     0.0000     0.0000    21.4075    38.6663    -1.0000    -1.5000     0.0000     0.0000     0.0000     0.0000    17.0000     8.0000     8.0000    17.0000     0.0000     0.0000   142.0306   -75.9388     0.0000    -4.2998    -2.9995    -1.8994    -0.6005     0.4003     1.8994     2.7994     3.8002    31.3400    22.1100    13.8400     6.4800    -5.6200   -10.4100   -14.3900   -16.8000     1.0163     4.9600     4.800
     38    -0.0000     0.0000     4.0000     0.1700      2.060     14.000   4401.000      2.000    96.7366   142.7980   -74.4039     0.4200    -1.0000    28.6000     0.0000     0.0000    21.4800    38.6444    -1.0000    -1.5000     0.0000     0.0000     0.0000     0.0000    17.0000     8.0000     8.0000    17.0000     0.0000     0.0000   142.0306   -75.9388     0.0000    -4.2998    -2.9995    -1.8994    -0.6005     0.4003     1.8994     2.7994     3.8002    31.3400    22.1100    13.8400     6.4800    -5.6200   -10.4100   -14.3900   -16.8000     1.0163     4.9700     4.800
     39     0.0000     0.0000     4.0000     0.1800      2.078      8.000   4401.000      2.000    96.6400   142.8417   -74.3166     0.4200    -1.0000    28.6200     0.0000     0.0000    21.5500    38.6226    -1.0000    -1.5000     0.0000     0.0000     0.0000     0.0000    17.0000     8.0000     8.0000    17.0000     0.0000     0.0000   142.0306   -75.9388     0.0000    -4.2998    -2.9995    -1.8994    -0.6005     0.4003     1.8994     2.7994     3.8002    31.3400    22.1100    13.8400     6.4800    -5.6200   -10.4100   -14.3900   -16.8000     1.0163     4.9800     4.800
     40     0.0000     0.0000     4.0000     0.1900      2.086      8.000   4401.000      2.000    96.5436   142.8852   -74.2295     0.4200    -1.0000    28.6400     0.0000     0.0000    21.6225    38.6007    -1.0000    -1.5000     0.0000     0.0000     0.0000     0.0000    17.0000     8.0000     8.0000    17.0000     0.0000     0.0000   142.0306   -75.9388     0.0000    -4.2998    -2.9995    -1.8994    -0.6005     0.4003     1.8994     2.7994     3.8002    31.3400    22.1100    13.8400     6.4800    -5.6200   -10.4100   -14.3900   -16.8000     1.0163     4.9900     4.800
     41    -0.0000     0.0000     4.0000     0.2000      2.034      5.000   4401.000      2.000    96.4474   142.9286   -74.1428     0.4200    -1.0000    28.6600     0.0000     0.0000    21.6950    38.5788    -1.0000    -1.5000     0.0000     0.0000     0.0000     0.0000    17.0000     8.0000     8.0000    17.0000     0.0000     0.0000   142.0306   -75.9388     0.0000    -4.2998    -2.9995    -1.8994    -0.6005     0.4003     1.8994     2.7994     3.8002    31.3400    22.1100    13.8400     6.4800    -5.6200   -10.4100   -14.3900   -16.8000     1.0163     5.0000     4.800
# Sum of Counts = 10801
# Center of Mass = -0.003269+/-0.000295
# Full Width Half-Maximum = 0.060678+/-0.001266
# 9:13:04 PM  3/11/2025   scan completed.
