# scan = 207
# date = 3/12/2025
# time = 10:27:15 AM
# proposal = 35030
# experiment = CTAX Instrumental resolution benchmarking
# experiment_number = 445
# command = scan h 1.2 0.8 0.002 k 0 l 7 e 0.15 preset mcu 5
# builtin_command = scan h 1.2 0.8 0.002 k 0 l 7 e 0.15 preset mcu 5
# users = Tao Hong, Tao Hong, Bing Li
# local_contact = Tao Hong
# scan_title = (H07) scan at E=0.15 meV and hori-focusing
# monochromator = PG002
# analyzer = Pg002
# sense = -+-
# collimation = 48-40-40-120
# samplename = LaN
# sampletype = crystal
# samplemosaic = 30.000000
# latticeconstants = 5.058628,5.058628,24.728465,90.000000,90.000000,120.000000
# ubmatrix = -0.002928,0.001986,-0.040430,-0.228168,-0.119258,0.000500,-0.005924,0.194622,0.000719
# mode = 0
# plane_normal = 0.017452,-0.026173,0.999505
# ubconf = UB10Mar2025_114214AM.ini
# preset_type = normal 
# preset_channel = mcu
# preset_value = 5.000000
# def_x = h
# def_y = detector
# col_headers = 
#   Pt.          h          k          l          e       time   detector    monitor        mcu focal_length         m1         m2       marc     mtrans     mfocus   vti_temp  smpl_temp         s1         s2        sgl        sgu        bbb        bbl        bbr        bbt        bab        bal        bar        bat        stl        stu         a1         a2     afocus        qm1        qm2        qm3        qm4        qm5        qm6        qm7        qm8        xm1        xm2        xm3        xm4        xm5        xm6        xm7        xm8          q         ei         ef
      1     1.2000    -0.0000     7.0000     0.1500      5.080     18.000  11001.000      5.000    96.9304   142.7102   -74.5796     0.4200    -1.0000    28.5600     0.0000     0.0000    10.7850   107.5698    -1.0000    -1.5000     0.0000     0.0000     0.0000     0.0000    17.0000     8.0000     8.0000    17.0000     0.0000     0.0000   142.0306   -75.9388     0.0000    -4.2998    -2.9995    -1.8994    -0.6005     0.4003     1.8994     2.7994     3.8002    31.3400    22.1100    13.8400     6.4800    -5.6200   -10.4100   -14.3900   -16.8000     2.4750     4.9500     4.800
      2     1.1979    -0.0000     7.0003     0.1500      5.012     16.000  11001.000      5.000    96.9304   142.7102   -74.5796     0.4200    -1.0000    28.5600     0.0000     0.0000    10.7725   107.4438    -1.0000    -1.5000     0.0000     0.0000     0.0000     0.0000    17.0000     8.0000     8.0000    17.0000     0.0000     0.0000   142.0306   -75.9388     0.0000    -4.2998    -2.9995    -1.8994    -0.6005     0.4003     1.8994     2.7994     3.8002    31.3400    22.1100    13.8400     6.4800    -5.6200   -10.4100   -14.3900   -16.8000     2.4730     4.9500     4.800
      3     1.1960    -0.0000     6.9999     0.1500      5.123     25.000  11001.000      5.000    96.9304   142.7102   -74.5796     0.4200    -1.0000    28.5600     0.0000     0.0000    10.7550   107.3181    -1.0000    -1.5000     0.0000     0.0000     0.0000     0.0000    17.0000     8.0000     8.0000    17.0000     0.0000     0.0000   142.0306   -75.9388     0.0000    -4.2998    -2.9995    -1.8994    -0.6005     0.4003     1.8994     2.7994     3.8002    31.3400    22.1100    13.8400     6.4800    -5.6200   -10.4100   -14.3900   -16.8000     2.4710     4.9500     4.800
      4     1.1940    -0.0000     7.0001     0.1500      5.022     15.000  11001.000      5.000    96.9304   142.7102   -74.5796     0.4200    -1.0000    28.5600     0.0000     0.0000    10.7425   107.1927    -1.0000    -1.5000     0.0000     0.0000     0.0000     0.0000    17.0000     8.0000     8.0000    17.0000     0.0000     0.0000   142.0306   -75.9388     0.0000    -4.2998    -2.9995    -1.8994    -0.6005     0.4003     1.8994     2.7994     3.8002    31.3400    22.1100    13.8400     6.4800    -5.6200   -10.4100   -14.3900   -16.8000     2.4690     4.9500     4.800
      5     1.1920    -0.0000     6.9999     0.1500      5.064     23.000  11001.000      5.000    96.9304   142.7102   -74.5796     0.4200    -1.0000    28.5600     0.0000     0.0000    10.7275   107.0676    -1.0000    -1.5000     0.0000     0.0000     0.0000     0.0000    17.0000     8.0000     8.0000    17.0000     0.0000     0.0000   142.0306   -75.9388     0.0000    -4.2998    -2.9995    -1.8994    -0.6005     0.4003     1.8994     2.7994     3.8002    31.3400    22.1100    13.8400     6.4800    -5.6200   -10.4100   -14.3900   -16.8000     2.4670     4.9500     4.800
      6     1.1900    -0.0000     7.0001     0.1500      5.043     21.000  11001.000      5.000    96.9304   142.7102   -74.5796     0.4200    -1.0000    28.5600     0.0000     0.0000    10.7150   106.9428    -1.0000    -1.5000     0.0000     0.0000     0.0000     0.0000    17.0000     8.0000     8.0000    17.0000     0.0000     0.0000   142.0306   -75.9388     0.0000    -4.2998    -2.9995    -1.8994    -0.6005     0.4003     1.8994     2.7994     3.8002    31.3400    22.1100    13.8400     6.4800    -5.6200   -10.4100   -14.3900   -16.8000     2.4650     4.9500     4.800
      7     1.1880    -0.0000     7.0002     0.1500      5.011     18.000  11001.000      5.000    96.9304   142.7102   -74.5796     0.4200    -1.0000    28.5600     0.0000     0.0000    10.7025   106.8183    -1.0000    -1.5000     0.0000     0.0000     0.0000     0.0000    17.0000     8.0000     8.0000    17.0000     0.0000     0.0000   142.0306   -75.9388     0.0000    -4.2998    -2.9995    -1.8994    -0.6005     0.4003     1.8994     2.7994     3.8002    31.3400    22.1100    13.8400     6.4800    -5.6200   -10.4100   -14.3900   -16.8000     2.4630     4.9500     4.800
      8     1.1860    -0.0000     6.9999     0.1500      5.000     27.000  11001.000      5.000    96.9304   142.7102   -74.5796     0.4200    -1.0000    28.5600     0.0000     0.0000    10.6875   106.6941    -1.0000    -1.5000     0.0000     0.0000     0.0000     0.0000    17.0000     8.0000     8.0000    17.0000     0.0000     0.0000   142.0306   -75.9388     0.0000    -4.2998    -2.9995    -1.8994    -0.6005     0.4003     1.8994     2.7994     3.8002    31.3400    22.1100    13.8400     6.4800    -5.6200   -10.4100   -14.3900   -16.8000     2.4611     4.9500     4.800
      9     1.1840    -0.0000     7.0000     0.1500      5.141     20.000  11001.000      5.000    96.9304   142.7102   -74.5796     0.4200    -1.0000    28.5600     0.0000     0.0000    10.6750   106.5702    -1.0000    -1.5000     0.0000     0.0000     0.0000     0.0000    17.0000     8.0000     8.0000    17.0000     0.0000     0.0000   142.0306   -75.9388     0.0000    -4.2998    -2.9995    -1.8994    -0.6005     0.4003     1.8994     2.7994     3.8002    31.3400    22.1100    13.8400     6.4800    -5.6200   -10.4100   -14.3900   -16.8000     2.4591     4.9500     4.800
     10     1.1820    -0.0000     7.0000     0.1500      5.047     24.000  11001.000      5.000    96.9304   142.7102   -74.5796     0.4200    -1.0000    28.5600     0.0000     0.0000    10.6625   106.4465    -1.0000    -1.5000     0.0000     0.0000     0.0000     0.0000    17.0000     8.0000     8.0000    17.0000     0.0000     0.0000   142.0306   -75.9388     0.0000    -4.2998    -2.9995    -1.8994    -0.6005     0.4003     1.8994     2.7994     3.8002    31.3400    22.1100    13.8400     6.4800    -5.6200   -10.4100   -14.3900   -16.8000     2.4571     4.9500     4.800
     11     1.1800    -0.0000     7.0000     0.1500      5.099     26.000  11001.000      5.000    96.9304   142.7102   -74.5796     0.4200    -1.0000    28.5600     0.0000     0.0000    10.6500   106.3232    -1.0000    -1.5000     0.0000     0.0000     0.0000     0.0000    17.0000     8.0000     8.0000    17.0000     0.0000     0.0000   142.0306   -75.9388     0.0000    -4.2998    -2.9995    -1.8994    -0.6005     0.4003     1.8994     2.7994     3.8002    31.3400    22.1100    13.8400     6.4800    -5.6200   -10.4100   -14.3900   -16.8000     2.4551     4.9500     4.800
     12     1.1780    -0.0000     7.0000     0.1500      5.033     22.000  11001.000      5.000    96.9304   142.7102   -74.5796     0.4200    -1.0000    28.5600     0.0000     0.0000    10.6375   106.2001    -1.0000    -1.5000     0.0000     0.0000     0.0000     0.0000    17.0000     8.0000     8.0000    17.0000     0.0000     0.0000   142.0306   -75.9388     0.0000    -4.2998    -2.9995    -1.8994    -0.6005     0.4003     1.8994     2.7994     3.8002    31.3400    22.1100    13.8400     6.4800    -5.6200   -10.4100   -14.3900   -16.8000     2.4531     4.9500     4.800
     13     1.1760    -0.0000     6.9999     0.1500      5.099     21.000  11001.000      5.000    96.9304   142.7102   -74.5796     0.4200    -1.0000    28.5600     0.0000     0.0000    10.6250   106.0774    -1.0000    -1.5000     0.0000     0.0000     0.0000     0.0000    17.0000     8.0000     8.0000    17.0000     0.0000     0.0000   142.0306   -75.9388     0.0000    -4.2998    -2.9995    -1.8994    -0.6005     0.4003     1.8994     2.7994     3.8002    31.3400    22.1100    13.8400     6.4800    -5.6200   -10.4100   -14.3900   -16.8000     2.4512     4.9500     4.800
     14     1.1740    -0.0000     7.0001     0.1500      5.050     28.000  11001.000      5.000    96.9304   142.7102   -74.5796     0.4200    -1.0000    28.5600     0.0000     0.0000    10.6150   105.9548    -1.0000    -1.5000     0.0000     0.0000     0.0000     0.0000    17.0000     8.0000     8.0000    17.0000     0.0000     0.0000   142.0306   -75.9388     0.0000    -4.2998    -2.9995    -1.8994    -0.6005     0.4003     1.8994     2.7994     3.8002    31.3400    22.1100    13.8400     6.4800    -5.6200   -10.4100   -14.3900   -16.8000     2.4492     4.9500     4.800
     15     1.1720    -0.0000     7.0000     0.1500      5.113     19.000  11001.000      5.000    96.9304   142.7102   -74.5796     0.4200    -1.0000    28.5600     0.0000     0.0000    10.6025   105.8326    -1.0000    -1.5000     0.0000     0.0000     0.0000     0.0000    17.0000     8.0000     8.0000    17.0000     0.0000     0.0000   142.0306   -75.9388     0.0000    -4.2998    -2.9995    -1.8994    -0.6005     0.4003     1.8994     2.7994     3.8002    31.3400    22.1100    13.8400     6.4800    -5.6200   -10.4100   -14.3900   -16.8000     2.4472     4.9500     4.800
     16     1.1700    -0.0000     6.9999     0.1500      5.105     25.000  11001.000      5.000    96.9304   142.7102   -74.5796     0.4200    -1.0000    28.5600     0.0000     0.0000    10.5900   105.7107    -1.0000    -1.5000     0.0000     0.0000     0.0000     0.0000    17.0000     8.0000     8.0000    17.0000     0.0000     0.0000   142.0306   -75.9388     0.0000    -4.2998    -2.9995    -1.8994    -0.6005     0.4003     1.8994     2.7994     3.8002    31.3400    22.1100    13.8400     6.4800    -5.6200   -10.4100   -14.3900   -16.8000     2.4453     4.9500     4.800
     17     1.1680    -0.0000     7.0000     0.1500      5.100     17.000  11001.000      5.000    96.9304   142.7102   -74.5796     0.4200    -1.0000    28.5600     0.0000     0.0000    10.5800   105.5891    -1.0000    -1.5000     0.0000     0.0000     0.0000     0.0000    17.0000     8.0000     8.0000    17.0000     0.0000     0.0000   142.0306   -75.9388     0.0000    -4.2998    -2.9995    -1.8994    -0.6005     0.4003     1.8994     2.7994     3.8002    31.3400    22.1100    13.8400     6.4800    -5.6200   -10.4100   -14.3900   -16.8000     2.4433     4.9500     4.800
     18     1.1660    -0.0000     6.9999     0.1500      5.036     18.000  11001.000      5.000    96.9304   142.7102   -74.5796     0.4200    -1.0000    28.5600     0.0000     0.0000    10.5675   105.4677    -1.0000    -1.5000     0.0000     0.0000     0.0000     0.0000    17.0000     8.0000     8.0000    17.0000     0.0000     0.0000   142.0306   -75.9388     0.0000    -4.2998    -2.9995    -1.8994    -0.6005     0.4003     1.8994     2.7994     3.8002    31.3400    22.1100    13.8400     6.4800    -5.6200   -10.4100   -14.3900   -16.8000     2.4413     4.9500     4.800
     19     1.1640    -0.0000     7.0002     0.1500      5.010     27.000  11001.000      5.000    96.9304   142.7102   -74.5796     0.4200    -1.0000    28.5600     0.0000     0.0000    10.5600   105.3466    -1.0000    -1.5000     0.0000     0.0000     0.0000     0.0000    17.0000     8.0000     8.0000    17.0000     0.0000     0.0000   142.0306   -75.9388     0.0000    -4.2998    -2.9995    -1.8994    -0.6005     0.4003     1.8994     2.7994     3.8002    31.3400    22.1100    13.8400     6.4800    -5.6200   -10.4100   -14.3900   -16.8000     2.4394     4.9500     4.800
     20     1.1621    -0.0000     6.9997     0.1500      5.061     16.000  11001.000      5.000    96.9304   142.7102   -74.5796     0.4200    -1.0000    28.5600     0.0000     0.0000    10.5450   105.2258    -1.0000    -1.5000     0.0000     0.0000     0.0000     0.0000    17.0000     8.0000     8.0000    17.0000     0.0000     0.0000   142.0306   -75.9388     0.0000    -4.2998    -2.9995    -1.8994    -0.6005     0.4003     1.8994     2.7994     3.8002    31.3400    22.1100    13.8400     6.4800    -5.6200   -10.4100   -14.3900   -16.8000     2.4374     4.9500     4.800
     21     1.1599    -0.0000     7.0003     0.1500      5.044     17.000  11001.000      5.000    96.9304   142.7102   -74.5796     0.4200    -1.0000    28.5600     0.0000     0.0000    10.5400   105.1053    -1.0000    -1.5000     0.0000     0.0000     0.0000     0.0000    17.0000     8.0000     8.0000    17.0000     0.0000     0.0000   142.0306   -75.9388     0.0000    -4.2998    -2.9995    -1.8994    -0.6005     0.4003     1.8994     2.7994     3.8002    31.3400    22.1100    13.8400     6.4800    -5.6200   -10.4100   -14.3900   -16.8000     2.4354     4.9500     4.800
     22     1.1580    -0.0000     7.0000     0.1500      5.051     23.000  11001.000      5.000    96.9304   142.7102   -74.5796     0.4200    -1.0000    28.5600     0.0000     0.0000    10.5275   104.9850    -1.0000    -1.5000     0.0000     0.0000     0.0000     0.0000    17.0000     8.0000     8.0000    17.0000     0.0000     0.0000   142.0306   -75.9388     0.0000    -4.2998    -2.9995    -1.8994    -0.6005     0.4003     1.8994     2.7994     3.8002    31.3400    22.1100    13.8400     6.4800    -5.6200   -10.4100   -14.3900   -16.8000     2.4335     4.9500     4.800
     23     1.1560    -0.0000     7.0000     0.1500      4.981     20.000  11001.000      5.000    96.9304   142.7102   -74.5796     0.4200    -1.0000    28.5600     0.0000     0.0000    10.5175   104.8650    -1.0000    -1.5000     0.0000     0.0000     0.0000     0.0000    17.0000     8.0000     8.0000    17.0000     0.0000     0.0000   142.0306   -75.9388     0.0000    -4.2998    -2.9995    -1.8994    -0.6005     0.4003     1.8994     2.7994     3.8002    31.3400    22.1100    13.8400     6.4800    -5.6200   -10.4100   -14.3900   -16.8000     2.4315     4.9500     4.800
     24     1.1540    -0.0000     7.0000     0.1500      5.142     25.000  11001.000      5.000    96.9304   142.7102   -74.5796     0.4200    -1.0000    28.5600     0.0000     0.0000    10.5075   104.7453    -1.0000    -1.5000     0.0000     0.0000     0.0000     0.0000    17.0000     8.0000     8.0000    17.0000     0.0000     0.0000   142.0306   -75.9388     0.0000    -4.2998    -2.9995    -1.8994    -0.6005     0.4003     1.8994     2.7994     3.8002    31.3400    22.1100    13.8400     6.4800    -5.6200   -10.4100   -14.3900   -16.8000     2.4296     4.9500     4.800
     25     1.1520    -0.0000     7.0002     0.1500      5.003     23.000  11001.000      5.000    96.9304   142.7102   -74.5796     0.4200    -1.0000    28.5600     0.0000     0.0000    10.5000   104.6259    -1.0000    -1.5000     0.0000     0.0000     0.0000     0.0000    17.0000     8.0000     8.0000    17.0000     0.0000     0.0000   142.0306   -75.9388     0.0000    -4.2998    -2.9995    -1.8994    -0.6005     0.4003     1.8994     2.7994     3.8002    31.3400    22.1100    13.8400     6.4800    -5.6200   -10.4100   -14.3900   -16.8000     2.4276     4.9500     4.800
     26     1.1500    -0.0000     6.9998     0.1500      5.076     29.000  11001.000      5.000    96.9304   142.7102   -74.5796     0.4200    -1.0000    28.5600     0.0000     0.0000    10.4875   104.5067    -1.0000    -1.5000     0.0000     0.0000     0.0000     0.0000    17.0000     8.0000     8.0000    17.0000     0.0000     0.0000   142.0306   -75.9388     0.0000    -4.2998    -2.9995    -1.8994    -0.6005     0.4003     1.8994     2.7994     3.8002    31.3400    22.1100    13.8400     6.4800    -5.6200   -10.4100   -14.3900   -16.8000     2.4257     4.9500     4.800
     27     1.1480    -0.0000     7.0000     0.1500      5.109     22.000  11001.000      5.000    96.9304   142.7102   -74.5796     0.4200    -1.0000    28.5600     0.0000     0.0000    10.4800   104.3878    -1.0000    -1.5000     0.0000     0.0000     0.0000     0.0000    17.0000     8.0000     8.0000    17.0000     0.0000     0.0000   142.0306   -75.9388     0.0000    -4.2998    -2.9995    -1.8994    -0.6005     0.4003     1.8994     2.7994     3.8002    31.3400    22.1100    13.8400     6.4800    -5.6200   -10.4100   -14.3900   -16.8000     2.4237     4.9500     4.800
     28     1.1460    -0.0000     6.9999     0.1500      5.088     27.000  11001.000      5.000    96.9304   142.7102   -74.5796     0.4200    -1.0000    28.5600     0.0000     0.0000    10.4700   104.2692    -1.0000    -1.5000     0.0000     0.0000     0.0000     0.0000    17.0000     8.0000     8.0000    17.0000     0.0000     0.0000   142.0306   -75.9388     0.0000    -4.2998    -2.9995    -1.8994    -0.6005     0.4003     1.8994     2.7994     3.8002    31.3400    22.1100    13.8400     6.4800    -5.6200   -10.4100   -14.3900   -16.8000     2.4218     4.9500     4.800
     29     1.1439    -0.0000     7.0003     0.1500      5.072     22.000  11001.000      5.000    96.9304   142.7102   -74.5796     0.4200    -1.0000    28.5600     0.0000     0.0000    10.4650   104.1509    -1.0000    -1.5000     0.0000     0.0000     0.0000     0.0000    17.0000     8.0000     8.0000    17.0000     0.0000     0.0000   142.0306   -75.9388     0.0000    -4.2998    -2.9995    -1.8994    -0.6005     0.4003     1.8994     2.7994     3.8002    31.3400    22.1100    13.8400     6.4800    -5.6200   -10.4100   -14.3900   -16.8000     2.4198     4.9500     4.800
     30     1.1420    -0.0000     6.9998     0.1500      5.099     15.000  11001.000      5.000    96.9304   142.7102   -74.5796     0.4200    -1.0000    28.5600     0.0000     0.0000    10.4525   104.0328    -1.0000    -1.5000     0.0000     0.0000     0.0000     0.0000    17.0000     8.0000     8.0000    17.0000     0.0000     0.0000   142.0306   -75.9388     0.0000    -4.2998    -2.9995    -1.8994    -0.6005     0.4003     1.8994     2.7994     3.8002    31.3400    22.1100    13.8400     6.4800    -5.6200   -10.4100   -14.3900   -16.8000     2.4179     4.9500     4.800
     31     1.1400    -0.0000     7.0001     0.1500      5.039     23.000  11001.000      5.000    96.9304   142.7102   -74.5796     0.4200    -1.0000    28.5600     0.0000     0.0000    10.4475   103.9150    -1.0000    -1.5000     0.0000     0.0000     0.0000     0.0000    17.0000     8.0000     8.0000    17.0000     0.0000     0.0000   142.0306   -75.9388     0.0000    -4.2998    -2.9995    -1.8994    -0.6005     0.4003     1.8994     2.7994     3.8002    31.3400    22.1100    13.8400     6.4800    -5.6200   -10.4100   -14.3900   -16.8000     2.4159     4.9500     4.800
     32     1.1380    -0.0000     6.9999     0.1500      4.991     30.000  11001.000      5.000    96.9304   142.7102   -74.5796     0.4200    -1.0000    28.5600     0.0000     0.0000    10.4375   103.7974    -1.0000    -1.5000     0.0000     0.0000     0.0000     0.0000    17.0000     8.0000     8.0000    17.0000     0.0000     0.0000   142.0306   -75.9388     0.0000    -4.2998    -2.9995    -1.8994    -0.6005     0.4003     1.8994     2.7994     3.8002    31.3400    22.1100    13.8400     6.4800    -5.6200   -10.4100   -14.3900   -16.8000     2.4140     4.9500     4.800
     33     1.1360    -0.0000     6.9999     0.1500      5.073     23.000  11001.000      5.000    96.9304   142.7102   -74.5796     0.4200    -1.0000    28.5600     0.0000     0.0000    10.4300   103.6801    -1.0000    -1.5000     0.0000     0.0000     0.0000     0.0000    17.0000     8.0000     8.0000    17.0000     0.0000     0.0000   142.0306   -75.9388     0.0000    -4.2998    -2.9995    -1.8994    -0.6005     0.4003     1.8994     2.7994     3.8002    31.3400    22.1100    13.8400     6.4800    -5.6200   -10.4100   -14.3900   -16.8000     2.4121     4.9500     4.800
     34     1.1340    -0.0000     7.0002     0.1500      5.028     22.000  11001.000      5.000    96.9304   142.7102   -74.5796     0.4200    -1.0000    28.5600     0.0000     0.0000    10.4250   103.5631    -1.0000    -1.5000     0.0000     0.0000     0.0000     0.0000    17.0000     8.0000     8.0000    17.0000     0.0000     0.0000   142.0306   -75.9388     0.0000    -4.2998    -2.9995    -1.8994    -0.6005     0.4003     1.8994     2.7994     3.8002    31.3400    22.1100    13.8400     6.4800    -5.6200   -10.4100   -14.3900   -16.8000     2.4101     4.9500     4.800
     35     1.1320    -0.0000     6.9999     0.1500      5.157     22.000  11001.000      5.000    96.9304   142.7102   -74.5796     0.4200    -1.0000    28.5600     0.0000     0.0000    10.4150   103.4464    -1.0000    -1.5000     0.0000     0.0000     0.0000     0.0000    17.0000     8.0000     8.0000    17.0000     0.0000     0.0000   142.0306   -75.9388     0.0000    -4.2998    -2.9995    -1.8994    -0.6005     0.4003     1.8994     2.7994     3.8002    31.3400    22.1100    13.8400     6.4800    -5.6200   -10.4100   -14.3900   -16.8000     2.4082     4.9500     4.800
     36     1.1300    -0.0000     7.0001     0.1500      5.109     31.000  11001.000      5.000    96.9304   142.7102   -74.5796     0.4200    -1.0000    28.5600     0.0000     0.0000    10.4100   103.3298    -1.0000    -1.5000     0.0000     0.0000     0.0000     0.0000    17.0000     8.0000     8.0000    17.0000     0.0000     0.0000   142.0306   -75.9388     0.0000    -4.2998    -2.9995    -1.8994    -0.6005     0.4003     1.8994     2.7994     3.8002    31.3400    22.1100    13.8400     6.4800    -5.6200   -10.4100   -14.3900   -16.8000     2.4062     4.9500     4.800
     37     1.1279    -0.0000     7.0004     0.1500      5.053     18.000  11001.000      5.000    96.9304   142.7102   -74.5796     0.4200    -1.0000    28.5600     0.0000     0.0000    10.4050   103.2136    -1.0000    -1.5000     0.0000     0.0000     0.0000     0.0000    17.0000     8.0000     8.0000    17.0000     0.0000     0.0000   142.0306   -75.9388     0.0000    -4.2998    -2.9995    -1.8994    -0.6005     0.4003     1.8994     2.7994     3.8002    31.3400    22.1100    13.8400     6.4800    -5.6200   -10.4100   -14.3900   -16.8000     2.4043     4.9500     4.800
     38     1.1260    -0.0000     7.0000     0.1500      5.078     32.000  11001.000      5.000    96.9304   142.7102   -74.5796     0.4200    -1.0000    28.5600     0.0000     0.0000    10.3950   103.0976    -1.0000    -1.5000     0.0000     0.0000     0.0000     0.0000    17.0000     8.0000     8.0000    17.0000     0.0000     0.0000   142.0306   -75.9388     0.0000    -4.2998    -2.9995    -1.8994    -0.6005     0.4003     1.8994     2.7994     3.8002    31.3400    22.1100    13.8400     6.4800    -5.6200   -10.4100   -14.3900   -16.8000     2.4024     4.9500     4.800
     39     1.1240    -0.0000     7.0001     0.1500      5.132     19.000  11001.000      5.000    96.9304   142.7102   -74.5796     0.4200    -1.0000    28.5600     0.0000     0.0000    10.3900   102.9819    -1.0000    -1.5000     0.0000     0.0000     0.0000     0.0000    17.0000     8.0000     8.0000    17.0000     0.0000     0.0000   142.0306   -75.9388     0.0000    -4.2998    -2.9995    -1.8994    -0.6005     0.4003     1.8994     2.7994     3.8002    31.3400    22.1100    13.8400     6.4800    -5.6200   -10.4100   -14.3900   -16.8000     2.4005     4.9500     4.800
     40     1.1221    -0.0000     6.9997     0.1500      4.991     21.000  11001.000      5.000    96.9304   142.7102   -74.5796     0.4200    -1.0000    28.5600     0.0000     0.0000    10.3800   102.8665    -1.0000    -1.5000     0.0000     0.0000     0.0000     0.0000    17.0000     8.0000     8.0000    17.0000     0.0000     0.0000   142.0306   -75.9388     0.0000    -4.2998    -2.9995    -1.8994    -0.6005     0.4003     1.8994     2.7994     3.8002    31.3400    22.1100    13.8400     6.4800    -5.6200   -10.4100   -14.3900   -16.8000     2.3985     4.9500     4.800
     41     1.1199    -0.0000     7.0004     0.1500      5.025     22.000  11001.000      5.000    96.9304   142.7102   -74.5796     0.4200    -1.0000    28.5600     0.0000     0.0000    10.3800   102.7513    -1.0000    -1.5000     0.0000     0.0000     0.0000     0.0000    17.0000     8.0000     8.0000    17.0000     0.0000     0.0000   142.0306   -75.9388     0.0000    -4.2998    -2.9995    -1.8994    -0.6005     0.4003     1.8994     2.7994     3.8002    31.3400    22.1100    13.8400     6.4800    -5.6200   -10.4100   -14.3900   -16.8000     2.3966     4.9500     4.800
     42     1.1180    -0.0000     7.0002     0.1500      5.045     26.000  11001.000      5.000    96.9304   142.7102   -74.5796     0.4200    -1.0000    28.5600     0.0000     0.0000    10.3725   102.6364    -1.0000    -1.5000     0.0000     0.0000     0.0000     0.0000    17.0000     8.0000     8.0000    17.0000     0.0000     0.0000   142.0306   -75.9388     0.0000    -4.2998    -2.9995    -1.8994    -0.6005     0.4003     1.8994     2.7994     3.8002    31.3400    22.1100    13.8400     6.4800    -5.6200   -10.4100   -14.3900   -16.8000     2.3947     4.9500     4.800
     43     1.1160    -0.0000     7.0000     0.1500      5.096     17.000  11001.000      5.000    96.9304   142.7102   -74.5796     0.4200    -1.0000    28.5600     0.0000     0.0000    10.3650   102.5217    -1.0000    -1.5000     0.0000     0.0000     0.0000     0.0000    17.0000     8.0000     8.0000    17.0000     0.0000     0.0000   142.0306   -75.9388     0.0000    -4.2998    -2.9995    -1.8994    -0.6005     0.4003     1.8994     2.7994     3.8002    31.3400    22.1100    13.8400     6.4800    -5.6200   -10.4100   -14.3900   -16.8000     2.3928     4.9500     4.800
     44     1.1140    -0.0000     7.0000     0.1500      5.064     22.000  11001.000      5.000    96.9304   142.7102   -74.5796     0.4200    -1.0000    28.5600     0.0000     0.0000    10.3600   102.4072    -1.0000    -1.5000     0.0000     0.0000     0.0000     0.0000    17.0000     8.0000     8.0000    17.0000     0.0000     0.0000   142.0306   -75.9388     0.0000    -4.2998    -2.9995    -1.8994    -0.6005     0.4003     1.8994     2.7994     3.8002    31.3400    22.1100    13.8400     6.4800    -5.6200   -10.4100   -14.3900   -16.8000     2.3909     4.9500     4.800
     45     1.1120    -0.0000     7.0001     0.1500      4.967     32.000  11001.000      5.000    96.9304   142.7102   -74.5796     0.4200    -1.0000    28.5600     0.0000     0.0000    10.3550   102.2931    -1.0000    -1.5000     0.0000     0.0000     0.0000     0.0000    17.0000     8.0000     8.0000    17.0000     0.0000     0.0000   142.0306   -75.9388     0.0000    -4.2998    -2.9995    -1.8994    -0.6005     0.4003     1.8994     2.7994     3.8002    31.3400    22.1100    13.8400     6.4800    -5.6200   -10.4100   -14.3900   -16.8000     2.3889     4.9500     4.800
     46     1.1100    -0.0000     7.0001     0.1500      5.129     25.000  11001.000      5.000    96.9304   142.7102   -74.5796     0.4200    -1.0000    28.5600     0.0000     0.0000    10.3500   102.1792    -1.0000    -1.5000     0.0000     0.0000     0.0000     0.0000    17.0000     8.0000     8.0000    17.0000     0.0000     0.0000   142.0306   -75.9388     0.0000    -4.2998    -2.9995    -1.8994    -0.6005     0.4003     1.8994     2.7994     3.8002    31.3400    22.1100    13.8400     6.4800    -5.6200   -10.4100   -14.3900   -16.8000     2.3870     4.9500     4.800
     47     1.1079    -0.0000     7.0003     0.1500      5.086     22.000  11001.000      5.000    96.9304   142.7102   -74.5796     0.4200    -1.0000    28.5600     0.0000     0.0000    10.3475   102.0655    -1.0000    -1.5000     0.0000     0.0000     0.0000     0.0000    17.0000     8.0000     8.0000    17.0000     0.0000     0.0000   142.0306   -75.9388     0.0000    -4.2998    -2.9995    -1.8994    -0.6005     0.4003     1.8994     2.7994     3.8002    31.3400    22.1100    13.8400     6.4800    -5.6200   -10.4100   -14.3900   -16.8000     2.3851     4.9500     4.800
     48     1.1060    -0.0000     7.0002     0.1500      5.131     14.000  11001.000      5.000    96.9304   142.7102   -74.5796     0.4200    -1.0000    28.5600     0.0000     0.0000    10.3425   101.9521    -1.0000    -1.5000     0.0000     0.0000     0.0000     0.0000    17.0000     8.0000     8.0000    17.0000     0.0000     0.0000   142.0306   -75.9388     0.0000    -4.2998    -2.9995    -1.8994    -0.6005     0.4003     1.8994     2.7994     3.8002    31.3400    22.1100    13.8400     6.4800    -5.6200   -10.4100   -14.3900   -16.8000     2.3832     4.9500     4.800
     49     1.1040    -0.0000     6.9999     0.1500      5.123     19.000  11001.000      5.000    96.9304   142.7102   -74.5796     0.4200    -1.0000    28.5600     0.0000     0.0000    10.3350   101.8390    -1.0000    -1.5000     0.0000     0.0000     0.0000     0.0000    17.0000     8.0000     8.0000    17.0000     0.0000     0.0000   142.0306   -75.9388     0.0000    -4.2998    -2.9995    -1.8994    -0.6005     0.4003     1.8994     2.7994     3.8002    31.3400    22.1100    13.8400     6.4800    -5.6200   -10.4100   -14.3900   -16.8000     2.3813     4.9500     4.800
     50     1.1019    -0.0000     7.0004     0.1500      5.058     25.000  11001.000      5.000    96.9304   142.7102   -74.5796     0.4200    -1.0000    28.5600     0.0000     0.0000    10.3350   101.7260    -1.0000    -1.5000     0.0000     0.0000     0.0000     0.0000    17.0000     8.0000     8.0000    17.0000     0.0000     0.0000   142.0306   -75.9388     0.0000    -4.2998    -2.9995    -1.8994    -0.6005     0.4003     1.8994     2.7994     3.8002    31.3400    22.1100    13.8400     6.4800    -5.6200   -10.4100   -14.3900   -16.8000     2.3794     4.9500     4.800
     51     1.1000    -0.0000     7.0000     0.1500      5.092     22.000  11001.000      5.000    96.9304   142.7102   -74.5796     0.4200    -1.0000    28.5600     0.0000     0.0000    10.3275   101.6134    -1.0000    -1.5000     0.0000     0.0000     0.0000     0.0000    17.0000     8.0000     8.0000    17.0000     0.0000     0.0000   142.0306   -75.9388     0.0000    -4.2998    -2.9995    -1.8994    -0.6005     0.4003     1.8994     2.7994     3.8002    31.3400    22.1100    13.8400     6.4800    -5.6200   -10.4100   -14.3900   -16.8000     2.3775     4.9500     4.800
     52     1.0979    -0.0000     7.0004     0.1500      4.990     19.000  11001.000      5.000    96.9304   142.7102   -74.5796     0.4200    -1.0000    28.5600     0.0000     0.0000    10.3275   101.5010    -1.0000    -1.5000     0.0000     0.0000     0.0000     0.0000    17.0000     8.0000     8.0000    17.0000     0.0000     0.0000   142.0306   -75.9388     0.0000    -4.2998    -2.9995    -1.8994    -0.6005     0.4003     1.8994     2.7994     3.8002    31.3400    22.1100    13.8400     6.4800    -5.6200   -10.4100   -14.3900   -16.8000     2.3756     4.9500     4.800
     53     1.0960    -0.0000     6.9999     0.1500      5.005     23.000  11001.000      5.000    96.9304   142.7102   -74.5796     0.4200    -1.0000    28.5600     0.0000     0.0000    10.3200   101.3888    -1.0000    -1.5000     0.0000     0.0000     0.0000     0.0000    17.0000     8.0000     8.0000    17.0000     0.0000     0.0000   142.0306   -75.9388     0.0000    -4.2998    -2.9995    -1.8994    -0.6005     0.4003     1.8994     2.7994     3.8002    31.3400    22.1100    13.8400     6.4800    -5.6200   -10.4100   -14.3900   -16.8000     2.3737     4.9500     4.800
     54     1.0939    -0.0000     7.0003     0.1500      4.998     22.000  11001.000      5.000    96.9304   142.7102   -74.5796     0.4200    -1.0000    28.5600     0.0000     0.0000    10.3200   101.2770    -1.0000    -1.5000     0.0000     0.0000     0.0000     0.0000    17.0000     8.0000     8.0000    17.0000     0.0000     0.0000   142.0306   -75.9388     0.0000    -4.2998    -2.9995    -1.8994    -0.6005     0.4003     1.8994     2.7994     3.8002    31.3400    22.1100    13.8400     6.4800    -5.6200   -10.4100   -14.3900   -16.8000     2.3718     4.9500     4.800
     55     1.0920    -0.0000     7.0001     0.1500      5.153     14.000  11001.000      5.000    96.9304   142.7102   -74.5796     0.4200    -1.0000    28.5600     0.0000     0.0000    10.3150   101.1653    -1.0000    -1.5000     0.0000     0.0000     0.0000     0.0000    17.0000     8.0000     8.0000    17.0000     0.0000     0.0000   142.0306   -75.9388     0.0000    -4.2998    -2.9995    -1.8994    -0.6005     0.4003     1.8994     2.7994     3.8002    31.3400    22.1100    13.8400     6.4800    -5.6200   -10.4100   -14.3900   -16.8000     2.3699     4.9500     4.800
     56     1.0899    -0.0000     7.0004     0.1500      4.979     27.000  11001.000      5.000    96.9304   142.7102   -74.5796     0.4200    -1.0000    28.5600     0.0000     0.0000    10.3150   101.0539    -1.0000    -1.5000     0.0000     0.0000     0.0000     0.0000    17.0000     8.0000     8.0000    17.0000     0.0000     0.0000   142.0306   -75.9388     0.0000    -4.2998    -2.9995    -1.8994    -0.6005     0.4003     1.8994     2.7994     3.8002    31.3400    22.1100    13.8400     6.4800    -5.6200   -10.4100   -14.3900   -16.8000     2.3680     4.9500     4.800
     57     1.0880    -0.0000     7.0002     0.1500      5.158     19.000  11001.000      5.000    96.9304   142.7102   -74.5796     0.4200    -1.0000    28.5600     0.0000     0.0000    10.3100   100.9427    -1.0000    -1.5000     0.0000     0.0000     0.0000     0.0000    17.0000     8.0000     8.0000    17.0000     0.0000     0.0000   142.0306   -75.9388     0.0000    -4.2998    -2.9995    -1.8994    -0.6005     0.4003     1.8994     2.7994     3.8002    31.3400    22.1100    13.8400     6.4800    -5.6200   -10.4100   -14.3900   -16.8000     2.3661     4.9500     4.800
     58     1.0860    -0.0000     7.0002     0.1500      5.087     27.000  11001.000      5.000    96.9304   142.7102   -74.5796     0.4200    -1.0000    28.5600     0.0000     0.0000    10.3075   100.8318    -1.0000    -1.5000     0.0000     0.0000     0.0000     0.0000    17.0000     8.0000     8.0000    17.0000     0.0000     0.0000   142.0306   -75.9388     0.0000    -4.2998    -2.9995    -1.8994    -0.6005     0.4003     1.8994     2.7994     3.8002    31.3400    22.1100    13.8400     6.4800    -5.6200   -10.4100   -14.3900   -16.8000     2.3642     4.9500     4.800
     59     1.0839    -0.0000     7.0004     0.1500      5.052     20.000  11001.000      5.000    96.9304   142.7102   -74.5796     0.4200    -1.0000    28.5600     0.0000     0.0000    10.3075   100.7211    -1.0000    -1.5000     0.0000     0.0000     0.0000     0.0000    17.0000     8.0000     8.0000    17.0000     0.0000     0.0000   142.0306   -75.9388     0.0000    -4.2998    -2.9995    -1.8994    -0.6005     0.4003     1.8994     2.7994     3.8002    31.3400    22.1100    13.8400     6.4800    -5.6200   -10.4100   -14.3900   -16.8000     2.3623     4.9500     4.800
     60     1.0820    -0.0000     7.0001     0.1500      5.072     27.000  11001.000      5.000    96.9304   142.7102   -74.5796     0.4200    -1.0000    28.5600     0.0000     0.0000    10.3025   100.6107    -1.0000    -1.5000     0.0000     0.0000     0.0000     0.0000    17.0000     8.0000     8.0000    17.0000     0.0000     0.0000   142.0306   -75.9388     0.0000    -4.2998    -2.9995    -1.8994    -0.6005     0.4003     1.8994     2.7994     3.8002    31.3400    22.1100    13.8400     6.4800    -5.6200   -10.4100   -14.3900   -16.8000     2.3604     4.9500     4.800
     61     1.0799    -0.0000     7.0003     0.1500      5.020     21.000  11001.000      5.000    96.9304   142.7102   -74.5796     0.4200    -1.0000    28.5600     0.0000     0.0000    10.3025   100.5005    -1.0000    -1.5000     0.0000     0.0000     0.0000     0.0000    17.0000     8.0000     8.0000    17.0000     0.0000     0.0000   142.0306   -75.9388     0.0000    -4.2998    -2.9995    -1.8994    -0.6005     0.4003     1.8994     2.7994     3.8002    31.3400    22.1100    13.8400     6.4800    -5.6200   -10.4100   -14.3900   -16.8000     2.3585     4.9500     4.800
     62     1.0779    -0.0000     7.0005     0.1500      5.088     32.000  11001.000      5.000    96.9304   142.7102   -74.5796     0.4200    -1.0000    28.5600     0.0000     0.0000    10.3025   100.3906    -1.0000    -1.5000     0.0000     0.0000     0.0000     0.0000    17.0000     8.0000     8.0000    17.0000     0.0000     0.0000   142.0306   -75.9388     0.0000    -4.2998    -2.9995    -1.8994    -0.6005     0.4003     1.8994     2.7994     3.8002    31.3400    22.1100    13.8400     6.4800    -5.6200   -10.4100   -14.3900   -16.8000     2.3567     4.9500     4.800
     63     1.0760    -0.0000     7.0001     0.1500      5.068     37.000  11001.000      5.000    96.9304   142.7102   -74.5796     0.4200    -1.0000    28.5600     0.0000     0.0000    10.2975   100.2809    -1.0000    -1.5000     0.0000     0.0000     0.0000     0.0000    17.0000     8.0000     8.0000    17.0000     0.0000     0.0000   142.0306   -75.9388     0.0000    -4.2998    -2.9995    -1.8994    -0.6005     0.4003     1.8994     2.7994     3.8002    31.3400    22.1100    13.8400     6.4800    -5.6200   -10.4100   -14.3900   -16.8000     2.3548     4.9500     4.800
     64     1.0740    -0.0000     7.0002     0.1500      5.062     35.000  11001.000      5.000    96.9304   142.7102   -74.5796     0.4200    -1.0000    28.5600     0.0000     0.0000    10.2975   100.1714    -1.0000    -1.5000     0.0000     0.0000     0.0000     0.0000    17.0000     8.0000     8.0000    17.0000     0.0000     0.0000   142.0306   -75.9388     0.0000    -4.2998    -2.9995    -1.8994    -0.6005     0.4003     1.8994     2.7994     3.8002    31.3400    22.1100    13.8400     6.4800    -5.6200   -10.4100   -14.3900   -16.8000     2.3529     4.9500     4.800
     65     1.0719    -0.0000     7.0003     0.1500      5.108     34.000  11001.000      5.000    96.9304   142.7102   -74.5796     0.4200    -1.0000    28.5600     0.0000     0.0000    10.2975   100.0622    -1.0000    -1.5000     0.0000     0.0000     0.0000     0.0000    17.0000     8.0000     8.0000    17.0000     0.0000     0.0000   142.0306   -75.9388     0.0000    -4.2998    -2.9995    -1.8994    -0.6005     0.4003     1.8994     2.7994     3.8002    31.3400    22.1100    13.8400     6.4800    -5.6200   -10.4100   -14.3900   -16.8000     2.3510     4.9500     4.800
     66     1.0699    -0.0000     7.0004     0.1500      4.985     25.000  11001.000      5.000    96.9304   142.7102   -74.5796     0.4200    -1.0000    28.5600     0.0000     0.0000    10.2975    99.9532    -1.0000    -1.5000     0.0000     0.0000     0.0000     0.0000    17.0000     8.0000     8.0000    17.0000     0.0000     0.0000   142.0306   -75.9388     0.0000    -4.2998    -2.9995    -1.8994    -0.6005     0.4003     1.8994     2.7994     3.8002    31.3400    22.1100    13.8400     6.4800    -5.6200   -10.4100   -14.3900   -16.8000     2.3491     4.9500     4.800
     67     1.0679    -0.0000     7.0005     0.1500      5.067     40.000  11001.000      5.000    96.9304   142.7102   -74.5796     0.4200    -1.0000    28.5600     0.0000     0.0000    10.2975    99.8445    -1.0000    -1.5000     0.0000     0.0000     0.0000     0.0000    17.0000     8.0000     8.0000    17.0000     0.0000     0.0000   142.0306   -75.9388     0.0000    -4.2998    -2.9995    -1.8994    -0.6005     0.4003     1.8994     2.7994     3.8002    31.3400    22.1100    13.8400     6.4800    -5.6200   -10.4100   -14.3900   -16.8000     2.3473     4.9500     4.800
     68     1.0660    -0.0000     7.0000     0.1500      5.071     40.000  11001.000      5.000    96.9304   142.7102   -74.5796     0.4200    -1.0000    28.5600     0.0000     0.0000    10.2925    99.7360    -1.0000    -1.5000     0.0000     0.0000     0.0000     0.0000    17.0000     8.0000     8.0000    17.0000     0.0000     0.0000   142.0306   -75.9388     0.0000    -4.2998    -2.9995    -1.8994    -0.6005     0.4003     1.8994     2.7994     3.8002    31.3400    22.1100    13.8400     6.4800    -5.6200   -10.4100   -14.3900   -16.8000     2.3454     4.9500     4.800
     69     1.0640    -0.0000     7.0000     0.1500      5.090     26.000  11001.000      5.000    96.9304   142.7102   -74.5796     0.4200    -1.0000    28.5600     0.0000     0.0000    10.2925    99.6278    -1.0000    -1.5000     0.0000     0.0000     0.0000     0.0000    17.0000     8.0000     8.0000    17.0000     0.0000     0.0000   142.0306   -75.9388     0.0000    -4.2998    -2.9995    -1.8994    -0.6005     0.4003     1.8994     2.7994     3.8002    31.3400    22.1100    13.8400     6.4800    -5.6200   -10.4100   -14.3900   -16.8000     2.3435     4.9500     4.800
     70     1.0620    -0.0000     7.0000     0.1500      5.118     32.000  11001.000      5.000    96.9304   142.7102   -74.5796     0.4200    -1.0000    28.5600     0.0000     0.0000    10.2925    99.5197    -1.0000    -1.5000     0.0000     0.0000     0.0000     0.0000    17.0000     8.0000     8.0000    17.0000     0.0000     0.0000   142.0306   -75.9388     0.0000    -4.2998    -2.9995    -1.8994    -0.6005     0.4003     1.8994     2.7994     3.8002    31.3400    22.1100    13.8400     6.4800    -5.6200   -10.4100   -14.3900   -16.8000     2.3417     4.9500     4.800
     71     1.0600    -0.0000     7.0000     0.1500      5.097     39.000  11001.000      5.000    96.9304   142.7102   -74.5796     0.4200    -1.0000    28.5600     0.0000     0.0000    10.2925    99.4120    -1.0000    -1.5000     0.0000     0.0000     0.0000     0.0000    17.0000     8.0000     8.0000    17.0000     0.0000     0.0000   142.0306   -75.9388     0.0000    -4.2998    -2.9995    -1.8994    -0.6005     0.4003     1.8994     2.7994     3.8002    31.3400    22.1100    13.8400     6.4800    -5.6200   -10.4100   -14.3900   -16.8000     2.3398     4.9500     4.800
     72     1.0579    -0.0000     7.0005     0.1500      5.100     32.000  11001.000      5.000    96.9304   142.7102   -74.5796     0.4200    -1.0000    28.5600     0.0000     0.0000    10.2975    99.3044    -1.0000    -1.5000     0.0000     0.0000     0.0000     0.0000    17.0000     8.0000     8.0000    17.0000     0.0000     0.0000   142.0306   -75.9388     0.0000    -4.2998    -2.9995    -1.8994    -0.6005     0.4003     1.8994     2.7994     3.8002    31.3400    22.1100    13.8400     6.4800    -5.6200   -10.4100   -14.3900   -16.8000     2.3379     4.9500     4.800
     73     1.0560    -0.0000     7.0002     0.1500      5.094     40.000  11001.000      5.000    96.9304   142.7102   -74.5796     0.4200    -1.0000    28.5600     0.0000     0.0000    10.2950    99.1971    -1.0000    -1.5000     0.0000     0.0000     0.0000     0.0000    17.0000     8.0000     8.0000    17.0000     0.0000     0.0000   142.0306   -75.9388     0.0000    -4.2998    -2.9995    -1.8994    -0.6005     0.4003     1.8994     2.7994     3.8002    31.3400    22.1100    13.8400     6.4800    -5.6200   -10.4100   -14.3900   -16.8000     2.3361     4.9500     4.800
     74     1.0540    -0.0000     7.0001     0.1500      5.071     35.000  11001.000      5.000    96.9304   142.7102   -74.5796     0.4200    -1.0000    28.5600     0.0000     0.0000    10.2950    99.0900    -1.0000    -1.5000     0.0000     0.0000     0.0000     0.0000    17.0000     8.0000     8.0000    17.0000     0.0000     0.0000   142.0306   -75.9388     0.0000    -4.2998    -2.9995    -1.8994    -0.6005     0.4003     1.8994     2.7994     3.8002    31.3400    22.1100    13.8400     6.4800    -5.6200   -10.4100   -14.3900   -16.8000     2.3342     4.9500     4.800
     75     1.0520    -0.0000     7.0000     0.1500      5.001     51.000  11001.000      5.000    96.9304   142.7102   -74.5796     0.4200    -1.0000    28.5600     0.0000     0.0000    10.2950    98.9832    -1.0000    -1.5000     0.0000     0.0000     0.0000     0.0000    17.0000     8.0000     8.0000    17.0000     0.0000     0.0000   142.0306   -75.9388     0.0000    -4.2998    -2.9995    -1.8994    -0.6005     0.4003     1.8994     2.7994     3.8002    31.3400    22.1100    13.8400     6.4800    -5.6200   -10.4100   -14.3900   -16.8000     2.3324     4.9500     4.800
     76     1.0500    -0.0000     7.0001     0.1500      5.028     50.000  11001.000      5.000    96.9304   142.7102   -74.5796     0.4200    -1.0000    28.5600     0.0000     0.0000    10.2975    98.8766    -1.0000    -1.5000     0.0000     0.0000     0.0000     0.0000    17.0000     8.0000     8.0000    17.0000     0.0000     0.0000   142.0306   -75.9388     0.0000    -4.2998    -2.9995    -1.8994    -0.6005     0.4003     1.8994     2.7994     3.8002    31.3400    22.1100    13.8400     6.4800    -5.6200   -10.4100   -14.3900   -16.8000     2.3305     4.9500     4.800
     77     1.0479    -0.0000     7.0002     0.1500      5.129     58.000  11001.000      5.000    96.9304   142.7102   -74.5796     0.4200    -1.0000    28.5600     0.0000     0.0000    10.3000    98.7702    -1.0000    -1.5000     0.0000     0.0000     0.0000     0.0000    17.0000     8.0000     8.0000    17.0000     0.0000     0.0000   142.0306   -75.9388     0.0000    -4.2998    -2.9995    -1.8994    -0.6005     0.4003     1.8994     2.7994     3.8002    31.3400    22.1100    13.8400     6.4800    -5.6200   -10.4100   -14.3900   -16.8000     2.3287     4.9500     4.800
     78     1.0460    -0.0000     7.0001     0.1500      5.027     50.000  11001.000      5.000    96.9304   142.7102   -74.5796     0.4200    -1.0000    28.5600     0.0000     0.0000    10.3000    98.6640    -1.0000    -1.5000     0.0000     0.0000     0.0000     0.0000    17.0000     8.0000     8.0000    17.0000     0.0000     0.0000   142.0306   -75.9388     0.0000    -4.2998    -2.9995    -1.8994    -0.6005     0.4003     1.8994     2.7994     3.8002    31.3400    22.1100    13.8400     6.4800    -5.6200   -10.4100   -14.3900   -16.8000     2.3268     4.9500     4.800
     79     1.0440    -0.0000     6.9999     0.1500      5.146     43.000  11001.000      5.000    96.9304   142.7102   -74.5796     0.4200    -1.0000    28.5600     0.0000     0.0000    10.3000    98.5582    -1.0000    -1.5000     0.0000     0.0000     0.0000     0.0000    17.0000     8.0000     8.0000    17.0000     0.0000     0.0000   142.0306   -75.9388     0.0000    -4.2998    -2.9995    -1.8994    -0.6005     0.4003     1.8994     2.7994     3.8002    31.3400    22.1100    13.8400     6.4800    -5.6200   -10.4100   -14.3900   -16.8000     2.3250     4.9500     4.800
     80     1.0420    -0.0000     6.9999     0.1500      5.113     57.000  11001.000      5.000    96.9304   142.7102   -74.5796     0.4200    -1.0000    28.5600     0.0000     0.0000    10.3025    98.4525    -1.0000    -1.5000     0.0000     0.0000     0.0000     0.0000    17.0000     8.0000     8.0000    17.0000     0.0000     0.0000   142.0306   -75.9388     0.0000    -4.2998    -2.9995    -1.8994    -0.6005     0.4003     1.8994     2.7994     3.8002    31.3400    22.1100    13.8400     6.4800    -5.6200   -10.4100   -14.3900   -16.8000     2.3231     4.9500     4.800
     81     1.0400    -0.0000     7.0002     0.1500      5.019     48.000  11001.000      5.000    96.9304   142.7102   -74.5796     0.4200    -1.0000    28.5600     0.0000     0.0000    10.3075    98.3470    -1.0000    -1.5000     0.0000     0.0000     0.0000     0.0000    17.0000     8.0000     8.0000    17.0000     0.0000     0.0000   142.0306   -75.9388     0.0000    -4.2998    -2.9995    -1.8994    -0.6005     0.4003     1.8994     2.7994     3.8002    31.3400    22.1100    13.8400     6.4800    -5.6200   -10.4100   -14.3900   -16.8000     2.3213     4.9500     4.800
     82     1.0379    -0.0000     7.0005     0.1500      5.072     56.000  11001.000      5.000    96.9304   142.7102   -74.5796     0.4200    -1.0000    28.5600     0.0000     0.0000    10.3125    98.2418    -1.0000    -1.5000     0.0000     0.0000     0.0000     0.0000    17.0000     8.0000     8.0000    17.0000     0.0000     0.0000   142.0306   -75.9388     0.0000    -4.2998    -2.9995    -1.8994    -0.6005     0.4003     1.8994     2.7994     3.8002    31.3400    22.1100    13.8400     6.4800    -5.6200   -10.4100   -14.3900   -16.8000     2.3194     4.9500     4.800
     83     1.0360    -0.0000     7.0000     0.1500      5.062     50.000  11001.000      5.000    96.9304   142.7102   -74.5796     0.4200    -1.0000    28.5600     0.0000     0.0000    10.3100    98.1368    -1.0000    -1.5000     0.0000     0.0000     0.0000     0.0000    17.0000     8.0000     8.0000    17.0000     0.0000     0.0000   142.0306   -75.9388     0.0000    -4.2998    -2.9995    -1.8994    -0.6005     0.4003     1.8994     2.7994     3.8002    31.3400    22.1100    13.8400     6.4800    -5.6200   -10.4100   -14.3900   -16.8000     2.3176     4.9500     4.800
     84     1.0340    -0.0000     7.0002     0.1500      5.113     54.000  11001.000      5.000    96.9304   142.7102   -74.5796     0.4200    -1.0000    28.5600     0.0000     0.0000    10.3150    98.0321    -1.0000    -1.5000     0.0000     0.0000     0.0000     0.0000    17.0000     8.0000     8.0000    17.0000     0.0000     0.0000   142.0306   -75.9388     0.0000    -4.2998    -2.9995    -1.8994    -0.6005     0.4003     1.8994     2.7994     3.8002    31.3400    22.1100    13.8400     6.4800    -5.6200   -10.4100   -14.3900   -16.8000     2.3157     4.9500     4.800
     85     1.0320    -0.0000     6.9999     0.1500      5.139     51.000  11001.000      5.000    96.9304   142.7102   -74.5796     0.4200    -1.0000    28.5600     0.0000     0.0000    10.3150    97.9276    -1.0000    -1.5000     0.0000     0.0000     0.0000     0.0000    17.0000     8.0000     8.0000    17.0000     0.0000     0.0000   142.0306   -75.9388     0.0000    -4.2998    -2.9995    -1.8994    -0.6005     0.4003     1.8994     2.7994     3.8002    31.3400    22.1100    13.8400     6.4800    -5.6200   -10.4100   -14.3900   -16.8000     2.3139     4.9500     4.800
     86     1.0299    -0.0000     7.0003     0.1500      5.063     53.000  11001.000      5.000    96.9304   142.7102   -74.5796     0.4200    -1.0000    28.5600     0.0000     0.0000    10.3225    97.8233    -1.0000    -1.5000     0.0000     0.0000     0.0000     0.0000    17.0000     8.0000     8.0000    17.0000     0.0000     0.0000   142.0306   -75.9388     0.0000    -4.2998    -2.9995    -1.8994    -0.6005     0.4003     1.8994     2.7994     3.8002    31.3400    22.1100    13.8400     6.4800    -5.6200   -10.4100   -14.3900   -16.8000     2.3121     4.9500     4.800
     87     1.0280    -0.0000     7.0000     0.1500      5.104     37.000  11001.000      5.000    96.9304   142.7102   -74.5796     0.4200    -1.0000    28.5600     0.0000     0.0000    10.3225    97.7192    -1.0000    -1.5000     0.0000     0.0000     0.0000     0.0000    17.0000     8.0000     8.0000    17.0000     0.0000     0.0000   142.0306   -75.9388     0.0000    -4.2998    -2.9995    -1.8994    -0.6005     0.4003     1.8994     2.7994     3.8002    31.3400    22.1100    13.8400     6.4800    -5.6200   -10.4100   -14.3900   -16.8000     2.3102     4.9500     4.800
     88     1.0260    -0.0000     6.9999     0.1500      5.074     31.000  11001.000      5.000    96.9304   142.7102   -74.5796     0.4200    -1.0000    28.5600     0.0000     0.0000    10.3250    97.6154    -1.0000    -1.5000     0.0000     0.0000     0.0000     0.0000    17.0000     8.0000     8.0000    17.0000     0.0000     0.0000   142.0306   -75.9388     0.0000    -4.2998    -2.9995    -1.8994    -0.6005     0.4003     1.8994     2.7994     3.8002    31.3400    22.1100    13.8400     6.4800    -5.6200   -10.4100   -14.3900   -16.8000     2.3084     4.9500     4.800
     89     1.0240    -0.0000     7.0000     0.1500      5.113     28.000  11001.000      5.000    96.9304   142.7102   -74.5796     0.4200    -1.0000    28.5600     0.0000     0.0000    10.3300    97.5118    -1.0000    -1.5000     0.0000     0.0000     0.0000     0.0000    17.0000     8.0000     8.0000    17.0000     0.0000     0.0000   142.0306   -75.9388     0.0000    -4.2998    -2.9995    -1.8994    -0.6005     0.4003     1.8994     2.7994     3.8002    31.3400    22.1100    13.8400     6.4800    -5.6200   -10.4100   -14.3900   -16.8000     2.3066     4.9500     4.800
     90     1.0220    -0.0000     7.0001     0.1500      4.974     32.000  11001.000      5.000    96.9304   142.7102   -74.5796     0.4200    -1.0000    28.5600     0.0000     0.0000    10.3350    97.4084    -1.0000    -1.5000     0.0000     0.0000     0.0000     0.0000    17.0000     8.0000     8.0000    17.0000     0.0000     0.0000   142.0306   -75.9388     0.0000    -4.2998    -2.9995    -1.8994    -0.6005     0.4003     1.8994     2.7994     3.8002    31.3400    22.1100    13.8400     6.4800    -5.6200   -10.4100   -14.3900   -16.8000     2.3048     4.9500     4.800
     91     1.0200    -0.0000     7.0002     0.1500      5.082     27.000  11001.000      5.000    96.9304   142.7102   -74.5796     0.4200    -1.0000    28.5600     0.0000     0.0000    10.3400    97.3052    -1.0000    -1.5000     0.0000     0.0000     0.0000     0.0000    17.0000     8.0000     8.0000    17.0000     0.0000     0.0000   142.0306   -75.9388     0.0000    -4.2998    -2.9995    -1.8994    -0.6005     0.4003     1.8994     2.7994     3.8002    31.3400    22.1100    13.8400     6.4800    -5.6200   -10.4100   -14.3900   -16.8000     2.3029     4.9500     4.800
     92     1.0180    -0.0000     7.0000     0.1500      4.973     27.000  11001.000      5.000    96.9304   142.7102   -74.5796     0.4200    -1.0000    28.5600     0.0000     0.0000    10.3425    97.2023    -1.0000    -1.5000     0.0000     0.0000     0.0000     0.0000    17.0000     8.0000     8.0000    17.0000     0.0000     0.0000   142.0306   -75.9388     0.0000    -4.2998    -2.9995    -1.8994    -0.6005     0.4003     1.8994     2.7994     3.8002    31.3400    22.1100    13.8400     6.4800    -5.6200   -10.4100   -14.3900   -16.8000     2.3011     4.9500     4.800
     93     1.0159    -0.0000     7.0003     0.1500      5.089     30.000  11001.000      5.000    96.9304   142.7102   -74.5796     0.4200    -1.0000    28.5600     0.0000     0.0000    10.3500    97.0996    -1.0000    -1.5000     0.0000     0.0000     0.0000     0.0000    17.0000     8.0000     8.0000    17.0000     0.0000     0.0000   142.0306   -75.9388     0.0000    -4.2998    -2.9995    -1.8994    -0.6005     0.4003     1.8994     2.7994     3.8002    31.3400    22.1100    13.8400     6.4800    -5.6200   -10.4100   -14.3900   -16.8000     2.2993     4.9500     4.800
     94     1.0139    -0.0000     7.0003     0.1500      5.044     49.000  11001.000      5.000    96.9304   142.7102   -74.5796     0.4200    -1.0000    28.5600     0.0000     0.0000    10.3550    96.9971    -1.0000    -1.5000     0.0000     0.0000     0.0000     0.0000    17.0000     8.0000     8.0000    17.0000     0.0000     0.0000   142.0306   -75.9388     0.0000    -4.2998    -2.9995    -1.8994    -0.6005     0.4003     1.8994     2.7994     3.8002    31.3400    22.1100    13.8400     6.4800    -5.6200   -10.4100   -14.3900   -16.8000     2.2975     4.9500     4.800
     95     1.0119    -0.0000     7.0003     0.1500      5.034     39.000  11001.000      5.000    96.9304   142.7102   -74.5796     0.4200    -1.0000    28.5600     0.0000     0.0000    10.3600    96.8949    -1.0000    -1.5000     0.0000     0.0000     0.0000     0.0000    17.0000     8.0000     8.0000    17.0000     0.0000     0.0000   142.0306   -75.9388     0.0000    -4.2998    -2.9995    -1.8994    -0.6005     0.4003     1.8994     2.7994     3.8002    31.3400    22.1100    13.8400     6.4800    -5.6200   -10.4100   -14.3900   -16.8000     2.2957     4.9500     4.800
     96     1.0100    -0.0000     7.0000     0.1500      5.085     53.000  11001.000      5.000    96.9304   142.7102   -74.5796     0.4200    -1.0000    28.5600     0.0000     0.0000    10.3625    96.7928    -1.0000    -1.5000     0.0000     0.0000     0.0000     0.0000    17.0000     8.0000     8.0000    17.0000     0.0000     0.0000   142.0306   -75.9388     0.0000    -4.2998    -2.9995    -1.8994    -0.6005     0.4003     1.8994     2.7994     3.8002    31.3400    22.1100    13.8400     6.4800    -5.6200   -10.4100   -14.3900   -16.8000     2.2939     4.9500     4.800
     97     1.0080    -0.0000     7.0000     0.1500      5.099     39.000  11001.000      5.000    96.9304   142.7102   -74.5796     0.4200    -1.0000    28.5600     0.0000     0.0000    10.3675    96.6910    -1.0000    -1.5000     0.0000     0.0000     0.0000     0.0000    17.0000     8.0000     8.0000    17.0000     0.0000     0.0000   142.0306   -75.9388     0.0000    -4.2998    -2.9995    -1.8994    -0.6005     0.4003     1.8994     2.7994     3.8002    31.3400    22.1100    13.8400     6.4800    -5.6200   -10.4100   -14.3900   -16.8000     2.2920     4.9500     4.800
     98     1.0060    -0.0000     7.0002     0.1500      5.095     47.000  11001.000      5.000    96.9304   142.7102   -74.5796     0.4200    -1.0000    28.5600     0.0000     0.0000    10.3750    96.5894    -1.0000    -1.5000     0.0000     0.0000     0.0000     0.0000    17.0000     8.0000     8.0000    17.0000     0.0000     0.0000   142.0306   -75.9388     0.0000    -4.2998    -2.9995    -1.8994    -0.6005     0.4003     1.8994     2.7994     3.8002    31.3400    22.1100    13.8400     6.4800    -5.6200   -10.4100   -14.3900   -16.8000     2.2902     4.9500     4.800
     99     1.0040    -0.0000     7.0001     0.1500      5.031     31.000  11001.000      5.000    96.9304   142.7102   -74.5796     0.4200    -1.0000    28.5600     0.0000     0.0000    10.3800    96.4881    -1.0000    -1.5000     0.0000     0.0000     0.0000     0.0000    17.0000     8.0000     8.0000    17.0000     0.0000     0.0000   142.0306   -75.9388     0.0000    -4.2998    -2.9995    -1.8994    -0.6005     0.4003     1.8994     2.7994     3.8002    31.3400    22.1100    13.8400     6.4800    -5.6200   -10.4100   -14.3900   -16.8000     2.2884     4.9500     4.800
    100     1.0020    -0.0000     7.0000     0.1500      5.103     34.000  11001.000      5.000    96.9304   142.7102   -74.5796     0.4200    -1.0000    28.5600     0.0000     0.0000    10.3850    96.3869    -1.0000    -1.5000     0.0000     0.0000     0.0000     0.0000    17.0000     8.0000     8.0000    17.0000     0.0000     0.0000   142.0306   -75.9388     0.0000    -4.2998    -2.9995    -1.8994    -0.6005     0.4003     1.8994     2.7994     3.8002    31.3400    22.1100    13.8400     6.4800    -5.6200   -10.4100   -14.3900   -16.8000     2.2866     4.9500     4.800
    101     1.0000    -0.0000     7.0001     0.1500      5.196     46.000  11001.000      5.000    96.9304   142.7102   -74.5796     0.4200    -1.0000    28.5600     0.0000     0.0000    10.3925    96.2860    -1.0000    -1.5000     0.0000     0.0000     0.0000     0.0000    17.0000     8.0000     8.0000    17.0000     0.0000     0.0000   142.0306   -75.9388     0.0000    -4.2998    -2.9995    -1.8994    -0.6005     0.4003     1.8994     2.7994     3.8002    31.3400    22.1100    13.8400     6.4800    -5.6200   -10.4100   -14.3900   -16.8000     2.2848     4.9500     4.800
    102     0.9979    -0.0000     7.0002     0.1500      5.075     36.000  11001.000      5.000    96.9304   142.7102   -74.5796     0.4200    -1.0000    28.5600     0.0000     0.0000    10.4000    96.1853    -1.0000    -1.5000     0.0000     0.0000     0.0000     0.0000    17.0000     8.0000     8.0000    17.0000     0.0000     0.0000   142.0306   -75.9388     0.0000    -4.2998    -2.9995    -1.8994    -0.6005     0.4003     1.8994     2.7994     3.8002    31.3400    22.1100    13.8400     6.4800    -5.6200   -10.4100   -14.3900   -16.8000     2.2830     4.9500     4.800
    103     0.9960    -0.0000     7.0001     0.1500      5.079     46.000  11001.000      5.000    96.9304   142.7102   -74.5796     0.4200    -1.0000    28.5600     0.0000     0.0000    10.4050    96.0848    -1.0000    -1.5000     0.0000     0.0000     0.0000     0.0000    17.0000     8.0000     8.0000    17.0000     0.0000     0.0000   142.0306   -75.9388     0.0000    -4.2998    -2.9995    -1.8994    -0.6005     0.4003     1.8994     2.7994     3.8002    31.3400    22.1100    13.8400     6.4800    -5.6200   -10.4100   -14.3900   -16.8000     2.2812     4.9500     4.800
    104     0.9940    -0.0000     6.9999     0.1500      5.138     35.000  11001.000      5.000    96.9304   142.7102   -74.5796     0.4200    -1.0000    28.5600     0.0000     0.0000    10.4100    95.9846    -1.0000    -1.5000     0.0000     0.0000     0.0000     0.0000    17.0000     8.0000     8.0000    17.0000     0.0000     0.0000   142.0306   -75.9388     0.0000    -4.2998    -2.9995    -1.8994    -0.6005     0.4003     1.8994     2.7994     3.8002    31.3400    22.1100    13.8400     6.4800    -5.6200   -10.4100   -14.3900   -16.8000     2.2794     4.9500     4.800
    105     0.9920    -0.0000     7.0000     0.1500      5.047     32.000  11001.000      5.000    96.9304   142.7102   -74.5796     0.4200    -1.0000    28.5600     0.0000     0.0000    10.4175    95.8846    -1.0000    -1.5000     0.0000     0.0000     0.0000     0.0000    17.0000     8.0000     8.0000    17.0000     0.0000     0.0000   142.0306   -75.9388     0.0000    -4.2998    -2.9995    -1.8994    -0.6005     0.4003     1.8994     2.7994     3.8002    31.3400    22.1100    13.8400     6.4800    -5.6200   -10.4100   -14.3900   -16.8000     2.2776     4.9500     4.800
    106     0.9900    -0.0000     7.0000     0.1500      5.063     44.000  11001.000      5.000    96.9304   142.7102   -74.5796     0.4200    -1.0000    28.5600     0.0000     0.0000    10.4250    95.7847    -1.0000    -1.5000     0.0000     0.0000     0.0000     0.0000    17.0000     8.0000     8.0000    17.0000     0.0000     0.0000   142.0306   -75.9388     0.0000    -4.2998    -2.9995    -1.8994    -0.6005     0.4003     1.8994     2.7994     3.8002    31.3400    22.1100    13.8400     6.4800    -5.6200   -10.4100   -14.3900   -16.8000     2.2759     4.9500     4.800
    107     0.9880    -0.0000     7.0000     0.1500      5.019     31.000  11001.000      5.000    96.9304   142.7102   -74.5796     0.4200    -1.0000    28.5600     0.0000     0.0000    10.4325    95.6851    -1.0000    -1.5000     0.0000     0.0000     0.0000     0.0000    17.0000     8.0000     8.0000    17.0000     0.0000     0.0000   142.0306   -75.9388     0.0000    -4.2998    -2.9995    -1.8994    -0.6005     0.4003     1.8994     2.7994     3.8002    31.3400    22.1100    13.8400     6.4800    -5.6200   -10.4100   -14.3900   -16.8000     2.2741     4.9500     4.800
    108     0.9859    -0.0000     7.0002     0.1500      4.968     29.000  11001.000      5.000    96.9304   142.7102   -74.5796     0.4200    -1.0000    28.5600     0.0000     0.0000    10.4425    95.5858    -1.0000    -1.5000     0.0000     0.0000     0.0000     0.0000    17.0000     8.0000     8.0000    17.0000     0.0000     0.0000   142.0306   -75.9388     0.0000    -4.2998    -2.9995    -1.8994    -0.6005     0.4003     1.8994     2.7994     3.8002    31.3400    22.1100    13.8400     6.4800    -5.6200   -10.4100   -14.3900   -16.8000     2.2723     4.9500     4.800
    109     0.9840    -0.0000     7.0000     0.1500      5.051     32.000  11001.000      5.000    96.9304   142.7102   -74.5796     0.4200    -1.0000    28.5600     0.0000     0.0000    10.4475    95.4866    -1.0000    -1.5000     0.0000     0.0000     0.0000     0.0000    17.0000     8.0000     8.0000    17.0000     0.0000     0.0000   142.0306   -75.9388     0.0000    -4.2998    -2.9995    -1.8994    -0.6005     0.4003     1.8994     2.7994     3.8002    31.3400    22.1100    13.8400     6.4800    -5.6200   -10.4100   -14.3900   -16.8000     2.2705     4.9500     4.800
    110     0.9820    -0.0000     7.0002     0.1500      5.101     39.000  11001.000      5.000    96.9304   142.7102   -74.5796     0.4200    -1.0000    28.5600     0.0000     0.0000    10.4575    95.3876    -1.0000    -1.5000     0.0000     0.0000     0.0000     0.0000    17.0000     8.0000     8.0000    17.0000     0.0000     0.0000   142.0306   -75.9388     0.0000    -4.2998    -2.9995    -1.8994    -0.6005     0.4003     1.8994     2.7994     3.8002    31.3400    22.1100    13.8400     6.4800    -5.6200   -10.4100   -14.3900   -16.8000     2.2687     4.9500     4.800
    111     0.9800    -0.0000     7.0001     0.1500      5.065     31.000  11001.000      5.000    96.9304   142.7102   -74.5796     0.4200    -1.0000    28.5600     0.0000     0.0000    10.4650    95.2889    -1.0000    -1.5000     0.0000     0.0000     0.0000     0.0000    17.0000     8.0000     8.0000    17.0000     0.0000     0.0000   142.0306   -75.9388     0.0000    -4.2998    -2.9995    -1.8994    -0.6005     0.4003     1.8994     2.7994     3.8002    31.3400    22.1100    13.8400     6.4800    -5.6200   -10.4100   -14.3900   -16.8000     2.2669     4.9500     4.800
    112     0.9780    -0.0000     7.0000     0.1500      5.089     39.000  11001.000      5.000    96.9304   142.7102   -74.5796     0.4200    -1.0000    28.5600     0.0000     0.0000    10.4725    95.1904    -1.0000    -1.5000     0.0000     0.0000     0.0000     0.0000    17.0000     8.0000     8.0000    17.0000     0.0000     0.0000   142.0306   -75.9388     0.0000    -4.2998    -2.9995    -1.8994    -0.6005     0.4003     1.8994     2.7994     3.8002    31.3400    22.1100    13.8400     6.4800    -5.6200   -10.4100   -14.3900   -16.8000     2.2652     4.9500     4.800
    113     0.9760    -0.0000     7.0002     0.1500      5.022     56.000  11001.000      5.000    96.9304   142.7102   -74.5796     0.4200    -1.0000    28.5600     0.0000     0.0000    10.4825    95.0921    -1.0000    -1.5000     0.0000     0.0000     0.0000     0.0000    17.0000     8.0000     8.0000    17.0000     0.0000     0.0000   142.0306   -75.9388     0.0000    -4.2998    -2.9995    -1.8994    -0.6005     0.4003     1.8994     2.7994     3.8002    31.3400    22.1100    13.8400     6.4800    -5.6200   -10.4100   -14.3900   -16.8000     2.2634     4.9500     4.800
    114     0.9740    -0.0000     7.0000     0.1500      4.975     46.000  11001.000      5.000    96.9304   142.7102   -74.5796     0.4200    -1.0000    28.5600     0.0000     0.0000    10.4900    94.9940    -1.0000    -1.5000     0.0000     0.0000     0.0000     0.0000    17.0000     8.0000     8.0000    17.0000     0.0000     0.0000   142.0306   -75.9388     0.0000    -4.2998    -2.9995    -1.8994    -0.6005     0.4003     1.8994     2.7994     3.8002    31.3400    22.1100    13.8400     6.4800    -5.6200   -10.4100   -14.3900   -16.8000     2.2616     4.9500     4.800
    115     0.9720    -0.0000     6.9999     0.1500      5.053     45.000  11001.000      5.000    96.9304   142.7102   -74.5796     0.4200    -1.0000    28.5600     0.0000     0.0000    10.4975    94.8962    -1.0000    -1.5000     0.0000     0.0000     0.0000     0.0000    17.0000     8.0000     8.0000    17.0000     0.0000     0.0000   142.0306   -75.9388     0.0000    -4.2998    -2.9995    -1.8994    -0.6005     0.4003     1.8994     2.7994     3.8002    31.3400    22.1100    13.8400     6.4800    -5.6200   -10.4100   -14.3900   -16.8000     2.2598     4.9500     4.800
    116     0.9700    -0.0000     7.0000     0.1500      5.051     28.000  11001.000      5.000    96.9304   142.7102   -74.5796     0.4200    -1.0000    28.5600     0.0000     0.0000    10.5075    94.7985    -1.0000    -1.5000     0.0000     0.0000     0.0000     0.0000    17.0000     8.0000     8.0000    17.0000     0.0000     0.0000   142.0306   -75.9388     0.0000    -4.2998    -2.9995    -1.8994    -0.6005     0.4003     1.8994     2.7994     3.8002    31.3400    22.1100    13.8400     6.4800    -5.6200   -10.4100   -14.3900   -16.8000     2.2581     4.9500     4.800
    117     0.9679    -0.0000     7.0003     0.1500      4.976     47.000  11001.000      5.000    96.9304   142.7102   -74.5796     0.4200    -1.0000    28.5600     0.0000     0.0000    10.5200    94.7011    -1.0000    -1.5000     0.0000     0.0000     0.0000     0.0000    17.0000     8.0000     8.0000    17.0000     0.0000     0.0000   142.0306   -75.9388     0.0000    -4.2998    -2.9995    -1.8994    -0.6005     0.4003     1.8994     2.7994     3.8002    31.3400    22.1100    13.8400     6.4800    -5.6200   -10.4100   -14.3900   -16.8000     2.2563     4.9500     4.800
    118     0.9660    -0.0000     6.9998     0.1500      5.144     37.000  11001.000      5.000    96.9304   142.7102   -74.5796     0.4200    -1.0000    28.5600     0.0000     0.0000    10.5250    94.6039    -1.0000    -1.5000     0.0000     0.0000     0.0000     0.0000    17.0000     8.0000     8.0000    17.0000     0.0000     0.0000   142.0306   -75.9388     0.0000    -4.2998    -2.9995    -1.8994    -0.6005     0.4003     1.8994     2.7994     3.8002    31.3400    22.1100    13.8400     6.4800    -5.6200   -10.4100   -14.3900   -16.8000     2.2545     4.9500     4.800
    119     0.9640    -0.0000     6.9999     0.1500      5.036     37.000  11001.000      5.000    96.9304   142.7102   -74.5796     0.4200    -1.0000    28.5600     0.0000     0.0000    10.5350    94.5069    -1.0000    -1.5000     0.0000     0.0000     0.0000     0.0000    17.0000     8.0000     8.0000    17.0000     0.0000     0.0000   142.0306   -75.9388     0.0000    -4.2998    -2.9995    -1.8994    -0.6005     0.4003     1.8994     2.7994     3.8002    31.3400    22.1100    13.8400     6.4800    -5.6200   -10.4100   -14.3900   -16.8000     2.2528     4.9500     4.800
    120     0.9620    -0.0000     6.9999     0.1500      5.088     25.000  11001.000      5.000    96.9304   142.7102   -74.5796     0.4200    -1.0000    28.5600     0.0000     0.0000    10.5450    94.4101    -1.0000    -1.5000     0.0000     0.0000     0.0000     0.0000    17.0000     8.0000     8.0000    17.0000     0.0000     0.0000   142.0306   -75.9388     0.0000    -4.2998    -2.9995    -1.8994    -0.6005     0.4003     1.8994     2.7994     3.8002    31.3400    22.1100    13.8400     6.4800    -5.6200   -10.4100   -14.3900   -16.8000     2.2510     4.9500     4.800
    121     0.9600    -0.0000     7.0001     0.1500      5.050     53.000  11001.000      5.000    96.9304   142.7102   -74.5796     0.4200    -1.0000    28.5600     0.0000     0.0000    10.5575    94.3135    -1.0000    -1.5000     0.0000     0.0000     0.0000     0.0000    17.0000     8.0000     8.0000    17.0000     0.0000     0.0000   142.0306   -75.9388     0.0000    -4.2998    -2.9995    -1.8994    -0.6005     0.4003     1.8994     2.7994     3.8002    31.3400    22.1100    13.8400     6.4800    -5.6200   -10.4100   -14.3900   -16.8000     2.2493     4.9500     4.800
    122     0.9580    -0.0000     7.0001     0.1500      5.146     38.000  11001.000      5.000    96.9304   142.7102   -74.5796     0.4200    -1.0000    28.5600     0.0000     0.0000    10.5675    94.2172    -1.0000    -1.5000     0.0000     0.0000     0.0000     0.0000    17.0000     8.0000     8.0000    17.0000     0.0000     0.0000   142.0306   -75.9388     0.0000    -4.2998    -2.9995    -1.8994    -0.6005     0.4003     1.8994     2.7994     3.8002    31.3400    22.1100    13.8400     6.4800    -5.6200   -10.4100   -14.3900   -16.8000     2.2475     4.9500     4.800
    123     0.9560    -0.0000     7.0000     0.1500      5.010     31.000  11001.000      5.000    96.9304   142.7102   -74.5796     0.4200    -1.0000    28.5600     0.0000     0.0000    10.5775    94.1210    -1.0000    -1.5000     0.0000     0.0000     0.0000     0.0000    17.0000     8.0000     8.0000    17.0000     0.0000     0.0000   142.0306   -75.9388     0.0000    -4.2998    -2.9995    -1.8994    -0.6005     0.4003     1.8994     2.7994     3.8002    31.3400    22.1100    13.8400     6.4800    -5.6200   -10.4100   -14.3900   -16.8000     2.2458     4.9500     4.800
    124     0.9540    -0.0000     7.0002     0.1500      5.014     46.000  11001.000      5.000    96.9304   142.7102   -74.5796     0.4200    -1.0000    28.5600     0.0000     0.0000    10.5900    94.0251    -1.0000    -1.5000     0.0000     0.0000     0.0000     0.0000    17.0000     8.0000     8.0000    17.0000     0.0000     0.0000   142.0306   -75.9388     0.0000    -4.2998    -2.9995    -1.8994    -0.6005     0.4003     1.8994     2.7994     3.8002    31.3400    22.1100    13.8400     6.4800    -5.6200   -10.4100   -14.3900   -16.8000     2.2440     4.9500     4.800
    125     0.9520    -0.0000     7.0001     0.1500      5.023     39.000  11001.000      5.000    96.9304   142.7102   -74.5796     0.4200    -1.0000    28.5600     0.0000     0.0000    10.6000    93.9294    -1.0000    -1.5000     0.0000     0.0000     0.0000     0.0000    17.0000     8.0000     8.0000    17.0000     0.0000     0.0000   142.0306   -75.9388     0.0000    -4.2998    -2.9995    -1.8994    -0.6005     0.4003     1.8994     2.7994     3.8002    31.3400    22.1100    13.8400     6.4800    -5.6200   -10.4100   -14.3900   -16.8000     2.2423     4.9500     4.800
    126     0.9500    -0.0000     7.0000     0.1500      5.057     36.000  11001.000      5.000    96.9304   142.7102   -74.5796     0.4200    -1.0000    28.5600     0.0000     0.0000    10.6100    93.8338    -1.0000    -1.5000     0.0000     0.0000     0.0000     0.0000    17.0000     8.0000     8.0000    17.0000     0.0000     0.0000   142.0306   -75.9388     0.0000    -4.2998    -2.9995    -1.8994    -0.6005     0.4003     1.8994     2.7994     3.8002    31.3400    22.1100    13.8400     6.4800    -5.6200   -10.4100   -14.3900   -16.8000     2.2405     4.9500     4.800
    127     0.9480    -0.0000     7.0001     0.1500      5.020     35.000  11001.000      5.000    96.9304   142.7102   -74.5796     0.4200    -1.0000    28.5600     0.0000     0.0000    10.6225    93.7386    -1.0000    -1.5000     0.0000     0.0000     0.0000     0.0000    17.0000     8.0000     8.0000    17.0000     0.0000     0.0000   142.0306   -75.9388     0.0000    -4.2998    -2.9995    -1.8994    -0.6005     0.4003     1.8994     2.7994     3.8002    31.3400    22.1100    13.8400     6.4800    -5.6200   -10.4100   -14.3900   -16.8000     2.2388     4.9500     4.800
    128     0.9460    -0.0000     7.0002     0.1500      4.985     35.000  11001.000      5.000    96.9304   142.7102   -74.5796     0.4200    -1.0000    28.5600     0.0000     0.0000    10.6350    93.6434    -1.0000    -1.5000     0.0000     0.0000     0.0000     0.0000    17.0000     8.0000     8.0000    17.0000     0.0000     0.0000   142.0306   -75.9388     0.0000    -4.2998    -2.9995    -1.8994    -0.6005     0.4003     1.8994     2.7994     3.8002    31.3400    22.1100    13.8400     6.4800    -5.6200   -10.4100   -14.3900   -16.8000     2.2370     4.9500     4.800
    129     0.9440    -0.0000     7.0000     0.1500      5.099     33.000  11001.000      5.000    96.9304   142.7102   -74.5796     0.4200    -1.0000    28.5600     0.0000     0.0000    10.6450    93.5486    -1.0000    -1.5000     0.0000     0.0000     0.0000     0.0000    17.0000     8.0000     8.0000    17.0000     0.0000     0.0000   142.0306   -75.9388     0.0000    -4.2998    -2.9995    -1.8994    -0.6005     0.4003     1.8994     2.7994     3.8002    31.3400    22.1100    13.8400     6.4800    -5.6200   -10.4100   -14.3900   -16.8000     2.2353     4.9500     4.800
    130     0.9420    -0.0000     7.0001     0.1500      5.122     21.000  11001.000      5.000    96.9304   142.7102   -74.5796     0.4200    -1.0000    28.5600     0.0000     0.0000    10.6575    93.4539    -1.0000    -1.5000     0.0000     0.0000     0.0000     0.0000    17.0000     8.0000     8.0000    17.0000     0.0000     0.0000   142.0306   -75.9388     0.0000    -4.2998    -2.9995    -1.8994    -0.6005     0.4003     1.8994     2.7994     3.8002    31.3400    22.1100    13.8400     6.4800    -5.6200   -10.4100   -14.3900   -16.8000     2.2336     4.9500     4.800
    131     0.9400    -0.0000     6.9999     0.1500      4.935     31.000  11001.000      5.000    96.9304   142.7102   -74.5796     0.4200    -1.0000    28.5600     0.0000     0.0000    10.6675    93.3594    -1.0000    -1.5000     0.0000     0.0000     0.0000     0.0000    17.0000     8.0000     8.0000    17.0000     0.0000     0.0000   142.0306   -75.9388     0.0000    -4.2998    -2.9995    -1.8994    -0.6005     0.4003     1.8994     2.7994     3.8002    31.3400    22.1100    13.8400     6.4800    -5.6200   -10.4100   -14.3900   -16.8000     2.2318     4.9500     4.800
    132     0.9380    -0.0000     6.9999     0.1500      5.044     31.000  11001.000      5.000    96.9304   142.7102   -74.5796     0.4200    -1.0000    28.5600     0.0000     0.0000    10.6800    93.2652    -1.0000    -1.5000     0.0000     0.0000     0.0000     0.0000    17.0000     8.0000     8.0000    17.0000     0.0000     0.0000   142.0306   -75.9388     0.0000    -4.2998    -2.9995    -1.8994    -0.6005     0.4003     1.8994     2.7994     3.8002    31.3400    22.1100    13.8400     6.4800    -5.6200   -10.4100   -14.3900   -16.8000     2.2301     4.9500     4.800
    133     0.9360    -0.0000     7.0001     0.1500      5.064     20.000  11001.000      5.000    96.9304   142.7102   -74.5796     0.4200    -1.0000    28.5600     0.0000     0.0000    10.6950    93.1712    -1.0000    -1.5000     0.0000     0.0000     0.0000     0.0000    17.0000     8.0000     8.0000    17.0000     0.0000     0.0000   142.0306   -75.9388     0.0000    -4.2998    -2.9995    -1.8994    -0.6005     0.4003     1.8994     2.7994     3.8002    31.3400    22.1100    13.8400     6.4800    -5.6200   -10.4100   -14.3900   -16.8000     2.2284     4.9500     4.800
    134     0.9340    -0.0000     7.0001     0.1500      5.063     25.000  11001.000      5.000    96.9304   142.7102   -74.5796     0.4200    -1.0000    28.5600     0.0000     0.0000    10.7075    93.0773    -1.0000    -1.5000     0.0000     0.0000     0.0000     0.0000    17.0000     8.0000     8.0000    17.0000     0.0000     0.0000   142.0306   -75.9388     0.0000    -4.2998    -2.9995    -1.8994    -0.6005     0.4003     1.8994     2.7994     3.8002    31.3400    22.1100    13.8400     6.4800    -5.6200   -10.4100   -14.3900   -16.8000     2.2266     4.9500     4.800
    135     0.9320    -0.0000     7.0001     0.1500      5.023     34.000  11001.000      5.000    96.9304   142.7102   -74.5796     0.4200    -1.0000    28.5600     0.0000     0.0000    10.7200    92.9837    -1.0000    -1.5000     0.0000     0.0000     0.0000     0.0000    17.0000     8.0000     8.0000    17.0000     0.0000     0.0000   142.0306   -75.9388     0.0000    -4.2998    -2.9995    -1.8994    -0.6005     0.4003     1.8994     2.7994     3.8002    31.3400    22.1100    13.8400     6.4800    -5.6200   -10.4100   -14.3900   -16.8000     2.2249     4.9500     4.800
    136     0.9300    -0.0000     7.0000     0.1500      5.115     21.000  11001.000      5.000    96.9304   142.7102   -74.5796     0.4200    -1.0000    28.5600     0.0000     0.0000    10.7325    92.8903    -1.0000    -1.5000     0.0000     0.0000     0.0000     0.0000    17.0000     8.0000     8.0000    17.0000     0.0000     0.0000   142.0306   -75.9388     0.0000    -4.2998    -2.9995    -1.8994    -0.6005     0.4003     1.8994     2.7994     3.8002    31.3400    22.1100    13.8400     6.4800    -5.6200   -10.4100   -14.3900   -16.8000     2.2232     4.9500     4.800
    137     0.9280    -0.0000     7.0000     0.1500      5.117     20.000  11001.000      5.000    96.9304   142.7102   -74.5796     0.4200    -1.0000    28.5600     0.0000     0.0000    10.7450    92.7971    -1.0000    -1.5000     0.0000     0.0000     0.0000     0.0000    17.0000     8.0000     8.0000    17.0000     0.0000     0.0000   142.0306   -75.9388     0.0000    -4.2998    -2.9995    -1.8994    -0.6005     0.4003     1.8994     2.7994     3.8002    31.3400    22.1100    13.8400     6.4800    -5.6200   -10.4100   -14.3900   -16.8000     2.2215     4.9500     4.800
    138     0.9260    -0.0000     7.0001     0.1500      5.022     21.000  11001.000      5.000    96.9304   142.7102   -74.5796     0.4200    -1.0000    28.5600     0.0000     0.0000    10.7600    92.7041    -1.0000    -1.5000     0.0000     0.0000     0.0000     0.0000    17.0000     8.0000     8.0000    17.0000     0.0000     0.0000   142.0306   -75.9388     0.0000    -4.2998    -2.9995    -1.8994    -0.6005     0.4003     1.8994     2.7994     3.8002    31.3400    22.1100    13.8400     6.4800    -5.6200   -10.4100   -14.3900   -16.8000     2.2197     4.9500     4.800
    139     0.9239    -0.0000     7.0002     0.1500      5.079     18.000  11001.000      5.000    96.9304   142.7102   -74.5796     0.4200    -1.0000    28.5600     0.0000     0.0000    10.7750    92.6113    -1.0000    -1.5000     0.0000     0.0000     0.0000     0.0000    17.0000     8.0000     8.0000    17.0000     0.0000     0.0000   142.0306   -75.9388     0.0000    -4.2998    -2.9995    -1.8994    -0.6005     0.4003     1.8994     2.7994     3.8002    31.3400    22.1100    13.8400     6.4800    -5.6200   -10.4100   -14.3900   -16.8000     2.2180     4.9500     4.800
    140     0.9219    -0.0000     7.0003     0.1500      5.044     17.000  11001.000      5.000    96.9304   142.7102   -74.5796     0.4200    -1.0000    28.5600     0.0000     0.0000    10.7900    92.5187    -1.0000    -1.5000     0.0000     0.0000     0.0000     0.0000    17.0000     8.0000     8.0000    17.0000     0.0000     0.0000   142.0306   -75.9388     0.0000    -4.2998    -2.9995    -1.8994    -0.6005     0.4003     1.8994     2.7994     3.8002    31.3400    22.1100    13.8400     6.4800    -5.6200   -10.4100   -14.3900   -16.8000     2.2163     4.9500     4.800
    141     0.9200    -0.0000     7.0000     0.1500      4.960     18.000  11001.000      5.000    96.9304   142.7102   -74.5796     0.4200    -1.0000    28.5600     0.0000     0.0000    10.8000    92.4264    -1.0000    -1.5000     0.0000     0.0000     0.0000     0.0000    17.0000     8.0000     8.0000    17.0000     0.0000     0.0000   142.0306   -75.9388     0.0000    -4.2998    -2.9995    -1.8994    -0.6005     0.4003     1.8994     2.7994     3.8002    31.3400    22.1100    13.8400     6.4800    -5.6200   -10.4100   -14.3900   -16.8000     2.2146     4.9500     4.800
    142     0.9180    -0.0000     7.0000     0.1500      5.103     20.000  11001.000      5.000    96.9304   142.7102   -74.5796     0.4200    -1.0000    28.5600     0.0000     0.0000    10.8150    92.3342    -1.0000    -1.5000     0.0000     0.0000     0.0000     0.0000    17.0000     8.0000     8.0000    17.0000     0.0000     0.0000   142.0306   -75.9388     0.0000    -4.2998    -2.9995    -1.8994    -0.6005     0.4003     1.8994     2.7994     3.8002    31.3400    22.1100    13.8400     6.4800    -5.6200   -10.4100   -14.3900   -16.8000     2.2129     4.9500     4.800
    143     0.9160    -0.0000     7.0001     0.1500      5.049     18.000  11001.000      5.000    96.9304   142.7102   -74.5796     0.4200    -1.0000    28.5600     0.0000     0.0000    10.8300    92.2422    -1.0000    -1.5000     0.0000     0.0000     0.0000     0.0000    17.0000     8.0000     8.0000    17.0000     0.0000     0.0000   142.0306   -75.9388     0.0000    -4.2998    -2.9995    -1.8994    -0.6005     0.4003     1.8994     2.7994     3.8002    31.3400    22.1100    13.8400     6.4800    -5.6200   -10.4100   -14.3900   -16.8000     2.2112     4.9500     4.800
    144     0.9140    -0.0000     7.0001     0.1500      5.120     16.000  11001.000      5.000    96.9304   142.7102   -74.5796     0.4200    -1.0000    28.5600     0.0000     0.0000    10.8450    92.1505    -1.0000    -1.5000     0.0000     0.0000     0.0000     0.0000    17.0000     8.0000     8.0000    17.0000     0.0000     0.0000   142.0306   -75.9388     0.0000    -4.2998    -2.9995    -1.8994    -0.6005     0.4003     1.8994     2.7994     3.8002    31.3400    22.1100    13.8400     6.4800    -5.6200   -10.4100   -14.3900   -16.8000     2.2095     4.9500     4.800
    145     0.9120    -0.0000     7.0001     0.1500      5.009      9.000  11001.000      5.000    96.9304   142.7102   -74.5796     0.4200    -1.0000    28.5600     0.0000     0.0000    10.8600    92.0590    -1.0000    -1.5000     0.0000     0.0000     0.0000     0.0000    17.0000     8.0000     8.0000    17.0000     0.0000     0.0000   142.0306   -75.9388     0.0000    -4.2998    -2.9995    -1.8994    -0.6005     0.4003     1.8994     2.7994     3.8002    31.3400    22.1100    13.8400     6.4800    -5.6200   -10.4100   -14.3900   -16.8000     2.2078     4.9500     4.800
    146     0.9100    -0.0000     7.0001     0.1500      5.154     16.000  11001.000      5.000    96.9304   142.7102   -74.5796     0.4200    -1.0000    28.5600     0.0000     0.0000    10.8750    91.9676    -1.0000    -1.5000     0.0000     0.0000     0.0000     0.0000    17.0000     8.0000     8.0000    17.0000     0.0000     0.0000   142.0306   -75.9388     0.0000    -4.2998    -2.9995    -1.8994    -0.6005     0.4003     1.8994     2.7994     3.8002    31.3400    22.1100    13.8400     6.4800    -5.6200   -10.4100   -14.3900   -16.8000     2.2061     4.9500     4.800
    147     0.9079    -0.0000     7.0003     0.1500      5.070     22.000  11001.000      5.000    96.9304   142.7102   -74.5796     0.4200    -1.0000    28.5600     0.0000     0.0000    10.8925    91.8765    -1.0000    -1.5000     0.0000     0.0000     0.0000     0.0000    17.0000     8.0000     8.0000    17.0000     0.0000     0.0000   142.0306   -75.9388     0.0000    -4.2998    -2.9995    -1.8994    -0.6005     0.4003     1.8994     2.7994     3.8002    31.3400    22.1100    13.8400     6.4800    -5.6200   -10.4100   -14.3900   -16.8000     2.2044     4.9500     4.800
    148     0.9060    -0.0000     7.0001     0.1500      5.122     15.000  11001.000      5.000    96.9304   142.7102   -74.5796     0.4200    -1.0000    28.5600     0.0000     0.0000    10.9050    91.7855    -1.0000    -1.5000     0.0000     0.0000     0.0000     0.0000    17.0000     8.0000     8.0000    17.0000     0.0000     0.0000   142.0306   -75.9388     0.0000    -4.2998    -2.9995    -1.8994    -0.6005     0.4003     1.8994     2.7994     3.8002    31.3400    22.1100    13.8400     6.4800    -5.6200   -10.4100   -14.3900   -16.8000     2.2027     4.9500     4.800
    149     0.9040    -0.0000     7.0000     0.1500      4.998     18.000  11001.000      5.000    96.9304   142.7102   -74.5796     0.4200    -1.0000    28.5600     0.0000     0.0000    10.9200    91.6948    -1.0000    -1.5000     0.0000     0.0000     0.0000     0.0000    17.0000     8.0000     8.0000    17.0000     0.0000     0.0000   142.0306   -75.9388     0.0000    -4.2998    -2.9995    -1.8994    -0.6005     0.4003     1.8994     2.7994     3.8002    31.3400    22.1100    13.8400     6.4800    -5.6200   -10.4100   -14.3900   -16.8000     2.2010     4.9500     4.800
    150     0.9020    -0.0000     6.9999     0.1500      5.074     17.000  11001.000      5.000    96.9304   142.7102   -74.5796     0.4200    -1.0000    28.5600     0.0000     0.0000    10.9350    91.6043    -1.0000    -1.5000     0.0000     0.0000     0.0000     0.0000    17.0000     8.0000     8.0000    17.0000     0.0000     0.0000   142.0306   -75.9388     0.0000    -4.2998    -2.9995    -1.8994    -0.6005     0.4003     1.8994     2.7994     3.8002    31.3400    22.1100    13.8400     6.4800    -5.6200   -10.4100   -14.3900   -16.8000     2.1993     4.9500     4.800
    151     0.9000    -0.0000     7.0001     0.1500      5.065     25.000  11001.000      5.000    96.9304   142.7102   -74.5796     0.4200    -1.0000    28.5600     0.0000     0.0000    10.9525    91.5140    -1.0000    -1.5000     0.0000     0.0000     0.0000     0.0000    17.0000     8.0000     8.0000    17.0000     0.0000     0.0000   142.0306   -75.9388     0.0000    -4.2998    -2.9995    -1.8994    -0.6005     0.4003     1.8994     2.7994     3.8002    31.3400    22.1100    13.8400     6.4800    -5.6200   -10.4100   -14.3900   -16.8000     2.1976     4.9500     4.800
    152     0.8980    -0.0000     7.0002     0.1500      5.042     11.000  11001.000      5.000    96.9304   142.7102   -74.5796     0.4200    -1.0000    28.5600     0.0000     0.0000    10.9700    91.4239    -1.0000    -1.5000     0.0000     0.0000     0.0000     0.0000    17.0000     8.0000     8.0000    17.0000     0.0000     0.0000   142.0306   -75.9388     0.0000    -4.2998    -2.9995    -1.8994    -0.6005     0.4003     1.8994     2.7994     3.8002    31.3400    22.1100    13.8400     6.4800    -5.6200   -10.4100   -14.3900   -16.8000     2.1960     4.9500     4.800
    153     0.8960    -0.0000     7.0001     0.1500      5.036     15.000  11001.000      5.000    96.9304   142.7102   -74.5796     0.4200    -1.0000    28.5600     0.0000     0.0000    10.9850    91.3340    -1.0000    -1.5000     0.0000     0.0000     0.0000     0.0000    17.0000     8.0000     8.0000    17.0000     0.0000     0.0000   142.0306   -75.9388     0.0000    -4.2998    -2.9995    -1.8994    -0.6005     0.4003     1.8994     2.7994     3.8002    31.3400    22.1100    13.8400     6.4800    -5.6200   -10.4100   -14.3900   -16.8000     2.1943     4.9500     4.800
    154     0.8940    -0.0000     6.9999     0.1500      5.071     22.000  11001.000      5.000    96.9304   142.7102   -74.5796     0.4200    -1.0000    28.5600     0.0000     0.0000    11.0000    91.2442    -1.0000    -1.5000     0.0000     0.0000     0.0000     0.0000    17.0000     8.0000     8.0000    17.0000     0.0000     0.0000   142.0306   -75.9388     0.0000    -4.2998    -2.9995    -1.8994    -0.6005     0.4003     1.8994     2.7994     3.8002    31.3400    22.1100    13.8400     6.4800    -5.6200   -10.4100   -14.3900   -16.8000     2.1926     4.9500     4.800
    155     0.8921    -0.0000     6.9998     0.1500      5.028     24.000  11001.000      5.000    96.9304   142.7102   -74.5796     0.4200    -1.0000    28.5600     0.0000     0.0000    11.0150    91.1548    -1.0000    -1.5000     0.0000     0.0000     0.0000     0.0000    17.0000     8.0000     8.0000    17.0000     0.0000     0.0000   142.0306   -75.9388     0.0000    -4.2998    -2.9995    -1.8994    -0.6005     0.4003     1.8994     2.7994     3.8002    31.3400    22.1100    13.8400     6.4800    -5.6200   -10.4100   -14.3900   -16.8000     2.1909     4.9500     4.800
    156     0.8900    -0.0000     7.0000     0.1500      4.990     16.000  11001.000      5.000    96.9304   142.7102   -74.5796     0.4200    -1.0000    28.5600     0.0000     0.0000    11.0350    91.0654    -1.0000    -1.5000     0.0000     0.0000     0.0000     0.0000    17.0000     8.0000     8.0000    17.0000     0.0000     0.0000   142.0306   -75.9388     0.0000    -4.2998    -2.9995    -1.8994    -0.6005     0.4003     1.8994     2.7994     3.8002    31.3400    22.1100    13.8400     6.4800    -5.6200   -10.4100   -14.3900   -16.8000     2.1892     4.9500     4.800
    157     0.8880    -0.0000     7.0001     0.1500      5.107     21.000  11001.000      5.000    96.9304   142.7102   -74.5796     0.4200    -1.0000    28.5600     0.0000     0.0000    11.0525    90.9764    -1.0000    -1.5000     0.0000     0.0000     0.0000     0.0000    17.0000     8.0000     8.0000    17.0000     0.0000     0.0000   142.0306   -75.9388     0.0000    -4.2998    -2.9995    -1.8994    -0.6005     0.4003     1.8994     2.7994     3.8002    31.3400    22.1100    13.8400     6.4800    -5.6200   -10.4100   -14.3900   -16.8000     2.1876     4.9500     4.800
    158     0.8860    -0.0000     7.0001     0.1500      5.036     19.000  11001.000      5.000    96.9304   142.7102   -74.5796     0.4200    -1.0000    28.5600     0.0000     0.0000    11.0700    90.8875    -1.0000    -1.5000     0.0000     0.0000     0.0000     0.0000    17.0000     8.0000     8.0000    17.0000     0.0000     0.0000   142.0306   -75.9388     0.0000    -4.2998    -2.9995    -1.8994    -0.6005     0.4003     1.8994     2.7994     3.8002    31.3400    22.1100    13.8400     6.4800    -5.6200   -10.4100   -14.3900   -16.8000     2.1859     4.9500     4.800
    159     0.8840    -0.0000     7.0001     0.1500      5.077     14.000  11001.000      5.000    96.9304   142.7102   -74.5796     0.4200    -1.0000    28.5600     0.0000     0.0000    11.0875    90.7988    -1.0000    -1.5000     0.0000     0.0000     0.0000     0.0000    17.0000     8.0000     8.0000    17.0000     0.0000     0.0000   142.0306   -75.9388     0.0000    -4.2998    -2.9995    -1.8994    -0.6005     0.4003     1.8994     2.7994     3.8002    31.3400    22.1100    13.8400     6.4800    -5.6200   -10.4100   -14.3900   -16.8000     2.1842     4.9500     4.800
    160     0.8820    -0.0000     7.0001     0.1500      5.075     10.000  11001.000      5.000    96.9304   142.7102   -74.5796     0.4200    -1.0000    28.5600     0.0000     0.0000    11.1050    90.7103    -1.0000    -1.5000     0.0000     0.0000     0.0000     0.0000    17.0000     8.0000     8.0000    17.0000     0.0000     0.0000   142.0306   -75.9388     0.0000    -4.2998    -2.9995    -1.8994    -0.6005     0.4003     1.8994     2.7994     3.8002    31.3400    22.1100    13.8400     6.4800    -5.6200   -10.4100   -14.3900   -16.8000     2.1826     4.9500     4.800
    161     0.8800    -0.0000     7.0000     0.1500      5.040     20.000  11001.000      5.000    96.9304   142.7102   -74.5796     0.4200    -1.0000    28.5600     0.0000     0.0000    11.1225    90.6220    -1.0000    -1.5000     0.0000     0.0000     0.0000     0.0000    17.0000     8.0000     8.0000    17.0000     0.0000     0.0000   142.0306   -75.9388     0.0000    -4.2998    -2.9995    -1.8994    -0.6005     0.4003     1.8994     2.7994     3.8002    31.3400    22.1100    13.8400     6.4800    -5.6200   -10.4100   -14.3900   -16.8000     2.1809     4.9500     4.800
    162     0.8779    -0.0000     7.0004     0.1500      5.018     13.000  11001.000      5.000    96.9304   142.7102   -74.5796     0.4200    -1.0000    28.5600     0.0000     0.0000    11.1450    90.5339    -1.0000    -1.5000     0.0000     0.0000     0.0000     0.0000    17.0000     8.0000     8.0000    17.0000     0.0000     0.0000   142.0306   -75.9388     0.0000    -4.2998    -2.9995    -1.8994    -0.6005     0.4003     1.8994     2.7994     3.8002    31.3400    22.1100    13.8400     6.4800    -5.6200   -10.4100   -14.3900   -16.8000     2.1793     4.9500     4.800
    163     0.8760    -0.0000     7.0001     0.1500      5.055     12.000  11001.000      5.000    96.9304   142.7102   -74.5796     0.4200    -1.0000    28.5600     0.0000     0.0000    11.1600    90.4460    -1.0000    -1.5000     0.0000     0.0000     0.0000     0.0000    17.0000     8.0000     8.0000    17.0000     0.0000     0.0000   142.0306   -75.9388     0.0000    -4.2998    -2.9995    -1.8994    -0.6005     0.4003     1.8994     2.7994     3.8002    31.3400    22.1100    13.8400     6.4800    -5.6200   -10.4100   -14.3900   -16.8000     2.1776     4.9500     4.800
    164     0.8740    -0.0000     7.0000     0.1500      5.045     17.000  11001.000      5.000    96.9304   142.7102   -74.5796     0.4200    -1.0000    28.5600     0.0000     0.0000    11.1775    90.3584    -1.0000    -1.5000     0.0000     0.0000     0.0000     0.0000    17.0000     8.0000     8.0000    17.0000     0.0000     0.0000   142.0306   -75.9388     0.0000    -4.2998    -2.9995    -1.8994    -0.6005     0.4003     1.8994     2.7994     3.8002    31.3400    22.1100    13.8400     6.4800    -5.6200   -10.4100   -14.3900   -16.8000     2.1759     4.9500     4.800
    165     0.8720    -0.0000     7.0001     0.1500      4.925     13.000  11001.000      5.000    96.9304   142.7102   -74.5796     0.4200    -1.0000    28.5600     0.0000     0.0000    11.1975    90.2709    -1.0000    -1.5000     0.0000     0.0000     0.0000     0.0000    17.0000     8.0000     8.0000    17.0000     0.0000     0.0000   142.0306   -75.9388     0.0000    -4.2998    -2.9995    -1.8994    -0.6005     0.4003     1.8994     2.7994     3.8002    31.3400    22.1100    13.8400     6.4800    -5.6200   -10.4100   -14.3900   -16.8000     2.1743     4.9500     4.800
    166     0.8700    -0.0000     7.0000     0.1500      5.040     22.000  11001.000      5.000    96.9304   142.7102   -74.5796     0.4200    -1.0000    28.5600     0.0000     0.0000    11.2150    90.1836    -1.0000    -1.5000     0.0000     0.0000     0.0000     0.0000    17.0000     8.0000     8.0000    17.0000     0.0000     0.0000   142.0306   -75.9388     0.0000    -4.2998    -2.9995    -1.8994    -0.6005     0.4003     1.8994     2.7994     3.8002    31.3400    22.1100    13.8400     6.4800    -5.6200   -10.4100   -14.3900   -16.8000     2.1726     4.9500     4.800
    167     0.8680    -0.0000     7.0001     0.1500      5.051     16.000  11001.000      5.000    96.9304   142.7102   -74.5796     0.4200    -1.0000    28.5600     0.0000     0.0000    11.2350    90.0965    -1.0000    -1.5000     0.0000     0.0000     0.0000     0.0000    17.0000     8.0000     8.0000    17.0000     0.0000     0.0000   142.0306   -75.9388     0.0000    -4.2998    -2.9995    -1.8994    -0.6005     0.4003     1.8994     2.7994     3.8002    31.3400    22.1100    13.8400     6.4800    -5.6200   -10.4100   -14.3900   -16.8000     2.1710     4.9500     4.800
    168     0.8660    -0.0000     7.0002     0.1500      5.073     16.000  11001.000      5.000    96.9304   142.7102   -74.5796     0.4200    -1.0000    28.5600     0.0000     0.0000    11.2550    90.0097    -1.0000    -1.5000     0.0000     0.0000     0.0000     0.0000    17.0000     8.0000     8.0000    17.0000     0.0000     0.0000   142.0306   -75.9388     0.0000    -4.2998    -2.9995    -1.8994    -0.6005     0.4003     1.8994     2.7994     3.8002    31.3400    22.1100    13.8400     6.4800    -5.6200   -10.4100   -14.3900   -16.8000     2.1694     4.9500     4.800
    169     0.8640    -0.0000     7.0000     0.1500      5.016     11.000  11001.000      5.000    96.9304   142.7102   -74.5796     0.4200    -1.0000    28.5600     0.0000     0.0000    11.2725    89.9230    -1.0000    -1.5000     0.0000     0.0000     0.0000     0.0000    17.0000     8.0000     8.0000    17.0000     0.0000     0.0000   142.0306   -75.9388     0.0000    -4.2998    -2.9995    -1.8994    -0.6005     0.4003     1.8994     2.7994     3.8002    31.3400    22.1100    13.8400     6.4800    -5.6200   -10.4100   -14.3900   -16.8000     2.1677     4.9500     4.800
    170     0.8619    -0.0000     7.0002     0.1500      4.974     17.000  11001.000      5.000    96.9304   142.7102   -74.5796     0.4200    -1.0000    28.5600     0.0000     0.0000    11.2950    89.8365    -1.0000    -1.5000     0.0000     0.0000     0.0000     0.0000    17.0000     8.0000     8.0000    17.0000     0.0000     0.0000   142.0306   -75.9388     0.0000    -4.2998    -2.9995    -1.8994    -0.6005     0.4003     1.8994     2.7994     3.8002    31.3400    22.1100    13.8400     6.4800    -5.6200   -10.4100   -14.3900   -16.8000     2.1661     4.9500     4.800
    171     0.8600    -0.0000     7.0000     0.1500      5.056     14.000  11001.000      5.000    96.9304   142.7102   -74.5796     0.4200    -1.0000    28.5600     0.0000     0.0000    11.3125    89.7502    -1.0000    -1.5000     0.0000     0.0000     0.0000     0.0000    17.0000     8.0000     8.0000    17.0000     0.0000     0.0000   142.0306   -75.9388     0.0000    -4.2998    -2.9995    -1.8994    -0.6005     0.4003     1.8994     2.7994     3.8002    31.3400    22.1100    13.8400     6.4800    -5.6200   -10.4100   -14.3900   -16.8000     2.1644     4.9500     4.800
    172     0.8580    -0.0000     7.0000     0.1500      5.078     23.000  11001.000      5.000    96.9304   142.7102   -74.5796     0.4200    -1.0000    28.5600     0.0000     0.0000    11.3325    89.6642    -1.0000    -1.5000     0.0000     0.0000     0.0000     0.0000    17.0000     8.0000     8.0000    17.0000     0.0000     0.0000   142.0306   -75.9388     0.0000    -4.2998    -2.9995    -1.8994    -0.6005     0.4003     1.8994     2.7994     3.8002    31.3400    22.1100    13.8400     6.4800    -5.6200   -10.4100   -14.3900   -16.8000     2.1628     4.9500     4.800
    173     0.8559    -0.0000     7.0002     0.1500      5.183     19.000  11001.000      5.000    96.9304   142.7102   -74.5796     0.4200    -1.0000    28.5600     0.0000     0.0000    11.3550    89.5783    -1.0000    -1.5000     0.0000     0.0000     0.0000     0.0000    17.0000     8.0000     8.0000    17.0000     0.0000     0.0000   142.0306   -75.9388     0.0000    -4.2998    -2.9995    -1.8994    -0.6005     0.4003     1.8994     2.7994     3.8002    31.3400    22.1100    13.8400     6.4800    -5.6200   -10.4100   -14.3900   -16.8000     2.1612     4.9500     4.800
    174     0.8540    -0.0000     7.0002     0.1500      5.120     20.000  11001.000      5.000    96.9304   142.7102   -74.5796     0.4200    -1.0000    28.5600     0.0000     0.0000    11.3750    89.4926    -1.0000    -1.5000     0.0000     0.0000     0.0000     0.0000    17.0000     8.0000     8.0000    17.0000     0.0000     0.0000   142.0306   -75.9388     0.0000    -4.2998    -2.9995    -1.8994    -0.6005     0.4003     1.8994     2.7994     3.8002    31.3400    22.1100    13.8400     6.4800    -5.6200   -10.4100   -14.3900   -16.8000     2.1595     4.9500     4.800
    175     0.8520    -0.0000     6.9999     0.1500      5.060     19.000  11001.000      5.000    96.9304   142.7102   -74.5796     0.4200    -1.0000    28.5600     0.0000     0.0000    11.3925    89.4071    -1.0000    -1.5000     0.0000     0.0000     0.0000     0.0000    17.0000     8.0000     8.0000    17.0000     0.0000     0.0000   142.0306   -75.9388     0.0000    -4.2998    -2.9995    -1.8994    -0.6005     0.4003     1.8994     2.7994     3.8002    31.3400    22.1100    13.8400     6.4800    -5.6200   -10.4100   -14.3900   -16.8000     2.1579     4.9500     4.800
    176     0.8500    -0.0000     7.0000     0.1500      5.078     20.000  11001.000      5.000    96.9304   142.7102   -74.5796     0.4200    -1.0000    28.5600     0.0000     0.0000    11.4150    89.3218    -1.0000    -1.5000     0.0000     0.0000     0.0000     0.0000    17.0000     8.0000     8.0000    17.0000     0.0000     0.0000   142.0306   -75.9388     0.0000    -4.2998    -2.9995    -1.8994    -0.6005     0.4003     1.8994     2.7994     3.8002    31.3400    22.1100    13.8400     6.4800    -5.6200   -10.4100   -14.3900   -16.8000     2.1563     4.9500     4.800
    177     0.8480    -0.0000     7.0002     0.1500      5.057     14.000  11001.000      5.000    96.9304   142.7102   -74.5796     0.4200    -1.0000    28.5600     0.0000     0.0000    11.4375    89.2368    -1.0000    -1.5000     0.0000     0.0000     0.0000     0.0000    17.0000     8.0000     8.0000    17.0000     0.0000     0.0000   142.0306   -75.9388     0.0000    -4.2998    -2.9995    -1.8994    -0.6005     0.4003     1.8994     2.7994     3.8002    31.3400    22.1100    13.8400     6.4800    -5.6200   -10.4100   -14.3900   -16.8000     2.1547     4.9500     4.800
    178     0.8460    -0.0000     7.0001     0.1500      5.070     12.000  11001.000      5.000    96.9304   142.7102   -74.5796     0.4200    -1.0000    28.5600     0.0000     0.0000    11.4575    89.1519    -1.0000    -1.5000     0.0000     0.0000     0.0000     0.0000    17.0000     8.0000     8.0000    17.0000     0.0000     0.0000   142.0306   -75.9388     0.0000    -4.2998    -2.9995    -1.8994    -0.6005     0.4003     1.8994     2.7994     3.8002    31.3400    22.1100    13.8400     6.4800    -5.6200   -10.4100   -14.3900   -16.8000     2.1531     4.9500     4.800
    179     0.8440    -0.0000     6.9999     0.1500      5.037     16.000  11001.000      5.000    96.9304   142.7102   -74.5796     0.4200    -1.0000    28.5600     0.0000     0.0000    11.4775    89.0672    -1.0000    -1.5000     0.0000     0.0000     0.0000     0.0000    17.0000     8.0000     8.0000    17.0000     0.0000     0.0000   142.0306   -75.9388     0.0000    -4.2998    -2.9995    -1.8994    -0.6005     0.4003     1.8994     2.7994     3.8002    31.3400    22.1100    13.8400     6.4800    -5.6200   -10.4100   -14.3900   -16.8000     2.1514     4.9500     4.800
    180     0.8420    -0.0000     7.0000     0.1500      5.046     20.000  11001.000      5.000    96.9304   142.7102   -74.5796     0.4200    -1.0000    28.5600     0.0000     0.0000    11.5000    88.9827    -1.0000    -1.5000     0.0000     0.0000     0.0000     0.0000    17.0000     8.0000     8.0000    17.0000     0.0000     0.0000   142.0306   -75.9388     0.0000    -4.2998    -2.9995    -1.8994    -0.6005     0.4003     1.8994     2.7994     3.8002    31.3400    22.1100    13.8400     6.4800    -5.6200   -10.4100   -14.3900   -16.8000     2.1498     4.9500     4.800
    181     0.8400    -0.0000     6.9999     0.1500      4.990     20.000  11001.000      5.000    96.9304   142.7102   -74.5796     0.4200    -1.0000    28.5600     0.0000     0.0000    11.5200    88.8984    -1.0000    -1.5000     0.0000     0.0000     0.0000     0.0000    17.0000     8.0000     8.0000    17.0000     0.0000     0.0000   142.0306   -75.9388     0.0000    -4.2998    -2.9995    -1.8994    -0.6005     0.4003     1.8994     2.7994     3.8002    31.3400    22.1100    13.8400     6.4800    -5.6200   -10.4100   -14.3900   -16.8000     2.1482     4.9500     4.800
    182     0.8380    -0.0000     6.9999     0.1500      5.130     18.000  11001.000      5.000    96.9304   142.7102   -74.5796     0.4200    -1.0000    28.5600     0.0000     0.0000    11.5425    88.8144    -1.0000    -1.5000     0.0000     0.0000     0.0000     0.0000    17.0000     8.0000     8.0000    17.0000     0.0000     0.0000   142.0306   -75.9388     0.0000    -4.2998    -2.9995    -1.8994    -0.6005     0.4003     1.8994     2.7994     3.8002    31.3400    22.1100    13.8400     6.4800    -5.6200   -10.4100   -14.3900   -16.8000     2.1466     4.9500     4.800
    183     0.8360    -0.0000     6.9999     0.1500      5.043     18.000  11001.000      5.000    96.9304   142.7102   -74.5796     0.4200    -1.0000    28.5600     0.0000     0.0000    11.5650    88.7305    -1.0000    -1.5000     0.0000     0.0000     0.0000     0.0000    17.0000     8.0000     8.0000    17.0000     0.0000     0.0000   142.0306   -75.9388     0.0000    -4.2998    -2.9995    -1.8994    -0.6005     0.4003     1.8994     2.7994     3.8002    31.3400    22.1100    13.8400     6.4800    -5.6200   -10.4100   -14.3900   -16.8000     2.1450     4.9500     4.800
    184     0.8340    -0.0000     7.0001     0.1500      5.040     22.000  11001.000      5.000    96.9304   142.7102   -74.5796     0.4200    -1.0000    28.5600     0.0000     0.0000    11.5900    88.6468    -1.0000    -1.5000     0.0000     0.0000     0.0000     0.0000    17.0000     8.0000     8.0000    17.0000     0.0000     0.0000   142.0306   -75.9388     0.0000    -4.2998    -2.9995    -1.8994    -0.6005     0.4003     1.8994     2.7994     3.8002    31.3400    22.1100    13.8400     6.4800    -5.6200   -10.4100   -14.3900   -16.8000     2.1434     4.9500     4.800
    185     0.8320    -0.0000     6.9999     0.1500      5.105     18.000  11001.000      5.000    96.9304   142.7102   -74.5796     0.4200    -1.0000    28.5600     0.0000     0.0000    11.6100    88.5633    -1.0000    -1.5000     0.0000     0.0000     0.0000     0.0000    17.0000     8.0000     8.0000    17.0000     0.0000     0.0000   142.0306   -75.9388     0.0000    -4.2998    -2.9995    -1.8994    -0.6005     0.4003     1.8994     2.7994     3.8002    31.3400    22.1100    13.8400     6.4800    -5.6200   -10.4100   -14.3900   -16.8000     2.1418     4.9500     4.800
    186     0.8300    -0.0000     7.0001     0.1500      5.089     14.000  11001.000      5.000    96.9304   142.7102   -74.5796     0.4200    -1.0000    28.5600     0.0000     0.0000    11.6350    88.4800    -1.0000    -1.5000     0.0000     0.0000     0.0000     0.0000    17.0000     8.0000     8.0000    17.0000     0.0000     0.0000   142.0306   -75.9388     0.0000    -4.2998    -2.9995    -1.8994    -0.6005     0.4003     1.8994     2.7994     3.8002    31.3400    22.1100    13.8400     6.4800    -5.6200   -10.4100   -14.3900   -16.8000     2.1402     4.9500     4.800
    187     0.8280    -0.0000     7.0001     0.1500      5.118     25.000  11001.000      5.000    96.9304   142.7102   -74.5796     0.4200    -1.0000    28.5600     0.0000     0.0000    11.6575    88.3969    -1.0000    -1.5000     0.0000     0.0000     0.0000     0.0000    17.0000     8.0000     8.0000    17.0000     0.0000     0.0000   142.0306   -75.9388     0.0000    -4.2998    -2.9995    -1.8994    -0.6005     0.4003     1.8994     2.7994     3.8002    31.3400    22.1100    13.8400     6.4800    -5.6200   -10.4100   -14.3900   -16.8000     2.1386     4.9500     4.800
    188     0.8259    -0.0000     7.0002     0.1500      5.141     12.000  11001.000      5.000    96.9304   142.7102   -74.5796     0.4200    -1.0000    28.5600     0.0000     0.0000    11.6825    88.3140    -1.0000    -1.5000     0.0000     0.0000     0.0000     0.0000    17.0000     8.0000     8.0000    17.0000     0.0000     0.0000   142.0306   -75.9388     0.0000    -4.2998    -2.9995    -1.8994    -0.6005     0.4003     1.8994     2.7994     3.8002    31.3400    22.1100    13.8400     6.4800    -5.6200   -10.4100   -14.3900   -16.8000     2.1370     4.9500     4.800
    189     0.8240    -0.0000     7.0001     0.1500      5.025     17.000  11001.000      5.000    96.9304   142.7102   -74.5796     0.4200    -1.0000    28.5600     0.0000     0.0000    11.7050    88.2313    -1.0000    -1.5000     0.0000     0.0000     0.0000     0.0000    17.0000     8.0000     8.0000    17.0000     0.0000     0.0000   142.0306   -75.9388     0.0000    -4.2998    -2.9995    -1.8994    -0.6005     0.4003     1.8994     2.7994     3.8002    31.3400    22.1100    13.8400     6.4800    -5.6200   -10.4100   -14.3900   -16.8000     2.1354     4.9500     4.800
    190     0.8220    -0.0000     7.0001     0.1500      5.134     18.000  11001.000      5.000    96.9304   142.7102   -74.5796     0.4200    -1.0000    28.5600     0.0000     0.0000    11.7275    88.1488    -1.0000    -1.5000     0.0000     0.0000     0.0000     0.0000    17.0000     8.0000     8.0000    17.0000     0.0000     0.0000   142.0306   -75.9388     0.0000    -4.2998    -2.9995    -1.8994    -0.6005     0.4003     1.8994     2.7994     3.8002    31.3400    22.1100    13.8400     6.4800    -5.6200   -10.4100   -14.3900   -16.8000     2.1339     4.9500     4.800
    191     0.8200    -0.0000     7.0000     0.1500      5.156     15.000  11001.000      5.000    96.9304   142.7102   -74.5796     0.4200    -1.0000    28.5600     0.0000     0.0000    11.7500    88.0665    -1.0000    -1.5000     0.0000     0.0000     0.0000     0.0000    17.0000     8.0000     8.0000    17.0000     0.0000     0.0000   142.0306   -75.9388     0.0000    -4.2998    -2.9995    -1.8994    -0.6005     0.4003     1.8994     2.7994     3.8002    31.3400    22.1100    13.8400     6.4800    -5.6200   -10.4100   -14.3900   -16.8000     2.1323     4.9500     4.800
    192     0.8180    -0.0000     7.0000     0.1500      5.121     14.000  11001.000      5.000    96.9304   142.7102   -74.5796     0.4200    -1.0000    28.5600     0.0000     0.0000    11.7750    87.9844    -1.0000    -1.5000     0.0000     0.0000     0.0000     0.0000    17.0000     8.0000     8.0000    17.0000     0.0000     0.0000   142.0306   -75.9388     0.0000    -4.2998    -2.9995    -1.8994    -0.6005     0.4003     1.8994     2.7994     3.8002    31.3400    22.1100    13.8400     6.4800    -5.6200   -10.4100   -14.3900   -16.8000     2.1307     4.9500     4.800
    193     0.8160    -0.0000     7.0001     0.1500      5.110     16.000  11001.000      5.000    96.9304   142.7102   -74.5796     0.4200    -1.0000    28.5600     0.0000     0.0000    11.8000    87.9024    -1.0000    -1.5000     0.0000     0.0000     0.0000     0.0000    17.0000     8.0000     8.0000    17.0000     0.0000     0.0000   142.0306   -75.9388     0.0000    -4.2998    -2.9995    -1.8994    -0.6005     0.4003     1.8994     2.7994     3.8002    31.3400    22.1100    13.8400     6.4800    -5.6200   -10.4100   -14.3900   -16.8000     2.1291     4.9500     4.800
    194     0.8140    -0.0000     7.0000     0.1500      4.982     15.000  11001.000      5.000    96.9304   142.7102   -74.5796     0.4200    -1.0000    28.5600     0.0000     0.0000    11.8225    87.8207    -1.0000    -1.5000     0.0000     0.0000     0.0000     0.0000    17.0000     8.0000     8.0000    17.0000     0.0000     0.0000   142.0306   -75.9388     0.0000    -4.2998    -2.9995    -1.8994    -0.6005     0.4003     1.8994     2.7994     3.8002    31.3400    22.1100    13.8400     6.4800    -5.6200   -10.4100   -14.3900   -16.8000     2.1275     4.9500     4.800
    195     0.8120    -0.0000     7.0000     0.1500      5.057     12.000  11001.000      5.000    96.9304   142.7102   -74.5796     0.4200    -1.0000    28.5600     0.0000     0.0000    11.8475    87.7392    -1.0000    -1.5000     0.0000     0.0000     0.0000     0.0000    17.0000     8.0000     8.0000    17.0000     0.0000     0.0000   142.0306   -75.9388     0.0000    -4.2998    -2.9995    -1.8994    -0.6005     0.4003     1.8994     2.7994     3.8002    31.3400    22.1100    13.8400     6.4800    -5.6200   -10.4100   -14.3900   -16.8000     2.1260     4.9500     4.800
    196     0.8100    -0.0000     6.9998     0.1500      5.019     19.000  11001.000      5.000    96.9304   142.7102   -74.5796     0.4200    -1.0000    28.5600     0.0000     0.0000    11.8700    87.6578    -1.0000    -1.5000     0.0000     0.0000     0.0000     0.0000    17.0000     8.0000     8.0000    17.0000     0.0000     0.0000   142.0306   -75.9388     0.0000    -4.2998    -2.9995    -1.8994    -0.6005     0.4003     1.8994     2.7994     3.8002    31.3400    22.1100    13.8400     6.4800    -5.6200   -10.4100   -14.3900   -16.8000     2.1244     4.9500     4.800
    197     0.8079    -0.0000     7.0002     0.1500      5.107     16.000  11001.000      5.000    96.9304   142.7102   -74.5796     0.4200    -1.0000    28.5600     0.0000     0.0000    11.9000    87.5767    -1.0000    -1.5000     0.0000     0.0000     0.0000     0.0000    17.0000     8.0000     8.0000    17.0000     0.0000     0.0000   142.0306   -75.9388     0.0000    -4.2998    -2.9995    -1.8994    -0.6005     0.4003     1.8994     2.7994     3.8002    31.3400    22.1100    13.8400     6.4800    -5.6200   -10.4100   -14.3900   -16.8000     2.1228     4.9500     4.800
    198     0.8059    -0.0000     7.0002     0.1500      5.083     16.000  11001.000      5.000    96.9304   142.7102   -74.5796     0.4200    -1.0000    28.5600     0.0000     0.0000    11.9250    87.4958    -1.0000    -1.5000     0.0000     0.0000     0.0000     0.0000    17.0000     8.0000     8.0000    17.0000     0.0000     0.0000   142.0306   -75.9388     0.0000    -4.2998    -2.9995    -1.8994    -0.6005     0.4003     1.8994     2.7994     3.8002    31.3400    22.1100    13.8400     6.4800    -5.6200   -10.4100   -14.3900   -16.8000     2.1213     4.9500     4.800
    199     0.8039    -0.0000     7.0002     0.1500      5.106     15.000  11001.000      5.000    96.9304   142.7102   -74.5796     0.4200    -1.0000    28.5600     0.0000     0.0000    11.9500    87.4150    -1.0000    -1.5000     0.0000     0.0000     0.0000     0.0000    17.0000     8.0000     8.0000    17.0000     0.0000     0.0000   142.0306   -75.9388     0.0000    -4.2998    -2.9995    -1.8994    -0.6005     0.4003     1.8994     2.7994     3.8002    31.3400    22.1100    13.8400     6.4800    -5.6200   -10.4100   -14.3900   -16.8000     2.1197     4.9500     4.800
    200     0.8020    -0.0000     7.0000     0.1500      5.157     15.000  11001.000      5.000    96.9304   142.7102   -74.5796     0.4200    -1.0000    28.5600     0.0000     0.0000    11.9725    87.3345    -1.0000    -1.5000     0.0000     0.0000     0.0000     0.0000    17.0000     8.0000     8.0000    17.0000     0.0000     0.0000   142.0306   -75.9388     0.0000    -4.2998    -2.9995    -1.8994    -0.6005     0.4003     1.8994     2.7994     3.8002    31.3400    22.1100    13.8400     6.4800    -5.6200   -10.4100   -14.3900   -16.8000     2.1181     4.9500     4.800
    201     0.8000    -0.0000     7.0001     0.1500      5.073     11.000  11001.000      5.000    96.9304   142.7102   -74.5796     0.4200    -1.0000    28.5600     0.0000     0.0000    12.0000    87.2542    -1.0000    -1.5000     0.0000     0.0000     0.0000     0.0000    17.0000     8.0000     8.0000    17.0000     0.0000     0.0000   142.0306   -75.9388     0.0000    -4.2998    -2.9995    -1.8994    -0.6005     0.4003     1.8994     2.7994     3.8002    31.3400    22.1100    13.8400     6.4800    -5.6200   -10.4100   -14.3900   -16.8000     2.1166     4.9500     4.800
# Sum of Counts = 5319
# Center of Mass = 1.011281+/-0.019658
# Full Width Half-Maximum = 0.201198+/-0.003538
# 10:53:48 AM  3/12/2025   scan completed.
