# scan = 268
# date = 3/13/2025
# time = 8:43:45 AM
# proposal = 35030
# experiment = CTAX Instrumental resolution benchmarking
# experiment_number = 445
# command = scan h 0 k 0 l 4.5 3.5 0.01 e 0.15 preset mcu 5
# builtin_command = scan h 0 k 0 l 4.5 3.5 0.01 e 0.15 preset mcu 5
# users = Tao Hong, Tao Hong, Bing Li
# local_contact = Tao Hong
# scan_title = (00L) scan at E=0.15 meV and hori-focusing
# monochromator = PG002
# analyzer = Pg002
# sense = -+-
# collimation = 48-40-40-120
# samplename = LaN
# sampletype = crystal
# samplemosaic = 30.000000
# latticeconstants = 5.058628,5.058628,24.728465,90.000000,90.000000,120.000000
# ubmatrix = -0.002928,0.001986,-0.040430,-0.228168,-0.119258,0.000500,-0.005924,0.194622,0.000719
# mode = 0
# plane_normal = 0.017452,-0.026173,0.999505
# ubconf = UB10Mar2025_114214AM.ini
# preset_type = normal 
# preset_channel = mcu
# preset_value = 5.000000
# def_x = l
# def_y = detector
# col_headers = 
#   Pt.          h          k          l          e       time   detector    monitor        mcu focal_length         m1         m2       marc     mtrans     mfocus   vti_temp  smpl_temp         s1         s2        sgl        sgu        bbb        bbl        bbr        bbt        bab        bal        bar        bat        stl        stu         a1         a2     afocus        qm1        qm2        qm3        qm4        qm5        qm6        qm7        qm8        xm1        xm2        xm3        xm4        xm5        xm6        xm7        xm8          q         ei         ef
      1     0.0000    -0.0000     4.5000     0.1500      4.964     41.000  11001.000      5.000    96.9304   142.7102   -74.5796     0.4200    -1.0000    28.5600     0.0000     0.0000    23.7125    43.7602    -1.0000    -1.5000     0.0000     0.0000     0.0000     0.0000    17.0000     8.0000     8.0000    17.0000     0.0000     0.0000   142.0306   -75.9388     0.0000    -4.2998    -2.9995    -1.8994    -0.6005     0.4003     1.8994     2.7994     3.8002    31.3400    22.1100    13.8400     6.4800    -5.6200   -10.4100   -14.3900   -16.8000     1.1434     4.9500     4.800
      2    -0.0000    -0.0000     4.4900     0.1500      4.985     34.000  11001.000      5.000    96.9304   142.7102   -74.5796     0.4200    -1.0000    28.5600     0.0000     0.0000    23.6650    43.6579    -1.0000    -1.5000     0.0000     0.0000     0.0000     0.0000    17.0000     8.0000     8.0000    17.0000     0.0000     0.0000   142.0306   -75.9388     0.0000    -4.2998    -2.9995    -1.8994    -0.6005     0.4003     1.8994     2.7994     3.8002    31.3400    22.1100    13.8400     6.4800    -5.6200   -10.4100   -14.3900   -16.8000     1.1409     4.9500     4.800
      3     0.0000    -0.0000     4.4800     0.1500      5.031     50.000  11001.000      5.000    96.9304   142.7102   -74.5796     0.4200    -1.0000    28.5600     0.0000     0.0000    23.6150    43.5556    -1.0000    -1.5000     0.0000     0.0000     0.0000     0.0000    17.0000     8.0000     8.0000    17.0000     0.0000     0.0000   142.0306   -75.9388     0.0000    -4.2998    -2.9995    -1.8994    -0.6005     0.4003     1.8994     2.7994     3.8002    31.3400    22.1100    13.8400     6.4800    -5.6200   -10.4100   -14.3900   -16.8000     1.1383     4.9500     4.800
      4     0.0000    -0.0000     4.4700     0.1500      5.031     42.000  11001.000      5.000    96.9304   142.7102   -74.5796     0.4200    -1.0000    28.5600     0.0000     0.0000    23.5675    43.4534    -1.0000    -1.5000     0.0000     0.0000     0.0000     0.0000    17.0000     8.0000     8.0000    17.0000     0.0000     0.0000   142.0306   -75.9388     0.0000    -4.2998    -2.9995    -1.8994    -0.6005     0.4003     1.8994     2.7994     3.8002    31.3400    22.1100    13.8400     6.4800    -5.6200   -10.4100   -14.3900   -16.8000     1.1358     4.9500     4.800
      5    -0.0000    -0.0000     4.4600     0.1500      4.990     31.000  11001.000      5.000    96.9304   142.7102   -74.5796     0.4200    -1.0000    28.5600     0.0000     0.0000    23.5200    43.3512    -1.0000    -1.5000     0.0000     0.0000     0.0000     0.0000    17.0000     8.0000     8.0000    17.0000     0.0000     0.0000   142.0306   -75.9388     0.0000    -4.2998    -2.9995    -1.8994    -0.6005     0.4003     1.8994     2.7994     3.8002    31.3400    22.1100    13.8400     6.4800    -5.6200   -10.4100   -14.3900   -16.8000     1.1332     4.9500     4.800
      6     0.0000    -0.0000     4.4500     0.1500      5.035     38.000  11001.000      5.000    96.9304   142.7102   -74.5796     0.4200    -1.0000    28.5600     0.0000     0.0000    23.4700    43.2491    -1.0000    -1.5000     0.0000     0.0000     0.0000     0.0000    17.0000     8.0000     8.0000    17.0000     0.0000     0.0000   142.0306   -75.9388     0.0000    -4.2998    -2.9995    -1.8994    -0.6005     0.4003     1.8994     2.7994     3.8002    31.3400    22.1100    13.8400     6.4800    -5.6200   -10.4100   -14.3900   -16.8000     1.1307     4.9500     4.800
      7    -0.0000    -0.0000     4.4400     0.1500      5.032     49.000  11001.000      5.000    96.9304   142.7102   -74.5796     0.4200    -1.0000    28.5600     0.0000     0.0000    23.4250    43.1470    -1.0000    -1.5000     0.0000     0.0000     0.0000     0.0000    17.0000     8.0000     8.0000    17.0000     0.0000     0.0000   142.0306   -75.9388     0.0000    -4.2998    -2.9995    -1.8994    -0.6005     0.4003     1.8994     2.7994     3.8002    31.3400    22.1100    13.8400     6.4800    -5.6200   -10.4100   -14.3900   -16.8000     1.1281     4.9500     4.800
      8     0.0000    -0.0000     4.4300     0.1500      4.969     32.000  11001.000      5.000    96.9304   142.7102   -74.5796     0.4200    -1.0000    28.5600     0.0000     0.0000    23.3750    43.0449    -1.0000    -1.5000     0.0000     0.0000     0.0000     0.0000    17.0000     8.0000     8.0000    17.0000     0.0000     0.0000   142.0306   -75.9388     0.0000    -4.2998    -2.9995    -1.8994    -0.6005     0.4003     1.8994     2.7994     3.8002    31.3400    22.1100    13.8400     6.4800    -5.6200   -10.4100   -14.3900   -16.8000     1.1256     4.9500     4.800
      9    -0.0000    -0.0000     4.4200     0.1500      4.973     39.000  11001.000      5.000    96.9304   142.7102   -74.5796     0.4200    -1.0000    28.5600     0.0000     0.0000    23.3300    42.9429    -1.0000    -1.5000     0.0000     0.0000     0.0000     0.0000    17.0000     8.0000     8.0000    17.0000     0.0000     0.0000   142.0306   -75.9388     0.0000    -4.2998    -2.9995    -1.8994    -0.6005     0.4003     1.8994     2.7994     3.8002    31.3400    22.1100    13.8400     6.4800    -5.6200   -10.4100   -14.3900   -16.8000     1.1231     4.9500     4.800
     10    -0.0000    -0.0000     4.4100     0.1500      5.021     34.000  11001.000      5.000    96.9304   142.7102   -74.5796     0.4200    -1.0000    28.5600     0.0000     0.0000    23.2800    42.8409    -1.0000    -1.5000     0.0000     0.0000     0.0000     0.0000    17.0000     8.0000     8.0000    17.0000     0.0000     0.0000   142.0306   -75.9388     0.0000    -4.2998    -2.9995    -1.8994    -0.6005     0.4003     1.8994     2.7994     3.8002    31.3400    22.1100    13.8400     6.4800    -5.6200   -10.4100   -14.3900   -16.8000     1.1205     4.9500     4.800
     11     0.0000    -0.0000     4.4000     0.1500      5.082     41.000  11001.000      5.000    96.9304   142.7102   -74.5796     0.4200    -1.0000    28.5600     0.0000     0.0000    23.2300    42.7389    -1.0000    -1.5000     0.0000     0.0000     0.0000     0.0000    17.0000     8.0000     8.0000    17.0000     0.0000     0.0000   142.0306   -75.9388     0.0000    -4.2998    -2.9995    -1.8994    -0.6005     0.4003     1.8994     2.7994     3.8002    31.3400    22.1100    13.8400     6.4800    -5.6200   -10.4100   -14.3900   -16.8000     1.1180     4.9500     4.800
     12    -0.0000    -0.0000     4.3900     0.1500      5.024     35.000  11001.000      5.000    96.9304   142.7102   -74.5796     0.4200    -1.0000    28.5600     0.0000     0.0000    23.1850    42.6370    -1.0000    -1.5000     0.0000     0.0000     0.0000     0.0000    17.0000     8.0000     8.0000    17.0000     0.0000     0.0000   142.0306   -75.9388     0.0000    -4.2998    -2.9995    -1.8994    -0.6005     0.4003     1.8994     2.7994     3.8002    31.3400    22.1100    13.8400     6.4800    -5.6200   -10.4100   -14.3900   -16.8000     1.1154     4.9500     4.800
     13    -0.0000    -0.0000     4.3800     0.1500      5.016     44.000  11001.000      5.000    96.9304   142.7102   -74.5796     0.4200    -1.0000    28.5600     0.0000     0.0000    23.1350    42.5351    -1.0000    -1.5000     0.0000     0.0000     0.0000     0.0000    17.0000     8.0000     8.0000    17.0000     0.0000     0.0000   142.0306   -75.9388     0.0000    -4.2998    -2.9995    -1.8994    -0.6005     0.4003     1.8994     2.7994     3.8002    31.3400    22.1100    13.8400     6.4800    -5.6200   -10.4100   -14.3900   -16.8000     1.1129     4.9500     4.800
     14     0.0000    -0.0000     4.3700     0.1500      5.144     49.000  11001.000      5.000    96.9304   142.7102   -74.5796     0.4200    -1.0000    28.5600     0.0000     0.0000    23.0850    42.4332    -1.0000    -1.5000     0.0000     0.0000     0.0000     0.0000    17.0000     8.0000     8.0000    17.0000     0.0000     0.0000   142.0306   -75.9388     0.0000    -4.2998    -2.9995    -1.8994    -0.6005     0.4003     1.8994     2.7994     3.8002    31.3400    22.1100    13.8400     6.4800    -5.6200   -10.4100   -14.3900   -16.8000     1.1104     4.9500     4.800
     15    -0.0000    -0.0000     4.3600     0.1500      4.990     30.000  11001.000      5.000    96.9304   142.7102   -74.5796     0.4200    -1.0000    28.5600     0.0000     0.0000    23.0400    42.3314    -1.0000    -1.5000     0.0000     0.0000     0.0000     0.0000    17.0000     8.0000     8.0000    17.0000     0.0000     0.0000   142.0306   -75.9388     0.0000    -4.2998    -2.9995    -1.8994    -0.6005     0.4003     1.8994     2.7994     3.8002    31.3400    22.1100    13.8400     6.4800    -5.6200   -10.4100   -14.3900   -16.8000     1.1078     4.9500     4.800
     16     0.0000    -0.0000     4.3500     0.1500      5.032     40.000  11001.000      5.000    96.9304   142.7102   -74.5796     0.4200    -1.0000    28.5600     0.0000     0.0000    22.9900    42.2296    -1.0000    -1.5000     0.0000     0.0000     0.0000     0.0000    17.0000     8.0000     8.0000    17.0000     0.0000     0.0000   142.0306   -75.9388     0.0000    -4.2998    -2.9995    -1.8994    -0.6005     0.4003     1.8994     2.7994     3.8002    31.3400    22.1100    13.8400     6.4800    -5.6200   -10.4100   -14.3900   -16.8000     1.1053     4.9500     4.800
     17    -0.0000    -0.0000     4.3400     0.1500      5.048     37.000  11001.000      5.000    96.9304   142.7102   -74.5796     0.4200    -1.0000    28.5600     0.0000     0.0000    22.9450    42.1278    -1.0000    -1.5000     0.0000     0.0000     0.0000     0.0000    17.0000     8.0000     8.0000    17.0000     0.0000     0.0000   142.0306   -75.9388     0.0000    -4.2998    -2.9995    -1.8994    -0.6005     0.4003     1.8994     2.7994     3.8002    31.3400    22.1100    13.8400     6.4800    -5.6200   -10.4100   -14.3900   -16.8000     1.1027     4.9500     4.800
     18     0.0000    -0.0000     4.3300     0.1500      5.009     50.000  11001.000      5.000    96.9304   142.7102   -74.5796     0.4200    -1.0000    28.5600     0.0000     0.0000    22.8925    42.0261    -1.0000    -1.5000     0.0000     0.0000     0.0000     0.0000    17.0000     8.0000     8.0000    17.0000     0.0000     0.0000   142.0306   -75.9388     0.0000    -4.2998    -2.9995    -1.8994    -0.6005     0.4003     1.8994     2.7994     3.8002    31.3400    22.1100    13.8400     6.4800    -5.6200   -10.4100   -14.3900   -16.8000     1.1002     4.9500     4.800
     19    -0.0000    -0.0000     4.3200     0.1500      5.018     36.000  11001.000      5.000    96.9304   142.7102   -74.5796     0.4200    -1.0000    28.5600     0.0000     0.0000    22.8500    41.9244    -1.0000    -1.5000     0.0000     0.0000     0.0000     0.0000    17.0000     8.0000     8.0000    17.0000     0.0000     0.0000   142.0306   -75.9388     0.0000    -4.2998    -2.9995    -1.8994    -0.6005     0.4003     1.8994     2.7994     3.8002    31.3400    22.1100    13.8400     6.4800    -5.6200   -10.4100   -14.3900   -16.8000     1.0977     4.9500     4.800
     20    -0.0000    -0.0000     4.3100     0.1500      5.059     40.000  11001.000      5.000    96.9304   142.7102   -74.5796     0.4200    -1.0000    28.5600     0.0000     0.0000    22.8000    41.8228    -1.0000    -1.5000     0.0000     0.0000     0.0000     0.0000    17.0000     8.0000     8.0000    17.0000     0.0000     0.0000   142.0306   -75.9388     0.0000    -4.2998    -2.9995    -1.8994    -0.6005     0.4003     1.8994     2.7994     3.8002    31.3400    22.1100    13.8400     6.4800    -5.6200   -10.4100   -14.3900   -16.8000     1.0951     4.9500     4.800
     21    -0.0000    -0.0000     4.3000     0.1500      4.959     30.000  11001.000      5.000    96.9304   142.7102   -74.5796     0.4200    -1.0000    28.5600     0.0000     0.0000    22.7525    41.7212    -1.0000    -1.5000     0.0000     0.0000     0.0000     0.0000    17.0000     8.0000     8.0000    17.0000     0.0000     0.0000   142.0306   -75.9388     0.0000    -4.2998    -2.9995    -1.8994    -0.6005     0.4003     1.8994     2.7994     3.8002    31.3400    22.1100    13.8400     6.4800    -5.6200   -10.4100   -14.3900   -16.8000     1.0926     4.9500     4.800
     22    -0.0000    -0.0000     4.2900     0.1500      4.987     45.000  11001.000      5.000    96.9304   142.7102   -74.5796     0.4200    -1.0000    28.5600     0.0000     0.0000    22.7050    41.6196    -1.0000    -1.5000     0.0000     0.0000     0.0000     0.0000    17.0000     8.0000     8.0000    17.0000     0.0000     0.0000   142.0306   -75.9388     0.0000    -4.2998    -2.9995    -1.8994    -0.6005     0.4003     1.8994     2.7994     3.8002    31.3400    22.1100    13.8400     6.4800    -5.6200   -10.4100   -14.3900   -16.8000     1.0900     4.9500     4.800
     23     0.0000    -0.0000     4.2800     0.1500      5.052     43.000  11001.000      5.000    96.9304   142.7102   -74.5796     0.4200    -1.0000    28.5600     0.0000     0.0000    22.6550    41.5180    -1.0000    -1.5000     0.0000     0.0000     0.0000     0.0000    17.0000     8.0000     8.0000    17.0000     0.0000     0.0000   142.0306   -75.9388     0.0000    -4.2998    -2.9995    -1.8994    -0.6005     0.4003     1.8994     2.7994     3.8002    31.3400    22.1100    13.8400     6.4800    -5.6200   -10.4100   -14.3900   -16.8000     1.0875     4.9500     4.800
     24    -0.0000    -0.0000     4.2700     0.1500      5.084     45.000  11001.000      5.000    96.9304   142.7102   -74.5796     0.4200    -1.0000    28.5600     0.0000     0.0000    22.6100    41.4165    -1.0000    -1.5000     0.0000     0.0000     0.0000     0.0000    17.0000     8.0000     8.0000    17.0000     0.0000     0.0000   142.0306   -75.9388     0.0000    -4.2998    -2.9995    -1.8994    -0.6005     0.4003     1.8994     2.7994     3.8002    31.3400    22.1100    13.8400     6.4800    -5.6200   -10.4100   -14.3900   -16.8000     1.0850     4.9500     4.800
     25     0.0000    -0.0000     4.2600     0.1500      5.045     52.000  11001.000      5.000    96.9304   142.7102   -74.5796     0.4200    -1.0000    28.5600     0.0000     0.0000    22.5600    41.3150    -1.0000    -1.5000     0.0000     0.0000     0.0000     0.0000    17.0000     8.0000     8.0000    17.0000     0.0000     0.0000   142.0306   -75.9388     0.0000    -4.2998    -2.9995    -1.8994    -0.6005     0.4003     1.8994     2.7994     3.8002    31.3400    22.1100    13.8400     6.4800    -5.6200   -10.4100   -14.3900   -16.8000     1.0824     4.9500     4.800
     26    -0.0000    -0.0000     4.2500     0.1500      5.017     39.000  11001.000      5.000    96.9304   142.7102   -74.5796     0.4200    -1.0000    28.5600     0.0000     0.0000    22.5150    41.2136    -1.0000    -1.5000     0.0000     0.0000     0.0000     0.0000    17.0000     8.0000     8.0000    17.0000     0.0000     0.0000   142.0306   -75.9388     0.0000    -4.2998    -2.9995    -1.8994    -0.6005     0.4003     1.8994     2.7994     3.8002    31.3400    22.1100    13.8400     6.4800    -5.6200   -10.4100   -14.3900   -16.8000     1.0799     4.9500     4.800
     27     0.0000    -0.0000     4.2400     0.1500      5.060     36.000  11001.000      5.000    96.9304   142.7102   -74.5796     0.4200    -1.0000    28.5600     0.0000     0.0000    22.4650    41.1122    -1.0000    -1.5000     0.0000     0.0000     0.0000     0.0000    17.0000     8.0000     8.0000    17.0000     0.0000     0.0000   142.0306   -75.9388     0.0000    -4.2998    -2.9995    -1.8994    -0.6005     0.4003     1.8994     2.7994     3.8002    31.3400    22.1100    13.8400     6.4800    -5.6200   -10.4100   -14.3900   -16.8000     1.0773     4.9500     4.800
     28    -0.0000    -0.0000     4.2300     0.1500      5.018     49.000  11001.000      5.000    96.9304   142.7102   -74.5796     0.4200    -1.0000    28.5600     0.0000     0.0000    22.4200    41.0108    -1.0000    -1.5000     0.0000     0.0000     0.0000     0.0000    17.0000     8.0000     8.0000    17.0000     0.0000     0.0000   142.0306   -75.9388     0.0000    -4.2998    -2.9995    -1.8994    -0.6005     0.4003     1.8994     2.7994     3.8002    31.3400    22.1100    13.8400     6.4800    -5.6200   -10.4100   -14.3900   -16.8000     1.0748     4.9500     4.800
     29    -0.0000    -0.0000     4.2200     0.1500      5.086     41.000  11001.000      5.000    96.9304   142.7102   -74.5796     0.4200    -1.0000    28.5600     0.0000     0.0000    22.3725    40.9094    -1.0000    -1.5000     0.0000     0.0000     0.0000     0.0000    17.0000     8.0000     8.0000    17.0000     0.0000     0.0000   142.0306   -75.9388     0.0000    -4.2998    -2.9995    -1.8994    -0.6005     0.4003     1.8994     2.7994     3.8002    31.3400    22.1100    13.8400     6.4800    -5.6200   -10.4100   -14.3900   -16.8000     1.0722     4.9500     4.800
     30     0.0000    -0.0000     4.2100     0.1500      5.114     38.000  11001.000      5.000    96.9304   142.7102   -74.5796     0.4200    -1.0000    28.5600     0.0000     0.0000    22.3225    40.8081    -1.0000    -1.5000     0.0000     0.0000     0.0000     0.0000    17.0000     8.0000     8.0000    17.0000     0.0000     0.0000   142.0306   -75.9388     0.0000    -4.2998    -2.9995    -1.8994    -0.6005     0.4003     1.8994     2.7994     3.8002    31.3400    22.1100    13.8400     6.4800    -5.6200   -10.4100   -14.3900   -16.8000     1.0697     4.9500     4.800
     31    -0.0000    -0.0000     4.2000     0.1500      4.973     41.000  11001.000      5.000    96.9304   142.7102   -74.5796     0.4200    -1.0000    28.5600     0.0000     0.0000    22.2775    40.7068    -1.0000    -1.5000     0.0000     0.0000     0.0000     0.0000    17.0000     8.0000     8.0000    17.0000     0.0000     0.0000   142.0306   -75.9388     0.0000    -4.2998    -2.9995    -1.8994    -0.6005     0.4003     1.8994     2.7994     3.8002    31.3400    22.1100    13.8400     6.4800    -5.6200   -10.4100   -14.3900   -16.8000     1.0672     4.9500     4.800
     32    -0.0000    -0.0000     4.1900     0.1500      5.034     34.000  11001.000      5.000    96.9304   142.7102   -74.5796     0.4200    -1.0000    28.5600     0.0000     0.0000    22.2300    40.6056    -1.0000    -1.5000     0.0000     0.0000     0.0000     0.0000    17.0000     8.0000     8.0000    17.0000     0.0000     0.0000   142.0306   -75.9388     0.0000    -4.2998    -2.9995    -1.8994    -0.6005     0.4003     1.8994     2.7994     3.8002    31.3400    22.1100    13.8400     6.4800    -5.6200   -10.4100   -14.3900   -16.8000     1.0646     4.9500     4.800
     33     0.0000    -0.0000     4.1800     0.1500      4.989     38.000  11001.000      5.000    96.9304   142.7102   -74.5796     0.4200    -1.0000    28.5600     0.0000     0.0000    22.1800    40.5044    -1.0000    -1.5000     0.0000     0.0000     0.0000     0.0000    17.0000     8.0000     8.0000    17.0000     0.0000     0.0000   142.0306   -75.9388     0.0000    -4.2998    -2.9995    -1.8994    -0.6005     0.4003     1.8994     2.7994     3.8002    31.3400    22.1100    13.8400     6.4800    -5.6200   -10.4100   -14.3900   -16.8000     1.0621     4.9500     4.800
     34    -0.0000    -0.0000     4.1700     0.1500      5.101     42.000  11001.000      5.000    96.9304   142.7102   -74.5796     0.4200    -1.0000    28.5600     0.0000     0.0000    22.1375    40.4032    -1.0000    -1.5000     0.0000     0.0000     0.0000     0.0000    17.0000     8.0000     8.0000    17.0000     0.0000     0.0000   142.0306   -75.9388     0.0000    -4.2998    -2.9995    -1.8994    -0.6005     0.4003     1.8994     2.7994     3.8002    31.3400    22.1100    13.8400     6.4800    -5.6200   -10.4100   -14.3900   -16.8000     1.0595     4.9500     4.800
     35    -0.0000    -0.0000     4.1600     0.1500      5.121     43.000  11001.000      5.000    96.9304   142.7102   -74.5796     0.4200    -1.0000    28.5600     0.0000     0.0000    22.0875    40.3020    -1.0000    -1.5000     0.0000     0.0000     0.0000     0.0000    17.0000     8.0000     8.0000    17.0000     0.0000     0.0000   142.0306   -75.9388     0.0000    -4.2998    -2.9995    -1.8994    -0.6005     0.4003     1.8994     2.7994     3.8002    31.3400    22.1100    13.8400     6.4800    -5.6200   -10.4100   -14.3900   -16.8000     1.0570     4.9500     4.800
     36    -0.0000    -0.0000     4.1500     0.1500      5.075     40.000  11001.000      5.000    96.9304   142.7102   -74.5796     0.4200    -1.0000    28.5600     0.0000     0.0000    22.0400    40.2010    -1.0000    -1.5000     0.0000     0.0000     0.0000     0.0000    17.0000     8.0000     8.0000    17.0000     0.0000     0.0000   142.0306   -75.9388     0.0000    -4.2998    -2.9995    -1.8994    -0.6005     0.4003     1.8994     2.7994     3.8002    31.3400    22.1100    13.8400     6.4800    -5.6200   -10.4100   -14.3900   -16.8000     1.0545     4.9500     4.800
     37    -0.0000    -0.0000     4.1400     0.1500      5.027     41.000  11001.000      5.000    96.9304   142.7102   -74.5796     0.4200    -1.0000    28.5600     0.0000     0.0000    21.9925    40.0998    -1.0000    -1.5000     0.0000     0.0000     0.0000     0.0000    17.0000     8.0000     8.0000    17.0000     0.0000     0.0000   142.0306   -75.9388     0.0000    -4.2998    -2.9995    -1.8994    -0.6005     0.4003     1.8994     2.7994     3.8002    31.3400    22.1100    13.8400     6.4800    -5.6200   -10.4100   -14.3900   -16.8000     1.0519     4.9500     4.800
     38     0.0000    -0.0000     4.1300     0.1500      5.015     34.000  11001.000      5.000    96.9304   142.7102   -74.5796     0.4200    -1.0000    28.5600     0.0000     0.0000    21.9450    39.9988    -1.0000    -1.5000     0.0000     0.0000     0.0000     0.0000    17.0000     8.0000     8.0000    17.0000     0.0000     0.0000   142.0306   -75.9388     0.0000    -4.2998    -2.9995    -1.8994    -0.6005     0.4003     1.8994     2.7994     3.8002    31.3400    22.1100    13.8400     6.4800    -5.6200   -10.4100   -14.3900   -16.8000     1.0494     4.9500     4.800
     39     0.0000    -0.0000     4.1200     0.1500      5.076     49.000  11001.000      5.000    96.9304   142.7102   -74.5796     0.4200    -1.0000    28.5600     0.0000     0.0000    21.8975    39.8978    -1.0000    -1.5000     0.0000     0.0000     0.0000     0.0000    17.0000     8.0000     8.0000    17.0000     0.0000     0.0000   142.0306   -75.9388     0.0000    -4.2998    -2.9995    -1.8994    -0.6005     0.4003     1.8994     2.7994     3.8002    31.3400    22.1100    13.8400     6.4800    -5.6200   -10.4100   -14.3900   -16.8000     1.0468     4.9500     4.800
     40    -0.0000    -0.0000     4.1100     0.1500      4.918     42.000  11001.000      5.000    96.9304   142.7102   -74.5796     0.4200    -1.0000    28.5600     0.0000     0.0000    21.8525    39.7968    -1.0000    -1.5000     0.0000     0.0000     0.0000     0.0000    17.0000     8.0000     8.0000    17.0000     0.0000     0.0000   142.0306   -75.9388     0.0000    -4.2998    -2.9995    -1.8994    -0.6005     0.4003     1.8994     2.7994     3.8002    31.3400    22.1100    13.8400     6.4800    -5.6200   -10.4100   -14.3900   -16.8000     1.0443     4.9500     4.800
     41     0.0000    -0.0000     4.1000     0.1500      5.000     45.000  11001.000      5.000    96.9304   142.7102   -74.5796     0.4200    -1.0000    28.5600     0.0000     0.0000    21.8025    39.6958    -1.0000    -1.5000     0.0000     0.0000     0.0000     0.0000    17.0000     8.0000     8.0000    17.0000     0.0000     0.0000   142.0306   -75.9388     0.0000    -4.2998    -2.9995    -1.8994    -0.6005     0.4003     1.8994     2.7994     3.8002    31.3400    22.1100    13.8400     6.4800    -5.6200   -10.4100   -14.3900   -16.8000     1.0418     4.9500     4.800
     42    -0.0000    -0.0000     4.0900     0.1500      5.116     39.000  11001.000      5.000    96.9304   142.7102   -74.5796     0.4200    -1.0000    28.5600     0.0000     0.0000    21.7575    39.5949    -1.0000    -1.5000     0.0000     0.0000     0.0000     0.0000    17.0000     8.0000     8.0000    17.0000     0.0000     0.0000   142.0306   -75.9388     0.0000    -4.2998    -2.9995    -1.8994    -0.6005     0.4003     1.8994     2.7994     3.8002    31.3400    22.1100    13.8400     6.4800    -5.6200   -10.4100   -14.3900   -16.8000     1.0392     4.9500     4.800
     43    -0.0000    -0.0000     4.0800     0.1500      5.036     36.000  11001.000      5.000    96.9304   142.7102   -74.5796     0.4200    -1.0000    28.5600     0.0000     0.0000    21.7100    39.4940    -1.0000    -1.5000     0.0000     0.0000     0.0000     0.0000    17.0000     8.0000     8.0000    17.0000     0.0000     0.0000   142.0306   -75.9388     0.0000    -4.2998    -2.9995    -1.8994    -0.6005     0.4003     1.8994     2.7994     3.8002    31.3400    22.1100    13.8400     6.4800    -5.6200   -10.4100   -14.3900   -16.8000     1.0367     4.9500     4.800
     44     0.0000    -0.0000     4.0700     0.1500      5.024     37.000  11001.000      5.000    96.9304   142.7102   -74.5796     0.4200    -1.0000    28.5600     0.0000     0.0000    21.6600    39.3932    -1.0000    -1.5000     0.0000     0.0000     0.0000     0.0000    17.0000     8.0000     8.0000    17.0000     0.0000     0.0000   142.0306   -75.9388     0.0000    -4.2998    -2.9995    -1.8994    -0.6005     0.4003     1.8994     2.7994     3.8002    31.3400    22.1100    13.8400     6.4800    -5.6200   -10.4100   -14.3900   -16.8000     1.0341     4.9500     4.800
     45    -0.0000    -0.0000     4.0600     0.1500      5.047     28.000  11001.000      5.000    96.9304   142.7102   -74.5796     0.4200    -1.0000    28.5600     0.0000     0.0000    21.6175    39.2924    -1.0000    -1.5000     0.0000     0.0000     0.0000     0.0000    17.0000     8.0000     8.0000    17.0000     0.0000     0.0000   142.0306   -75.9388     0.0000    -4.2998    -2.9995    -1.8994    -0.6005     0.4003     1.8994     2.7994     3.8002    31.3400    22.1100    13.8400     6.4800    -5.6200   -10.4100   -14.3900   -16.8000     1.0316     4.9500     4.800
     46     0.0000    -0.0000     4.0500     0.1500      4.971     43.000  11001.000      5.000    96.9304   142.7102   -74.5796     0.4200    -1.0000    28.5600     0.0000     0.0000    21.5675    39.1916    -1.0000    -1.5000     0.0000     0.0000     0.0000     0.0000    17.0000     8.0000     8.0000    17.0000     0.0000     0.0000   142.0306   -75.9388     0.0000    -4.2998    -2.9995    -1.8994    -0.6005     0.4003     1.8994     2.7994     3.8002    31.3400    22.1100    13.8400     6.4800    -5.6200   -10.4100   -14.3900   -16.8000     1.0291     4.9500     4.800
     47    -0.0000    -0.0000     4.0400     0.1500      5.000     40.000  11001.000      5.000    96.9304   142.7102   -74.5796     0.4200    -1.0000    28.5600     0.0000     0.0000    21.5225    39.0908    -1.0000    -1.5000     0.0000     0.0000     0.0000     0.0000    17.0000     8.0000     8.0000    17.0000     0.0000     0.0000   142.0306   -75.9388     0.0000    -4.2998    -2.9995    -1.8994    -0.6005     0.4003     1.8994     2.7994     3.8002    31.3400    22.1100    13.8400     6.4800    -5.6200   -10.4100   -14.3900   -16.8000     1.0265     4.9500     4.800
     48    -0.0000    -0.0000     4.0300     0.1500      5.001     31.000  11001.000      5.000    96.9304   142.7102   -74.5796     0.4200    -1.0000    28.5600     0.0000     0.0000    21.4750    38.9900    -1.0000    -1.5000     0.0000     0.0000     0.0000     0.0000    17.0000     8.0000     8.0000    17.0000     0.0000     0.0000   142.0306   -75.9388     0.0000    -4.2998    -2.9995    -1.8994    -0.6005     0.4003     1.8994     2.7994     3.8002    31.3400    22.1100    13.8400     6.4800    -5.6200   -10.4100   -14.3900   -16.8000     1.0240     4.9500     4.800
     49     0.0000    -0.0000     4.0200     0.1500      5.006     36.000  11001.000      5.000    96.9304   142.7102   -74.5796     0.4200    -1.0000    28.5600     0.0000     0.0000    21.4275    38.8894    -1.0000    -1.5000     0.0000     0.0000     0.0000     0.0000    17.0000     8.0000     8.0000    17.0000     0.0000     0.0000   142.0306   -75.9388     0.0000    -4.2998    -2.9995    -1.8994    -0.6005     0.4003     1.8994     2.7994     3.8002    31.3400    22.1100    13.8400     6.4800    -5.6200   -10.4100   -14.3900   -16.8000     1.0214     4.9500     4.800
     50    -0.0000    -0.0000     4.0100     0.1500      4.939     48.000  11001.000      5.000    96.9304   142.7102   -74.5796     0.4200    -1.0000    28.5600     0.0000     0.0000    21.3825    38.7887    -1.0000    -1.5000     0.0000     0.0000     0.0000     0.0000    17.0000     8.0000     8.0000    17.0000     0.0000     0.0000   142.0306   -75.9388     0.0000    -4.2998    -2.9995    -1.8994    -0.6005     0.4003     1.8994     2.7994     3.8002    31.3400    22.1100    13.8400     6.4800    -5.6200   -10.4100   -14.3900   -16.8000     1.0189     4.9500     4.800
     51    -0.0000    -0.0000     4.0000     0.1500      5.018     38.000  11001.000      5.000    96.9304   142.7102   -74.5796     0.4200    -1.0000    28.5600     0.0000     0.0000    21.3350    38.6880    -1.0000    -1.5000     0.0000     0.0000     0.0000     0.0000    17.0000     8.0000     8.0000    17.0000     0.0000     0.0000   142.0306   -75.9388     0.0000    -4.2998    -2.9995    -1.8994    -0.6005     0.4003     1.8994     2.7994     3.8002    31.3400    22.1100    13.8400     6.4800    -5.6200   -10.4100   -14.3900   -16.8000     1.0163     4.9500     4.800
     52     0.0000    -0.0000     3.9900     0.1500      5.020     41.000  11001.000      5.000    96.9304   142.7102   -74.5796     0.4200    -1.0000    28.5600     0.0000     0.0000    21.2850    38.5874    -1.0000    -1.5000     0.0000     0.0000     0.0000     0.0000    17.0000     8.0000     8.0000    17.0000     0.0000     0.0000   142.0306   -75.9388     0.0000    -4.2998    -2.9995    -1.8994    -0.6005     0.4003     1.8994     2.7994     3.8002    31.3400    22.1100    13.8400     6.4800    -5.6200   -10.4100   -14.3900   -16.8000     1.0138     4.9500     4.800
     53    -0.0000    -0.0000     3.9800     0.1500      4.999     41.000  11001.000      5.000    96.9304   142.7102   -74.5796     0.4200    -1.0000    28.5600     0.0000     0.0000    21.2425    38.4868    -1.0000    -1.5000     0.0000     0.0000     0.0000     0.0000    17.0000     8.0000     8.0000    17.0000     0.0000     0.0000   142.0306   -75.9388     0.0000    -4.2998    -2.9995    -1.8994    -0.6005     0.4003     1.8994     2.7994     3.8002    31.3400    22.1100    13.8400     6.4800    -5.6200   -10.4100   -14.3900   -16.8000     1.0113     4.9500     4.800
     54    -0.0000    -0.0000     3.9700     0.1500      4.977     28.000  11001.000      5.000    96.9304   142.7102   -74.5796     0.4200    -1.0000    28.5600     0.0000     0.0000    21.1950    38.3863    -1.0000    -1.5000     0.0000     0.0000     0.0000     0.0000    17.0000     8.0000     8.0000    17.0000     0.0000     0.0000   142.0306   -75.9388     0.0000    -4.2998    -2.9995    -1.8994    -0.6005     0.4003     1.8994     2.7994     3.8002    31.3400    22.1100    13.8400     6.4800    -5.6200   -10.4100   -14.3900   -16.8000     1.0087     4.9500     4.800
     55     0.0000    -0.0000     3.9600     0.1500      5.192     41.000  11001.000      5.000    96.9304   142.7102   -74.5796     0.4200    -1.0000    28.5600     0.0000     0.0000    21.1450    38.2858    -1.0000    -1.5000     0.0000     0.0000     0.0000     0.0000    17.0000     8.0000     8.0000    17.0000     0.0000     0.0000   142.0306   -75.9388     0.0000    -4.2998    -2.9995    -1.8994    -0.6005     0.4003     1.8994     2.7994     3.8002    31.3400    22.1100    13.8400     6.4800    -5.6200   -10.4100   -14.3900   -16.8000     1.0062     4.9500     4.800
     56    -0.0000    -0.0000     3.9500     0.1500      5.022     46.000  11001.000      5.000    96.9304   142.7102   -74.5796     0.4200    -1.0000    28.5600     0.0000     0.0000    21.1025    38.1853    -1.0000    -1.5000     0.0000     0.0000     0.0000     0.0000    17.0000     8.0000     8.0000    17.0000     0.0000     0.0000   142.0306   -75.9388     0.0000    -4.2998    -2.9995    -1.8994    -0.6005     0.4003     1.8994     2.7994     3.8002    31.3400    22.1100    13.8400     6.4800    -5.6200   -10.4100   -14.3900   -16.8000     1.0036     4.9500     4.800
     57    -0.0000    -0.0000     3.9400     0.1500      4.975     42.000  11001.000      5.000    96.9304   142.7102   -74.5796     0.4200    -1.0000    28.5600     0.0000     0.0000    21.0550    38.0848    -1.0000    -1.5000     0.0000     0.0000     0.0000     0.0000    17.0000     8.0000     8.0000    17.0000     0.0000     0.0000   142.0306   -75.9388     0.0000    -4.2998    -2.9995    -1.8994    -0.6005     0.4003     1.8994     2.7994     3.8002    31.3400    22.1100    13.8400     6.4800    -5.6200   -10.4100   -14.3900   -16.8000     1.0011     4.9500     4.800
     58     0.0000    -0.0000     3.9300     0.1500      4.996     37.000  11001.000      5.000    96.9304   142.7102   -74.5796     0.4200    -1.0000    28.5600     0.0000     0.0000    21.0050    37.9844    -1.0000    -1.5000     0.0000     0.0000     0.0000     0.0000    17.0000     8.0000     8.0000    17.0000     0.0000     0.0000   142.0306   -75.9388     0.0000    -4.2998    -2.9995    -1.8994    -0.6005     0.4003     1.8994     2.7994     3.8002    31.3400    22.1100    13.8400     6.4800    -5.6200   -10.4100   -14.3900   -16.8000     0.9986     4.9500     4.800
     59    -0.0000    -0.0000     3.9200     0.1500      4.965     28.000  11001.000      5.000    96.9304   142.7102   -74.5796     0.4200    -1.0000    28.5600     0.0000     0.0000    20.9625    37.8840    -1.0000    -1.5000     0.0000     0.0000     0.0000     0.0000    17.0000     8.0000     8.0000    17.0000     0.0000     0.0000   142.0306   -75.9388     0.0000    -4.2998    -2.9995    -1.8994    -0.6005     0.4003     1.8994     2.7994     3.8002    31.3400    22.1100    13.8400     6.4800    -5.6200   -10.4100   -14.3900   -16.8000     0.9960     4.9500     4.800
     60    -0.0000    -0.0000     3.9100     0.1500      4.993     33.000  11001.000      5.000    96.9304   142.7102   -74.5796     0.4200    -1.0000    28.5600     0.0000     0.0000    20.9150    37.7836    -1.0000    -1.5000     0.0000     0.0000     0.0000     0.0000    17.0000     8.0000     8.0000    17.0000     0.0000     0.0000   142.0306   -75.9388     0.0000    -4.2998    -2.9995    -1.8994    -0.6005     0.4003     1.8994     2.7994     3.8002    31.3400    22.1100    13.8400     6.4800    -5.6200   -10.4100   -14.3900   -16.8000     0.9935     4.9500     4.800
     61     0.0000    -0.0000     3.9000     0.1500      4.991     38.000  11001.000      5.000    96.9304   142.7102   -74.5796     0.4200    -1.0000    28.5600     0.0000     0.0000    20.8675    37.6833    -1.0000    -1.5000     0.0000     0.0000     0.0000     0.0000    17.0000     8.0000     8.0000    17.0000     0.0000     0.0000   142.0306   -75.9388     0.0000    -4.2998    -2.9995    -1.8994    -0.6005     0.4003     1.8994     2.7994     3.8002    31.3400    22.1100    13.8400     6.4800    -5.6200   -10.4100   -14.3900   -16.8000     0.9909     4.9500     4.800
     62    -0.0000    -0.0000     3.8900     0.1500      5.032     50.000  11001.000      5.000    96.9304   142.7102   -74.5796     0.4200    -1.0000    28.5600     0.0000     0.0000    20.8225    37.5830    -1.0000    -1.5000     0.0000     0.0000     0.0000     0.0000    17.0000     8.0000     8.0000    17.0000     0.0000     0.0000   142.0306   -75.9388     0.0000    -4.2998    -2.9995    -1.8994    -0.6005     0.4003     1.8994     2.7994     3.8002    31.3400    22.1100    13.8400     6.4800    -5.6200   -10.4100   -14.3900   -16.8000     0.9884     4.9500     4.800
     63     0.0000    -0.0000     3.8800     0.1500      4.956     41.000  11001.000      5.000    96.9304   142.7102   -74.5796     0.4200    -1.0000    28.5600     0.0000     0.0000    20.7750    37.4827    -1.0000    -1.5000     0.0000     0.0000     0.0000     0.0000    17.0000     8.0000     8.0000    17.0000     0.0000     0.0000   142.0306   -75.9388     0.0000    -4.2998    -2.9995    -1.8994    -0.6005     0.4003     1.8994     2.7994     3.8002    31.3400    22.1100    13.8400     6.4800    -5.6200   -10.4100   -14.3900   -16.8000     0.9859     4.9500     4.800
     64    -0.0000    -0.0000     3.8700     0.1500      5.020     36.000  11001.000      5.000    96.9304   142.7102   -74.5796     0.4200    -1.0000    28.5600     0.0000     0.0000    20.7300    37.3825    -1.0000    -1.5000     0.0000     0.0000     0.0000     0.0000    17.0000     8.0000     8.0000    17.0000     0.0000     0.0000   142.0306   -75.9388     0.0000    -4.2998    -2.9995    -1.8994    -0.6005     0.4003     1.8994     2.7994     3.8002    31.3400    22.1100    13.8400     6.4800    -5.6200   -10.4100   -14.3900   -16.8000     0.9833     4.9500     4.800
     65     0.0000    -0.0000     3.8600     0.1500      5.100     38.000  11001.000      5.000    96.9304   142.7102   -74.5796     0.4200    -1.0000    28.5600     0.0000     0.0000    20.6825    37.2823    -1.0000    -1.5000     0.0000     0.0000     0.0000     0.0000    17.0000     8.0000     8.0000    17.0000     0.0000     0.0000   142.0306   -75.9388     0.0000    -4.2998    -2.9995    -1.8994    -0.6005     0.4003     1.8994     2.7994     3.8002    31.3400    22.1100    13.8400     6.4800    -5.6200   -10.4100   -14.3900   -16.8000     0.9808     4.9500     4.800
     66     0.0000    -0.0000     3.8500     0.1500      4.955     30.000  11001.000      5.000    96.9304   142.7102   -74.5796     0.4200    -1.0000    28.5600     0.0000     0.0000    20.6350    37.1821    -1.0000    -1.5000     0.0000     0.0000     0.0000     0.0000    17.0000     8.0000     8.0000    17.0000     0.0000     0.0000   142.0306   -75.9388     0.0000    -4.2998    -2.9995    -1.8994    -0.6005     0.4003     1.8994     2.7994     3.8002    31.3400    22.1100    13.8400     6.4800    -5.6200   -10.4100   -14.3900   -16.8000     0.9782     4.9500     4.800
     67    -0.0000    -0.0000     3.8400     0.1500      5.035     41.000  11001.000      5.000    96.9304   142.7102   -74.5796     0.4200    -1.0000    28.5600     0.0000     0.0000    20.5900    37.0819    -1.0000    -1.5000     0.0000     0.0000     0.0000     0.0000    17.0000     8.0000     8.0000    17.0000     0.0000     0.0000   142.0306   -75.9388     0.0000    -4.2998    -2.9995    -1.8994    -0.6005     0.4003     1.8994     2.7994     3.8002    31.3400    22.1100    13.8400     6.4800    -5.6200   -10.4100   -14.3900   -16.8000     0.9757     4.9500     4.800
     68    -0.0000    -0.0000     3.8300     0.1500      5.061     39.000  11001.000      5.000    96.9304   142.7102   -74.5796     0.4200    -1.0000    28.5600     0.0000     0.0000    20.5450    36.9818    -1.0000    -1.5000     0.0000     0.0000     0.0000     0.0000    17.0000     8.0000     8.0000    17.0000     0.0000     0.0000   142.0306   -75.9388     0.0000    -4.2998    -2.9995    -1.8994    -0.6005     0.4003     1.8994     2.7994     3.8002    31.3400    22.1100    13.8400     6.4800    -5.6200   -10.4100   -14.3900   -16.8000     0.9732     4.9500     4.800
     69    -0.0000    -0.0000     3.8200     0.1500      5.011     41.000  11001.000      5.000    96.9304   142.7102   -74.5796     0.4200    -1.0000    28.5600     0.0000     0.0000    20.4975    36.8817    -1.0000    -1.5000     0.0000     0.0000     0.0000     0.0000    17.0000     8.0000     8.0000    17.0000     0.0000     0.0000   142.0306   -75.9388     0.0000    -4.2998    -2.9995    -1.8994    -0.6005     0.4003     1.8994     2.7994     3.8002    31.3400    22.1100    13.8400     6.4800    -5.6200   -10.4100   -14.3900   -16.8000     0.9706     4.9500     4.800
     70     0.0000    -0.0000     3.8100     0.1500      5.038     42.000  11001.000      5.000    96.9304   142.7102   -74.5796     0.4200    -1.0000    28.5600     0.0000     0.0000    20.4500    36.7816    -1.0000    -1.5000     0.0000     0.0000     0.0000     0.0000    17.0000     8.0000     8.0000    17.0000     0.0000     0.0000   142.0306   -75.9388     0.0000    -4.2998    -2.9995    -1.8994    -0.6005     0.4003     1.8994     2.7994     3.8002    31.3400    22.1100    13.8400     6.4800    -5.6200   -10.4100   -14.3900   -16.8000     0.9681     4.9500     4.800
     71     0.0000    -0.0000     3.8000     0.1500      5.077     48.000  11001.000      5.000    96.9304   142.7102   -74.5796     0.4200    -1.0000    28.5600     0.0000     0.0000    20.4050    36.6816    -1.0000    -1.5000     0.0000     0.0000     0.0000     0.0000    17.0000     8.0000     8.0000    17.0000     0.0000     0.0000   142.0306   -75.9388     0.0000    -4.2998    -2.9995    -1.8994    -0.6005     0.4003     1.8994     2.7994     3.8002    31.3400    22.1100    13.8400     6.4800    -5.6200   -10.4100   -14.3900   -16.8000     0.9655     4.9500     4.800
     72    -0.0000    -0.0000     3.7900     0.1500      5.039     41.000  11001.000      5.000    96.9304   142.7102   -74.5796     0.4200    -1.0000    28.5600     0.0000     0.0000    20.3600    36.5816    -1.0000    -1.5000     0.0000     0.0000     0.0000     0.0000    17.0000     8.0000     8.0000    17.0000     0.0000     0.0000   142.0306   -75.9388     0.0000    -4.2998    -2.9995    -1.8994    -0.6005     0.4003     1.8994     2.7994     3.8002    31.3400    22.1100    13.8400     6.4800    -5.6200   -10.4100   -14.3900   -16.8000     0.9630     4.9500     4.800
     73     0.0000    -0.0000     3.7800     0.1500      5.063     51.000  11001.000      5.000    96.9304   142.7102   -74.5796     0.4200    -1.0000    28.5600     0.0000     0.0000    20.3125    36.4816    -1.0000    -1.5000     0.0000     0.0000     0.0000     0.0000    17.0000     8.0000     8.0000    17.0000     0.0000     0.0000   142.0306   -75.9388     0.0000    -4.2998    -2.9995    -1.8994    -0.6005     0.4003     1.8994     2.7994     3.8002    31.3400    22.1100    13.8400     6.4800    -5.6200   -10.4100   -14.3900   -16.8000     0.9604     4.9500     4.800
     74     0.0000    -0.0000     3.7700     0.1500      5.055     62.000  11001.000      5.000    96.9304   142.7102   -74.5796     0.4200    -1.0000    28.5600     0.0000     0.0000    20.2650    36.3816    -1.0000    -1.5000     0.0000     0.0000     0.0000     0.0000    17.0000     8.0000     8.0000    17.0000     0.0000     0.0000   142.0306   -75.9388     0.0000    -4.2998    -2.9995    -1.8994    -0.6005     0.4003     1.8994     2.7994     3.8002    31.3400    22.1100    13.8400     6.4800    -5.6200   -10.4100   -14.3900   -16.8000     0.9579     4.9500     4.800
     75    -0.0000    -0.0000     3.7600     0.1500      5.016     78.000  11001.000      5.000    96.9304   142.7102   -74.5796     0.4200    -1.0000    28.5600     0.0000     0.0000    20.2225    36.2817    -1.0000    -1.5000     0.0000     0.0000     0.0000     0.0000    17.0000     8.0000     8.0000    17.0000     0.0000     0.0000   142.0306   -75.9388     0.0000    -4.2998    -2.9995    -1.8994    -0.6005     0.4003     1.8994     2.7994     3.8002    31.3400    22.1100    13.8400     6.4800    -5.6200   -10.4100   -14.3900   -16.8000     0.9554     4.9500     4.800
     76     0.0000    -0.0000     3.7500     0.1500      5.013     91.000  11001.000      5.000    96.9304   142.7102   -74.5796     0.4200    -1.0000    28.5600     0.0000     0.0000    20.1725    36.1818    -1.0000    -1.5000     0.0000     0.0000     0.0000     0.0000    17.0000     8.0000     8.0000    17.0000     0.0000     0.0000   142.0306   -75.9388     0.0000    -4.2998    -2.9995    -1.8994    -0.6005     0.4003     1.8994     2.7994     3.8002    31.3400    22.1100    13.8400     6.4800    -5.6200   -10.4100   -14.3900   -16.8000     0.9528     4.9500     4.800
     77    -0.0000    -0.0000     3.7400     0.1500      5.055    119.000  11001.000      5.000    96.9304   142.7102   -74.5796     0.4200    -1.0000    28.5600     0.0000     0.0000    20.1300    36.0819    -1.0000    -1.5000     0.0000     0.0000     0.0000     0.0000    17.0000     8.0000     8.0000    17.0000     0.0000     0.0000   142.0306   -75.9388     0.0000    -4.2998    -2.9995    -1.8994    -0.6005     0.4003     1.8994     2.7994     3.8002    31.3400    22.1100    13.8400     6.4800    -5.6200   -10.4100   -14.3900   -16.8000     0.9503     4.9500     4.800
     78     0.0000    -0.0000     3.7300     0.1500      4.990    234.000  11001.000      5.000    96.9304   142.7102   -74.5796     0.4200    -1.0000    28.5600     0.0000     0.0000    20.0825    35.9821    -1.0000    -1.5000     0.0000     0.0000     0.0000     0.0000    17.0000     8.0000     8.0000    17.0000     0.0000     0.0000   142.0306   -75.9388     0.0000    -4.2998    -2.9995    -1.8994    -0.6005     0.4003     1.8994     2.7994     3.8002    31.3400    22.1100    13.8400     6.4800    -5.6200   -10.4100   -14.3900   -16.8000     0.9477     4.9500     4.800
     79    -0.0000    -0.0000     3.7200     0.1500      5.020    489.000  11001.000      5.000    96.9304   142.7102   -74.5796     0.4200    -1.0000    28.5600     0.0000     0.0000    20.0375    35.8822    -1.0000    -1.5000     0.0000     0.0000     0.0000     0.0000    17.0000     8.0000     8.0000    17.0000     0.0000     0.0000   142.0306   -75.9388     0.0000    -4.2998    -2.9995    -1.8994    -0.6005     0.4003     1.8994     2.7994     3.8002    31.3400    22.1100    13.8400     6.4800    -5.6200   -10.4100   -14.3900   -16.8000     0.9452     4.9500     4.800
     80     0.0000    -0.0000     3.7100     0.1500      5.012   1035.000  11001.000      5.000    96.9304   142.7102   -74.5796     0.4200    -1.0000    28.5600     0.0000     0.0000    19.9900    35.7825    -1.0000    -1.5000     0.0000     0.0000     0.0000     0.0000    17.0000     8.0000     8.0000    17.0000     0.0000     0.0000   142.0306   -75.9388     0.0000    -4.2998    -2.9995    -1.8994    -0.6005     0.4003     1.8994     2.7994     3.8002    31.3400    22.1100    13.8400     6.4800    -5.6200   -10.4100   -14.3900   -16.8000     0.9427     4.9500     4.800
     81     0.0000    -0.0000     3.7000     0.1500      5.006   1660.000  11001.000      5.000    96.9304   142.7102   -74.5796     0.4200    -1.0000    28.5600     0.0000     0.0000    19.9450    35.6827    -1.0000    -1.5000     0.0000     0.0000     0.0000     0.0000    17.0000     8.0000     8.0000    17.0000     0.0000     0.0000   142.0306   -75.9388     0.0000    -4.2998    -2.9995    -1.8994    -0.6005     0.4003     1.8994     2.7994     3.8002    31.3400    22.1100    13.8400     6.4800    -5.6200   -10.4100   -14.3900   -16.8000     0.9401     4.9500     4.800
     82    -0.0000    -0.0000     3.6900     0.1500      5.065   2057.000  11001.000      5.000    96.9304   142.7102   -74.5796     0.4200    -1.0000    28.5600     0.0000     0.0000    19.9000    35.5830    -1.0000    -1.5000     0.0000     0.0000     0.0000     0.0000    17.0000     8.0000     8.0000    17.0000     0.0000     0.0000   142.0306   -75.9388     0.0000    -4.2998    -2.9995    -1.8994    -0.6005     0.4003     1.8994     2.7994     3.8002    31.3400    22.1100    13.8400     6.4800    -5.6200   -10.4100   -14.3900   -16.8000     0.9376     4.9500     4.800
     83    -0.0000    -0.0000     3.6800     0.1500      5.068   2342.000  11001.000      5.000    96.9304   142.7102   -74.5796     0.4200    -1.0000    28.5600     0.0000     0.0000    19.8550    35.4833    -1.0000    -1.5000     0.0000     0.0000     0.0000     0.0000    17.0000     8.0000     8.0000    17.0000     0.0000     0.0000   142.0306   -75.9388     0.0000    -4.2998    -2.9995    -1.8994    -0.6005     0.4003     1.8994     2.7994     3.8002    31.3400    22.1100    13.8400     6.4800    -5.6200   -10.4100   -14.3900   -16.8000     0.9350     4.9500     4.800
     84     0.0000    -0.0000     3.6700     0.1500      5.013   2182.000  11001.000      5.000    96.9304   142.7102   -74.5796     0.4200    -1.0000    28.5600     0.0000     0.0000    19.8075    35.3836    -1.0000    -1.5000     0.0000     0.0000     0.0000     0.0000    17.0000     8.0000     8.0000    17.0000     0.0000     0.0000   142.0306   -75.9388     0.0000    -4.2998    -2.9995    -1.8994    -0.6005     0.4003     1.8994     2.7994     3.8002    31.3400    22.1100    13.8400     6.4800    -5.6200   -10.4100   -14.3900   -16.8000     0.9325     4.9500     4.800
     85     0.0000    -0.0000     3.6600     0.1500      5.046   1645.000  11001.000      5.000    96.9304   142.7102   -74.5796     0.4200    -1.0000    28.5600     0.0000     0.0000    19.7625    35.2840    -1.0000    -1.5000     0.0000     0.0000     0.0000     0.0000    17.0000     8.0000     8.0000    17.0000     0.0000     0.0000   142.0306   -75.9388     0.0000    -4.2998    -2.9995    -1.8994    -0.6005     0.4003     1.8994     2.7994     3.8002    31.3400    22.1100    13.8400     6.4800    -5.6200   -10.4100   -14.3900   -16.8000     0.9300     4.9500     4.800
     86     0.0000    -0.0000     3.6500     0.1500      5.027   1116.000  11001.000      5.000    96.9304   142.7102   -74.5796     0.4200    -1.0000    28.5600     0.0000     0.0000    19.7150    35.1843    -1.0000    -1.5000     0.0000     0.0000     0.0000     0.0000    17.0000     8.0000     8.0000    17.0000     0.0000     0.0000   142.0306   -75.9388     0.0000    -4.2998    -2.9995    -1.8994    -0.6005     0.4003     1.8994     2.7994     3.8002    31.3400    22.1100    13.8400     6.4800    -5.6200   -10.4100   -14.3900   -16.8000     0.9274     4.9500     4.800
     87    -0.0000    -0.0000     3.6400     0.1500      5.063    783.000  11001.000      5.000    96.9304   142.7102   -74.5796     0.4200    -1.0000    28.5600     0.0000     0.0000    19.6725    35.0847    -1.0000    -1.5000     0.0000     0.0000     0.0000     0.0000    17.0000     8.0000     8.0000    17.0000     0.0000     0.0000   142.0306   -75.9388     0.0000    -4.2998    -2.9995    -1.8994    -0.6005     0.4003     1.8994     2.7994     3.8002    31.3400    22.1100    13.8400     6.4800    -5.6200   -10.4100   -14.3900   -16.8000     0.9249     4.9500     4.800
     88    -0.0000    -0.0000     3.6300     0.1500      5.035    464.000  11001.000      5.000    96.9304   142.7102   -74.5796     0.4200    -1.0000    28.5600     0.0000     0.0000    19.6275    34.9852    -1.0000    -1.5000     0.0000     0.0000     0.0000     0.0000    17.0000     8.0000     8.0000    17.0000     0.0000     0.0000   142.0306   -75.9388     0.0000    -4.2998    -2.9995    -1.8994    -0.6005     0.4003     1.8994     2.7994     3.8002    31.3400    22.1100    13.8400     6.4800    -5.6200   -10.4100   -14.3900   -16.8000     0.9223     4.9500     4.800
     89    -0.0000    -0.0000     3.6200     0.1500      5.095    258.000  11001.000      5.000    96.9304   142.7102   -74.5796     0.4200    -1.0000    28.5600     0.0000     0.0000    19.5825    34.8856    -1.0000    -1.5000     0.0000     0.0000     0.0000     0.0000    17.0000     8.0000     8.0000    17.0000     0.0000     0.0000   142.0306   -75.9388     0.0000    -4.2998    -2.9995    -1.8994    -0.6005     0.4003     1.8994     2.7994     3.8002    31.3400    22.1100    13.8400     6.4800    -5.6200   -10.4100   -14.3900   -16.8000     0.9198     4.9500     4.800
     90     0.0000    -0.0000     3.6100     0.1500      5.042    155.000  11001.000      5.000    96.9304   142.7102   -74.5796     0.4200    -1.0000    28.5600     0.0000     0.0000    19.5325    34.7861    -1.0000    -1.5000     0.0000     0.0000     0.0000     0.0000    17.0000     8.0000     8.0000    17.0000     0.0000     0.0000   142.0306   -75.9388     0.0000    -4.2998    -2.9995    -1.8994    -0.6005     0.4003     1.8994     2.7994     3.8002    31.3400    22.1100    13.8400     6.4800    -5.6200   -10.4100   -14.3900   -16.8000     0.9173     4.9500     4.800
     91     0.0000    -0.0000     3.6000     0.1500      4.971     72.000  11001.000      5.000    96.9304   142.7102   -74.5796     0.4200    -1.0000    28.5600     0.0000     0.0000    19.4875    34.6866    -1.0000    -1.5000     0.0000     0.0000     0.0000     0.0000    17.0000     8.0000     8.0000    17.0000     0.0000     0.0000   142.0306   -75.9388     0.0000    -4.2998    -2.9995    -1.8994    -0.6005     0.4003     1.8994     2.7994     3.8002    31.3400    22.1100    13.8400     6.4800    -5.6200   -10.4100   -14.3900   -16.8000     0.9147     4.9500     4.800
     92    -0.0000    -0.0000     3.5900     0.1500      5.060     54.000  11001.000      5.000    96.9304   142.7102   -74.5796     0.4200    -1.0000    28.5600     0.0000     0.0000    19.4450    34.5872    -1.0000    -1.5000     0.0000     0.0000     0.0000     0.0000    17.0000     8.0000     8.0000    17.0000     0.0000     0.0000   142.0306   -75.9388     0.0000    -4.2998    -2.9995    -1.8994    -0.6005     0.4003     1.8994     2.7994     3.8002    31.3400    22.1100    13.8400     6.4800    -5.6200   -10.4100   -14.3900   -16.8000     0.9122     4.9500     4.800
     93     0.0000    -0.0000     3.5800     0.1500      5.030     42.000  11001.000      5.000    96.9304   142.7102   -74.5796     0.4200    -1.0000    28.5600     0.0000     0.0000    19.3975    34.4877    -1.0000    -1.5000     0.0000     0.0000     0.0000     0.0000    17.0000     8.0000     8.0000    17.0000     0.0000     0.0000   142.0306   -75.9388     0.0000    -4.2998    -2.9995    -1.8994    -0.6005     0.4003     1.8994     2.7994     3.8002    31.3400    22.1100    13.8400     6.4800    -5.6200   -10.4100   -14.3900   -16.8000     0.9096     4.9500     4.800
     94     0.0000    -0.0000     3.5700     0.1500      5.042     36.000  11001.000      5.000    96.9304   142.7102   -74.5796     0.4200    -1.0000    28.5600     0.0000     0.0000    19.3525    34.3883    -1.0000    -1.5000     0.0000     0.0000     0.0000     0.0000    17.0000     8.0000     8.0000    17.0000     0.0000     0.0000   142.0306   -75.9388     0.0000    -4.2998    -2.9995    -1.8994    -0.6005     0.4003     1.8994     2.7994     3.8002    31.3400    22.1100    13.8400     6.4800    -5.6200   -10.4100   -14.3900   -16.8000     0.9071     4.9500     4.800
     95     0.0000    -0.0000     3.5600     0.1500      5.042     44.000  11001.000      5.000    96.9304   142.7102   -74.5796     0.4200    -1.0000    28.5600     0.0000     0.0000    19.3075    34.2890    -1.0000    -1.5000     0.0000     0.0000     0.0000     0.0000    17.0000     8.0000     8.0000    17.0000     0.0000     0.0000   142.0306   -75.9388     0.0000    -4.2998    -2.9995    -1.8994    -0.6005     0.4003     1.8994     2.7994     3.8002    31.3400    22.1100    13.8400     6.4800    -5.6200   -10.4100   -14.3900   -16.8000     0.9046     4.9500     4.800
     96    -0.0000    -0.0000     3.5500     0.1500      5.026     30.000  11001.000      5.000    96.9304   142.7102   -74.5796     0.4200    -1.0000    28.5600     0.0000     0.0000    19.2650    34.1896    -1.0000    -1.5000     0.0000     0.0000     0.0000     0.0000    17.0000     8.0000     8.0000    17.0000     0.0000     0.0000   142.0306   -75.9388     0.0000    -4.2998    -2.9995    -1.8994    -0.6005     0.4003     1.8994     2.7994     3.8002    31.3400    22.1100    13.8400     6.4800    -5.6200   -10.4100   -14.3900   -16.8000     0.9020     4.9500     4.800
     97     0.0000    -0.0000     3.5400     0.1500      5.035     38.000  11001.000      5.000    96.9304   142.7102   -74.5796     0.4200    -1.0000    28.5600     0.0000     0.0000    19.2150    34.0903    -1.0000    -1.5000     0.0000     0.0000     0.0000     0.0000    17.0000     8.0000     8.0000    17.0000     0.0000     0.0000   142.0306   -75.9388     0.0000    -4.2998    -2.9995    -1.8994    -0.6005     0.4003     1.8994     2.7994     3.8002    31.3400    22.1100    13.8400     6.4800    -5.6200   -10.4100   -14.3900   -16.8000     0.8995     4.9500     4.800
     98    -0.0000    -0.0000     3.5300     0.1500      4.997     35.000  11001.000      5.000    96.9304   142.7102   -74.5796     0.4200    -1.0000    28.5600     0.0000     0.0000    19.1725    33.9910    -1.0000    -1.5000     0.0000     0.0000     0.0000     0.0000    17.0000     8.0000     8.0000    17.0000     0.0000     0.0000   142.0306   -75.9388     0.0000    -4.2998    -2.9995    -1.8994    -0.6005     0.4003     1.8994     2.7994     3.8002    31.3400    22.1100    13.8400     6.4800    -5.6200   -10.4100   -14.3900   -16.8000     0.8969     4.9500     4.800
     99    -0.0000    -0.0000     3.5200     0.1500      5.018     44.000  11001.000      5.000    96.9304   142.7102   -74.5796     0.4200    -1.0000    28.5600     0.0000     0.0000    19.1300    33.8917    -1.0000    -1.5000     0.0000     0.0000     0.0000     0.0000    17.0000     8.0000     8.0000    17.0000     0.0000     0.0000   142.0306   -75.9388     0.0000    -4.2998    -2.9995    -1.8994    -0.6005     0.4003     1.8994     2.7994     3.8002    31.3400    22.1100    13.8400     6.4800    -5.6200   -10.4100   -14.3900   -16.8000     0.8944     4.9500     4.800
    100     0.0000    -0.0000     3.5100     0.1500      5.061     41.000  11001.000      5.000    96.9304   142.7102   -74.5796     0.4200    -1.0000    28.5600     0.0000     0.0000    19.0800    33.7924    -1.0000    -1.5000     0.0000     0.0000     0.0000     0.0000    17.0000     8.0000     8.0000    17.0000     0.0000     0.0000   142.0306   -75.9388     0.0000    -4.2998    -2.9995    -1.8994    -0.6005     0.4003     1.8994     2.7994     3.8002    31.3400    22.1100    13.8400     6.4800    -5.6200   -10.4100   -14.3900   -16.8000     0.8918     4.9500     4.800
    101    -0.0000    -0.0000     3.5000     0.1500      5.013     38.000  11001.000      5.000    96.9304   142.7102   -74.5796     0.4200    -1.0000    28.5600     0.0000     0.0000    19.0375    33.6932    -1.0000    -1.5000     0.0000     0.0000     0.0000     0.0000    17.0000     8.0000     8.0000    17.0000     0.0000     0.0000   142.0306   -75.9388     0.0000    -4.2998    -2.9995    -1.8994    -0.6005     0.4003     1.8994     2.7994     3.8002    31.3400    22.1100    13.8400     6.4800    -5.6200   -10.4100   -14.3900   -16.8000     0.8893     4.9500     4.800
# Sum of Counts = 18152
# Center of Mass = 3.748904+/-0.039377
# Full Width Half-Maximum = 0.386615+/-0.009643
# 8:59:07 AM  3/13/2025   scan completed.
