# scan = 159
# date = 3/11/2025
# time = 9:27:55 PM
# proposal = 35030
# experiment = CTAX Instrumental resolution benchmarking
# experiment_number = 445
# command = scanrel s1 1 -1 0.1
# builtin_command = scan s1 @(s1)+1 @(s1)+-1 0.100000
# users = Tao Hong, Tao Hong, Bing Li
# local_contact = Tao Hong
# scan_title = (005) scans-hori-focusing
# monochromator = PG002
# analyzer = Pg002
# sense = -+-
# collimation = 48-40-40-120
# samplename = LaN
# sampletype = crystal
# samplemosaic = 30.000000
# latticeconstants = 5.058628,5.058628,24.728465,90.000000,90.000000,120.000000
# ubmatrix = -0.002928,0.001986,-0.040430,-0.228168,-0.119258,0.000500,-0.005924,0.194622,0.000719
# mode = 0
# plane_normal = 0.017452,-0.026173,0.999505
# ubconf = UB10Mar2025_114214AM.ini
# preset_type = normal 
# preset_channel = mcu
# preset_value = 30.000000
# def_x = s1
# def_y = detector
# col_headers = 
#   Pt.         s1       time   detector    monitor        mcu focal_length         m1         m2       marc     mtrans     mfocus   vti_temp  smpl_temp         s2        sgl        sgu        bbb        bbl        bbr        bbt        bab        bal        bar        bat        stl        stu         a1         a2     afocus        qm1        qm2        qm3        qm4        qm5        qm6        qm7        qm8        xm1        xm2        xm3        xm4        xm5        xm6        xm7        xm8          q          h          k          l         ei         ef          e
      1    26.4025     28.204    587.000  66001.000     30.000    98.4288   142.0306   -75.9387     0.4200    -1.0000    28.2560     0.0000     0.0000    49.3360    -1.0000    -1.5000     0.0000     0.0000     0.0000     0.0000    17.0000     8.0000     8.0000    17.0000     0.0000     0.0000   142.0306   -75.9388     0.0000    -4.2998    -2.9995    -1.8994    -0.6005     0.4003     1.8994     2.7994     3.8002    31.3400    22.1100    13.8400     6.4800    -5.6200   -10.4100   -14.3900   -16.8000     1.2704    -0.0155     0.0000     4.9992     4.8000     4.8000     0.000
      2    26.3050     28.167    571.000  66001.000     30.000    98.4288   142.0306   -75.9387     0.4200    -1.0000    28.2560     0.0000     0.0000    49.3360    -1.0000    -1.5000     0.0000     0.0000     0.0000     0.0000    17.0000     8.0000     8.0000    17.0000     0.0000     0.0000   142.0306   -75.9388     0.0000    -4.2998    -2.9995    -1.8994    -0.6005     0.4003     1.8994     2.7994     3.8002    31.3400    22.1100    13.8400     6.4800    -5.6200   -10.4100   -14.3900   -16.8000     1.2704    -0.0139     0.0000     4.9994     4.8000     4.8000     0.000
      3    26.2050     28.224    568.000  66001.000     30.000    98.4288   142.0306   -75.9387     0.4200    -1.0000    28.2560     0.0000     0.0000    49.3360    -1.0000    -1.5000     0.0000     0.0000     0.0000     0.0000    17.0000     8.0000     8.0000    17.0000     0.0000     0.0000   142.0306   -75.9388     0.0000    -4.2998    -2.9995    -1.8994    -0.6005     0.4003     1.8994     2.7994     3.8002    31.3400    22.1100    13.8400     6.4800    -5.6200   -10.4100   -14.3900   -16.8000     1.2704    -0.0124     0.0000     4.9995     4.8000     4.8000     0.000
      4    26.1050     28.250    631.000  66001.000     30.000    98.4288   142.0306   -75.9387     0.4200    -1.0000    28.2560     0.0000     0.0000    49.3360    -1.0000    -1.5000     0.0000     0.0000     0.0000     0.0000    17.0000     8.0000     8.0000    17.0000     0.0000     0.0000   142.0306   -75.9388     0.0000    -4.2998    -2.9995    -1.8994    -0.6005     0.4003     1.8994     2.7994     3.8002    31.3400    22.1100    13.8400     6.4800    -5.6200   -10.4100   -14.3900   -16.8000     1.2704    -0.0109     0.0000     4.9996     4.8000     4.8000     0.000
      5    26.0025     28.107    646.000  66001.000     30.000    98.4288   142.0306   -75.9387     0.4200    -1.0000    28.2560     0.0000     0.0000    49.3360    -1.0000    -1.5000     0.0000     0.0000     0.0000     0.0000    17.0000     8.0000     8.0000    17.0000     0.0000     0.0000   142.0306   -75.9388     0.0000    -4.2998    -2.9995    -1.8994    -0.6005     0.4003     1.8994     2.7994     3.8002    31.3400    22.1100    13.8400     6.4800    -5.6200   -10.4100   -14.3900   -16.8000     1.2704    -0.0093     0.0000     4.9997     4.8000     4.8000     0.000
      6    25.9025     28.216    692.000  66001.000     30.000    98.4288   142.0306   -75.9387     0.4200    -1.0000    28.2560     0.0000     0.0000    49.3360    -1.0000    -1.5000     0.0000     0.0000     0.0000     0.0000    17.0000     8.0000     8.0000    17.0000     0.0000     0.0000   142.0306   -75.9388     0.0000    -4.2998    -2.9995    -1.8994    -0.6005     0.4003     1.8994     2.7994     3.8002    31.3400    22.1100    13.8400     6.4800    -5.6200   -10.4100   -14.3900   -16.8000     1.2704    -0.0077     0.0000     4.9998     4.8000     4.8000     0.000
      7    25.8025     28.146    664.000  66001.000     30.000    98.4288   142.0306   -75.9387     0.4200    -1.0000    28.2560     0.0000     0.0000    49.3360    -1.0000    -1.5000     0.0000     0.0000     0.0000     0.0000    17.0000     8.0000     8.0000    17.0000     0.0000     0.0000   142.0306   -75.9388     0.0000    -4.2998    -2.9995    -1.8994    -0.6005     0.4003     1.8994     2.7994     3.8002    31.3400    22.1100    13.8400     6.4800    -5.6200   -10.4100   -14.3900   -16.8000     1.2704    -0.0062     0.0000     4.9999     4.8000     4.8000     0.000
      8    25.7050     28.157    693.000  66001.000     30.000    98.4288   142.0306   -75.9387     0.4200    -1.0000    28.2560     0.0000     0.0000    49.3360    -1.0000    -1.5000     0.0000     0.0000     0.0000     0.0000    17.0000     8.0000     8.0000    17.0000     0.0000     0.0000   142.0306   -75.9388     0.0000    -4.2998    -2.9995    -1.8994    -0.6005     0.4003     1.8994     2.7994     3.8002    31.3400    22.1100    13.8400     6.4800    -5.6200   -10.4100   -14.3900   -16.8000     1.2704    -0.0047     0.0000     4.9999     4.8000     4.8000     0.000
      9    25.6025     28.019    704.000  66001.000     30.000    98.4288   142.0306   -75.9387     0.4200    -1.0000    28.2560     0.0000     0.0000    49.3360    -1.0000    -1.5000     0.0000     0.0000     0.0000     0.0000    17.0000     8.0000     8.0000    17.0000     0.0000     0.0000   142.0306   -75.9388     0.0000    -4.2998    -2.9995    -1.8994    -0.6005     0.4003     1.8994     2.7994     3.8002    31.3400    22.1100    13.8400     6.4800    -5.6200   -10.4100   -14.3900   -16.8000     1.2704    -0.0031    -0.0000     5.0000     4.8000     4.8000     0.000
     10    25.5025     28.169    942.000  66001.000     30.000    98.4288   142.0306   -75.9387     0.4200    -1.0000    28.2560     0.0000     0.0000    49.3360    -1.0000    -1.5000     0.0000     0.0000     0.0000     0.0000    17.0000     8.0000     8.0000    17.0000     0.0000     0.0000   142.0306   -75.9388     0.0000    -4.2998    -2.9995    -1.8994    -0.6005     0.4003     1.8994     2.7994     3.8002    31.3400    22.1100    13.8400     6.4800    -5.6200   -10.4100   -14.3900   -16.8000     1.2704    -0.0015     0.0000     5.0000     4.8000     4.8000     0.000
     11    25.4025     28.210   1151.000  66001.000     30.000    98.4288   142.0306   -75.9387     0.4200    -1.0000    28.2560     0.0000     0.0000    49.3360    -1.0000    -1.5000     0.0000     0.0000     0.0000     0.0000    17.0000     8.0000     8.0000    17.0000     0.0000     0.0000   142.0306   -75.9388     0.0000    -4.2998    -2.9995    -1.8994    -0.6005     0.4003     1.8994     2.7994     3.8002    31.3400    22.1100    13.8400     6.4800    -5.6200   -10.4100   -14.3900   -16.8000     1.2704     0.0000     0.0000     5.0000     4.8000     4.8000     0.000
     12    25.3050     28.309   1081.000  66001.000     30.000    98.4288   142.0306   -75.9387     0.4200    -1.0000    28.2560     0.0000     0.0000    49.3360    -1.0000    -1.5000     0.0000     0.0000     0.0000     0.0000    17.0000     8.0000     8.0000    17.0000     0.0000     0.0000   142.0306   -75.9388     0.0000    -4.2998    -2.9995    -1.8994    -0.6005     0.4003     1.8994     2.7994     3.8002    31.3400    22.1100    13.8400     6.4800    -5.6200   -10.4100   -14.3900   -16.8000     1.2704     0.0015     0.0000     5.0000     4.8000     4.8000     0.000
     13    25.2025     28.446    901.000  66001.000     30.000    98.4288   142.0306   -75.9387     0.4200    -1.0000    28.2560     0.0000     0.0000    49.3360    -1.0000    -1.5000     0.0000     0.0000     0.0000     0.0000    17.0000     8.0000     8.0000    17.0000     0.0000     0.0000   142.0306   -75.9388     0.0000    -4.2998    -2.9995    -1.8994    -0.6005     0.4003     1.8994     2.7994     3.8002    31.3400    22.1100    13.8400     6.4800    -5.6200   -10.4100   -14.3900   -16.8000     1.2704     0.0031     0.0000     5.0000     4.8000     4.8000     0.000
     14    25.1050     28.077    780.000  66001.000     30.000    98.4288   142.0306   -75.9387     0.4200    -1.0000    28.2560     0.0000     0.0000    49.3360    -1.0000    -1.5000     0.0000     0.0000     0.0000     0.0000    17.0000     8.0000     8.0000    17.0000     0.0000     0.0000   142.0306   -75.9388     0.0000    -4.2998    -2.9995    -1.8994    -0.6005     0.4003     1.8994     2.7994     3.8002    31.3400    22.1100    13.8400     6.4800    -5.6200   -10.4100   -14.3900   -16.8000     1.2704     0.0046     0.0000     4.9999     4.8000     4.8000     0.000
     15    25.0025     28.059    676.000  66001.000     30.000    98.4288   142.0306   -75.9387     0.4200    -1.0000    28.2560     0.0000     0.0000    49.3360    -1.0000    -1.5000     0.0000     0.0000     0.0000     0.0000    17.0000     8.0000     8.0000    17.0000     0.0000     0.0000   142.0306   -75.9388     0.0000    -4.2998    -2.9995    -1.8994    -0.6005     0.4003     1.8994     2.7994     3.8002    31.3400    22.1100    13.8400     6.4800    -5.6200   -10.4100   -14.3900   -16.8000     1.2704     0.0062     0.0000     4.9999     4.8000     4.8000     0.000
     16    24.9025     28.114    669.000  66001.000     30.000    98.4288   142.0306   -75.9387     0.4200    -1.0000    28.2560     0.0000     0.0000    49.3360    -1.0000    -1.5000     0.0000     0.0000     0.0000     0.0000    17.0000     8.0000     8.0000    17.0000     0.0000     0.0000   142.0306   -75.9388     0.0000    -4.2998    -2.9995    -1.8994    -0.6005     0.4003     1.8994     2.7994     3.8002    31.3400    22.1100    13.8400     6.4800    -5.6200   -10.4100   -14.3900   -16.8000     1.2704     0.0077     0.0000     4.9998     4.8000     4.8000     0.000
     17    24.8025     28.064    671.000  66001.000     30.000    98.4288   142.0306   -75.9387     0.4200    -1.0000    28.2560     0.0000     0.0000    49.3360    -1.0000    -1.5000     0.0000     0.0000     0.0000     0.0000    17.0000     8.0000     8.0000    17.0000     0.0000     0.0000   142.0306   -75.9388     0.0000    -4.2998    -2.9995    -1.8994    -0.6005     0.4003     1.8994     2.7994     3.8002    31.3400    22.1100    13.8400     6.4800    -5.6200   -10.4100   -14.3900   -16.8000     1.2704     0.0093     0.0000     4.9997     4.8000     4.8000     0.000
     18    24.7025     28.214    702.000  66001.000     30.000    98.4288   142.0306   -75.9387     0.4200    -1.0000    28.2560     0.0000     0.0000    49.3360    -1.0000    -1.5000     0.0000     0.0000     0.0000     0.0000    17.0000     8.0000     8.0000    17.0000     0.0000     0.0000   142.0306   -75.9388     0.0000    -4.2998    -2.9995    -1.8994    -0.6005     0.4003     1.8994     2.7994     3.8002    31.3400    22.1100    13.8400     6.4800    -5.6200   -10.4100   -14.3900   -16.8000     1.2704     0.0108     0.0000     4.9996     4.8000     4.8000     0.000
     19    24.6050     27.999    655.000  66001.000     30.000    98.4288   142.0306   -75.9387     0.4200    -1.0000    28.2560     0.0000     0.0000    49.3360    -1.0000    -1.5000     0.0000     0.0000     0.0000     0.0000    17.0000     8.0000     8.0000    17.0000     0.0000     0.0000   142.0306   -75.9388     0.0000    -4.2998    -2.9995    -1.8994    -0.6005     0.4003     1.8994     2.7994     3.8002    31.3400    22.1100    13.8400     6.4800    -5.6200   -10.4100   -14.3900   -16.8000     1.2704     0.0123     0.0000     4.9995     4.8000     4.8000     0.000
     20    24.5000     28.290    722.000  66001.000     30.000    98.4288   142.0306   -75.9387     0.4200    -1.0000    28.2560     0.0000     0.0000    49.3360    -1.0000    -1.5000     0.0000     0.0000     0.0000     0.0000    17.0000     8.0000     8.0000    17.0000     0.0000     0.0000   142.0306   -75.9388     0.0000    -4.2998    -2.9995    -1.8994    -0.6005     0.4003     1.8994     2.7994     3.8002    31.3400    22.1100    13.8400     6.4800    -5.6200   -10.4100   -14.3900   -16.8000     1.2704     0.0140     0.0000     4.9994     4.8000     4.8000     0.000
     21    24.4050     28.153    716.000  66001.000     30.000    98.4288   142.0306   -75.9387     0.4200    -1.0000    28.2560     0.0000     0.0000    49.3360    -1.0000    -1.5000     0.0000     0.0000     0.0000     0.0000    17.0000     8.0000     8.0000    17.0000     0.0000     0.0000   142.0306   -75.9388     0.0000    -4.2998    -2.9995    -1.8994    -0.6005     0.4003     1.8994     2.7994     3.8002    31.3400    22.1100    13.8400     6.4800    -5.6200   -10.4100   -14.3900   -16.8000     1.2704     0.0154     0.0000     4.9992     4.8000     4.8000     0.000
# Sum of Counts = 15422
# Center of Mass = 25.372707+/-0.288979
# Full Width Half-Maximum = 1.141269+/-0.119465
# 9:38:26 PM  3/11/2025   scan completed.
