# scan = 224
# date = 3/12/2025
# time = 3:41:05 PM
# proposal = 35030
# experiment = CTAX Instrumental resolution benchmarking
# experiment_number = 445
# command = scan h 1 k 0 l 7.5 6.5 0.01 e 0.05 preset mcu 5
# builtin_command = scan h 1 k 0 l 7.5 6.5 0.01 e 0.05 preset mcu 5
# users = Tao Hong, Tao Hong, Bing Li
# local_contact = Tao Hong
# scan_title = (10L) scan at E=0.05 meV and hori-focusing
# monochromator = PG002
# analyzer = Pg002
# sense = -+-
# collimation = 48-40-40-120
# samplename = LaN
# sampletype = crystal
# samplemosaic = 30.000000
# latticeconstants = 5.058628,5.058628,24.728465,90.000000,90.000000,120.000000
# ubmatrix = -0.002928,0.001986,-0.040430,-0.228168,-0.119258,0.000500,-0.005924,0.194622,0.000719
# mode = 0
# plane_normal = 0.017452,-0.026173,0.999505
# ubconf = UB10Mar2025_114214AM.ini
# preset_type = normal 
# preset_channel = mcu
# preset_value = 5.000000
# def_x = l
# def_y = detector
# col_headers = 
#   Pt.          h          k          l          e       time   detector    monitor        mcu focal_length         m1         m2       marc     mtrans     mfocus   vti_temp  smpl_temp         s1         s2        sgl        sgu        bbb        bbl        bbr        bbt        bab        bal        bar        bat        stl        stu         a1         a2     afocus        qm1        qm2        qm3        qm4        qm5        qm6        qm7        qm8        xm1        xm2        xm3        xm4        xm5        xm6        xm7        xm8          q         ei         ef
      1     1.0000    -0.0000     7.4999     0.0500      4.764     55.000  11001.000      5.000    97.9308   142.2614   -75.4773     0.4200    -1.0000    28.3560     0.0000     0.0000    15.2850   102.7963    -1.0000    -1.5000     0.0000     0.0000     0.0000     0.0000    17.0000     8.0000     8.0000    17.0000     0.0000     0.0000   142.0306   -75.9388     0.0000    -4.2998    -2.9995    -1.8994    -0.6005     0.4003     1.8994     2.7994     3.8002    31.3400    22.1100    13.8400     6.4800    -5.6200   -10.4100   -14.3900   -16.8000     2.3851     4.8500     4.800
      2     1.0000    -0.0000     7.4901     0.0500      4.671     40.000  11001.000      5.000    97.9308   142.2614   -75.4773     0.4200    -1.0000    28.3560     0.0000     0.0000    15.1900   102.6742    -1.0000    -1.5000     0.0000     0.0000     0.0000     0.0000    17.0000     8.0000     8.0000    17.0000     0.0000     0.0000   142.0306   -75.9388     0.0000    -4.2998    -2.9995    -1.8994    -0.6005     0.4003     1.8994     2.7994     3.8002    31.3400    22.1100    13.8400     6.4800    -5.6200   -10.4100   -14.3900   -16.8000     2.3830     4.8500     4.800
      3     1.0000    -0.0000     7.4799     0.0500      4.785     52.000  11001.000      5.000    97.9308   142.2614   -75.4773     0.4200    -1.0000    28.3560     0.0000     0.0000    15.0900   102.5524    -1.0000    -1.5000     0.0000     0.0000     0.0000     0.0000    17.0000     8.0000     8.0000    17.0000     0.0000     0.0000   142.0306   -75.9388     0.0000    -4.2998    -2.9995    -1.8994    -0.6005     0.4003     1.8994     2.7994     3.8002    31.3400    22.1100    13.8400     6.4800    -5.6200   -10.4100   -14.3900   -16.8000     2.3810     4.8500     4.800
      4     1.0000    -0.0000     7.4701     0.0500      4.701     54.000  11001.000      5.000    97.9308   142.2614   -75.4773     0.4200    -1.0000    28.3560     0.0000     0.0000    14.9950   102.4307    -1.0000    -1.5000     0.0000     0.0000     0.0000     0.0000    17.0000     8.0000     8.0000    17.0000     0.0000     0.0000   142.0306   -75.9388     0.0000    -4.2998    -2.9995    -1.8994    -0.6005     0.4003     1.8994     2.7994     3.8002    31.3400    22.1100    13.8400     6.4800    -5.6200   -10.4100   -14.3900   -16.8000     2.3790     4.8500     4.800
      5     1.0000    -0.0000     7.4601     0.0500      4.625     41.000  11001.000      5.000    97.9308   142.2614   -75.4773     0.4200    -1.0000    28.3560     0.0000     0.0000    14.8975   102.3093    -1.0000    -1.5000     0.0000     0.0000     0.0000     0.0000    17.0000     8.0000     8.0000    17.0000     0.0000     0.0000   142.0306   -75.9388     0.0000    -4.2998    -2.9995    -1.8994    -0.6005     0.4003     1.8994     2.7994     3.8002    31.3400    22.1100    13.8400     6.4800    -5.6200   -10.4100   -14.3900   -16.8000     2.3769     4.8500     4.800
      6     1.0000    -0.0000     7.4499     0.0500      4.669     48.000  11001.000      5.000    97.9308   142.2614   -75.4773     0.4200    -1.0000    28.3560     0.0000     0.0000    14.7975   102.1881    -1.0000    -1.5000     0.0000     0.0000     0.0000     0.0000    17.0000     8.0000     8.0000    17.0000     0.0000     0.0000   142.0306   -75.9388     0.0000    -4.2998    -2.9995    -1.8994    -0.6005     0.4003     1.8994     2.7994     3.8002    31.3400    22.1100    13.8400     6.4800    -5.6200   -10.4100   -14.3900   -16.8000     2.3749     4.8500     4.800
      7     1.0000    -0.0000     7.4401     0.0500      4.669     42.000  11001.000      5.000    97.9308   142.2614   -75.4773     0.4200    -1.0000    28.3560     0.0000     0.0000    14.7025   102.0672    -1.0000    -1.5000     0.0000     0.0000     0.0000     0.0000    17.0000     8.0000     8.0000    17.0000     0.0000     0.0000   142.0306   -75.9388     0.0000    -4.2998    -2.9995    -1.8994    -0.6005     0.4003     1.8994     2.7994     3.8002    31.3400    22.1100    13.8400     6.4800    -5.6200   -10.4100   -14.3900   -16.8000     2.3729     4.8500     4.800
      8     1.0000    -0.0000     7.4301     0.0500      4.689     55.000  11001.000      5.000    97.9308   142.2614   -75.4773     0.4200    -1.0000    28.3560     0.0000     0.0000    14.6050   101.9464    -1.0000    -1.5000     0.0000     0.0000     0.0000     0.0000    17.0000     8.0000     8.0000    17.0000     0.0000     0.0000   142.0306   -75.9388     0.0000    -4.2998    -2.9995    -1.8994    -0.6005     0.4003     1.8994     2.7994     3.8002    31.3400    22.1100    13.8400     6.4800    -5.6200   -10.4100   -14.3900   -16.8000     2.3709     4.8500     4.800
      9     1.0000    -0.0000     7.4200     0.0500      4.770     40.000  11001.000      5.000    97.9308   142.2614   -75.4773     0.4200    -1.0000    28.3560     0.0000     0.0000    14.5075   101.8259    -1.0000    -1.5000     0.0000     0.0000     0.0000     0.0000    17.0000     8.0000     8.0000    17.0000     0.0000     0.0000   142.0306   -75.9388     0.0000    -4.2998    -2.9995    -1.8994    -0.6005     0.4003     1.8994     2.7994     3.8002    31.3400    22.1100    13.8400     6.4800    -5.6200   -10.4100   -14.3900   -16.8000     2.3689     4.8500     4.800
     10     1.0000    -0.0000     7.4100     0.0500      4.696     42.000  11001.000      5.000    97.9308   142.2614   -75.4773     0.4200    -1.0000    28.3560     0.0000     0.0000    14.4100   101.7056    -1.0000    -1.5000     0.0000     0.0000     0.0000     0.0000    17.0000     8.0000     8.0000    17.0000     0.0000     0.0000   142.0306   -75.9388     0.0000    -4.2998    -2.9995    -1.8994    -0.6005     0.4003     1.8994     2.7994     3.8002    31.3400    22.1100    13.8400     6.4800    -5.6200   -10.4100   -14.3900   -16.8000     2.3668     4.8500     4.800
     11     1.0000    -0.0000     7.4002     0.0500      4.691     41.000  11001.000      5.000    97.9308   142.2614   -75.4773     0.4200    -1.0000    28.3560     0.0000     0.0000    14.3150   101.5854    -1.0000    -1.5000     0.0000     0.0000     0.0000     0.0000    17.0000     8.0000     8.0000    17.0000     0.0000     0.0000   142.0306   -75.9388     0.0000    -4.2998    -2.9995    -1.8994    -0.6005     0.4003     1.8994     2.7994     3.8002    31.3400    22.1100    13.8400     6.4800    -5.6200   -10.4100   -14.3900   -16.8000     2.3648     4.8500     4.800
     12     1.0000    -0.0000     7.3899     0.0500      4.695     51.000  11001.000      5.000    97.9308   142.2614   -75.4773     0.4200    -1.0000    28.3560     0.0000     0.0000    14.2150   101.4656    -1.0000    -1.5000     0.0000     0.0000     0.0000     0.0000    17.0000     8.0000     8.0000    17.0000     0.0000     0.0000   142.0306   -75.9388     0.0000    -4.2998    -2.9995    -1.8994    -0.6005     0.4003     1.8994     2.7994     3.8002    31.3400    22.1100    13.8400     6.4800    -5.6200   -10.4100   -14.3900   -16.8000     2.3628     4.8500     4.800
     13     1.0000    -0.0000     7.3801     0.0500      4.785     42.000  11001.000      5.000    97.9308   142.2614   -75.4773     0.4200    -1.0000    28.3560     0.0000     0.0000    14.1200   101.3459    -1.0000    -1.5000     0.0000     0.0000     0.0000     0.0000    17.0000     8.0000     8.0000    17.0000     0.0000     0.0000   142.0306   -75.9388     0.0000    -4.2998    -2.9995    -1.8994    -0.6005     0.4003     1.8994     2.7994     3.8002    31.3400    22.1100    13.8400     6.4800    -5.6200   -10.4100   -14.3900   -16.8000     2.3608     4.8500     4.800
     14     1.0000    -0.0000     7.3701     0.0500      4.725     43.000  11001.000      5.000    97.9308   142.2614   -75.4773     0.4200    -1.0000    28.3560     0.0000     0.0000    14.0225   101.2264    -1.0000    -1.5000     0.0000     0.0000     0.0000     0.0000    17.0000     8.0000     8.0000    17.0000     0.0000     0.0000   142.0306   -75.9388     0.0000    -4.2998    -2.9995    -1.8994    -0.6005     0.4003     1.8994     2.7994     3.8002    31.3400    22.1100    13.8400     6.4800    -5.6200   -10.4100   -14.3900   -16.8000     2.3588     4.8500     4.800
     15     1.0000    -0.0000     7.3600     0.0500      4.710     41.000  11001.000      5.000    97.9308   142.2614   -75.4773     0.4200    -1.0000    28.3560     0.0000     0.0000    13.9250   101.1071    -1.0000    -1.5000     0.0000     0.0000     0.0000     0.0000    17.0000     8.0000     8.0000    17.0000     0.0000     0.0000   142.0306   -75.9388     0.0000    -4.2998    -2.9995    -1.8994    -0.6005     0.4003     1.8994     2.7994     3.8002    31.3400    22.1100    13.8400     6.4800    -5.6200   -10.4100   -14.3900   -16.8000     2.3567     4.8500     4.800
     16     1.0000    -0.0000     7.3499     0.0500      4.745     28.000  11001.000      5.000    97.9308   142.2614   -75.4773     0.4200    -1.0000    28.3560     0.0000     0.0000    13.8275   100.9881    -1.0000    -1.5000     0.0000     0.0000     0.0000     0.0000    17.0000     8.0000     8.0000    17.0000     0.0000     0.0000   142.0306   -75.9388     0.0000    -4.2998    -2.9995    -1.8994    -0.6005     0.4003     1.8994     2.7994     3.8002    31.3400    22.1100    13.8400     6.4800    -5.6200   -10.4100   -14.3900   -16.8000     2.3547     4.8500     4.800
     17     1.0000    -0.0000     7.3401     0.0500      4.812     40.000  11001.000      5.000    97.9308   142.2614   -75.4773     0.4200    -1.0000    28.3560     0.0000     0.0000    13.7325   100.8692    -1.0000    -1.5000     0.0000     0.0000     0.0000     0.0000    17.0000     8.0000     8.0000    17.0000     0.0000     0.0000   142.0306   -75.9388     0.0000    -4.2998    -2.9995    -1.8994    -0.6005     0.4003     1.8994     2.7994     3.8002    31.3400    22.1100    13.8400     6.4800    -5.6200   -10.4100   -14.3900   -16.8000     2.3527     4.8500     4.800
     18     1.0000    -0.0000     7.3300     0.0500      4.742     33.000  11001.000      5.000    97.9308   142.2614   -75.4773     0.4200    -1.0000    28.3560     0.0000     0.0000    13.6350   100.7506    -1.0000    -1.5000     0.0000     0.0000     0.0000     0.0000    17.0000     8.0000     8.0000    17.0000     0.0000     0.0000   142.0306   -75.9388     0.0000    -4.2998    -2.9995    -1.8994    -0.6005     0.4003     1.8994     2.7994     3.8002    31.3400    22.1100    13.8400     6.4800    -5.6200   -10.4100   -14.3900   -16.8000     2.3507     4.8500     4.800
     19     1.0000    -0.0000     7.3200     0.0500      4.688     41.000  11001.000      5.000    97.9308   142.2614   -75.4773     0.4200    -1.0000    28.3560     0.0000     0.0000    13.5375   100.6322    -1.0000    -1.5000     0.0000     0.0000     0.0000     0.0000    17.0000     8.0000     8.0000    17.0000     0.0000     0.0000   142.0306   -75.9388     0.0000    -4.2998    -2.9995    -1.8994    -0.6005     0.4003     1.8994     2.7994     3.8002    31.3400    22.1100    13.8400     6.4800    -5.6200   -10.4100   -14.3900   -16.8000     2.3487     4.8500     4.800
     20     1.0000    -0.0000     7.3099     0.0500      4.843     41.000  11001.000      5.000    97.9308   142.2614   -75.4773     0.4200    -1.0000    28.3560     0.0000     0.0000    13.4400   100.5140    -1.0000    -1.5000     0.0000     0.0000     0.0000     0.0000    17.0000     8.0000     8.0000    17.0000     0.0000     0.0000   142.0306   -75.9388     0.0000    -4.2998    -2.9995    -1.8994    -0.6005     0.4003     1.8994     2.7994     3.8002    31.3400    22.1100    13.8400     6.4800    -5.6200   -10.4100   -14.3900   -16.8000     2.3467     4.8500     4.800
     21     1.0000    -0.0000     7.3001     0.0500      4.655     38.000  11001.000      5.000    97.9308   142.2614   -75.4773     0.4200    -1.0000    28.3560     0.0000     0.0000    13.3450   100.3960    -1.0000    -1.5000     0.0000     0.0000     0.0000     0.0000    17.0000     8.0000     8.0000    17.0000     0.0000     0.0000   142.0306   -75.9388     0.0000    -4.2998    -2.9995    -1.8994    -0.6005     0.4003     1.8994     2.7994     3.8002    31.3400    22.1100    13.8400     6.4800    -5.6200   -10.4100   -14.3900   -16.8000     2.3447     4.8500     4.800
     22     1.0000    -0.0000     7.2900     0.0500      4.604     45.000  11001.000      5.000    97.9308   142.2614   -75.4773     0.4200    -1.0000    28.3560     0.0000     0.0000    13.2475   100.2782    -1.0000    -1.5000     0.0000     0.0000     0.0000     0.0000    17.0000     8.0000     8.0000    17.0000     0.0000     0.0000   142.0306   -75.9388     0.0000    -4.2998    -2.9995    -1.8994    -0.6005     0.4003     1.8994     2.7994     3.8002    31.3400    22.1100    13.8400     6.4800    -5.6200   -10.4100   -14.3900   -16.8000     2.3426     4.8500     4.800
     23     1.0000    -0.0000     7.2801     0.0500      4.610     48.000  11001.000      5.000    97.9308   142.2614   -75.4773     0.4200    -1.0000    28.3560     0.0000     0.0000    13.1525   100.1606    -1.0000    -1.5000     0.0000     0.0000     0.0000     0.0000    17.0000     8.0000     8.0000    17.0000     0.0000     0.0000   142.0306   -75.9388     0.0000    -4.2998    -2.9995    -1.8994    -0.6005     0.4003     1.8994     2.7994     3.8002    31.3400    22.1100    13.8400     6.4800    -5.6200   -10.4100   -14.3900   -16.8000     2.3406     4.8500     4.800
     24     1.0000    -0.0000     7.2698     0.0500      4.718     37.000  11001.000      5.000    97.9308   142.2614   -75.4773     0.4200    -1.0000    28.3560     0.0000     0.0000    13.0525   100.0432    -1.0000    -1.5000     0.0000     0.0000     0.0000     0.0000    17.0000     8.0000     8.0000    17.0000     0.0000     0.0000   142.0306   -75.9388     0.0000    -4.2998    -2.9995    -1.8994    -0.6005     0.4003     1.8994     2.7994     3.8002    31.3400    22.1100    13.8400     6.4800    -5.6200   -10.4100   -14.3900   -16.8000     2.3386     4.8500     4.800
     25     1.0000    -0.0000     7.2600     0.0500      4.805     39.000  11001.000      5.000    97.9308   142.2614   -75.4773     0.4200    -1.0000    28.3560     0.0000     0.0000    12.9575    99.9260    -1.0000    -1.5000     0.0000     0.0000     0.0000     0.0000    17.0000     8.0000     8.0000    17.0000     0.0000     0.0000   142.0306   -75.9388     0.0000    -4.2998    -2.9995    -1.8994    -0.6005     0.4003     1.8994     2.7994     3.8002    31.3400    22.1100    13.8400     6.4800    -5.6200   -10.4100   -14.3900   -16.8000     2.3366     4.8500     4.800
     26     1.0000    -0.0000     7.2501     0.0500      4.713     32.000  11001.000      5.000    97.9308   142.2614   -75.4773     0.4200    -1.0000    28.3560     0.0000     0.0000    12.8625    99.8090    -1.0000    -1.5000     0.0000     0.0000     0.0000     0.0000    17.0000     8.0000     8.0000    17.0000     0.0000     0.0000   142.0306   -75.9388     0.0000    -4.2998    -2.9995    -1.8994    -0.6005     0.4003     1.8994     2.7994     3.8002    31.3400    22.1100    13.8400     6.4800    -5.6200   -10.4100   -14.3900   -16.8000     2.3346     4.8500     4.800
     27     1.0000    -0.0000     7.2400     0.0500      4.679     49.000  11001.000      5.000    97.9308   142.2614   -75.4773     0.4200    -1.0000    28.3560     0.0000     0.0000    12.7650    99.6922    -1.0000    -1.5000     0.0000     0.0000     0.0000     0.0000    17.0000     8.0000     8.0000    17.0000     0.0000     0.0000   142.0306   -75.9388     0.0000    -4.2998    -2.9995    -1.8994    -0.6005     0.4003     1.8994     2.7994     3.8002    31.3400    22.1100    13.8400     6.4800    -5.6200   -10.4100   -14.3900   -16.8000     2.3326     4.8500     4.800
     28     1.0000    -0.0000     7.2301     0.0500      4.684     35.000  11001.000      5.000    97.9308   142.2614   -75.4773     0.4200    -1.0000    28.3560     0.0000     0.0000    12.6700    99.5757    -1.0000    -1.5000     0.0000     0.0000     0.0000     0.0000    17.0000     8.0000     8.0000    17.0000     0.0000     0.0000   142.0306   -75.9388     0.0000    -4.2998    -2.9995    -1.8994    -0.6005     0.4003     1.8994     2.7994     3.8002    31.3400    22.1100    13.8400     6.4800    -5.6200   -10.4100   -14.3900   -16.8000     2.3306     4.8500     4.800
     29     1.0000    -0.0000     7.2198     0.0500      4.672     32.000  11001.000      5.000    97.9308   142.2614   -75.4773     0.4200    -1.0000    28.3560     0.0000     0.0000    12.5700    99.4593    -1.0000    -1.5000     0.0000     0.0000     0.0000     0.0000    17.0000     8.0000     8.0000    17.0000     0.0000     0.0000   142.0306   -75.9388     0.0000    -4.2998    -2.9995    -1.8994    -0.6005     0.4003     1.8994     2.7994     3.8002    31.3400    22.1100    13.8400     6.4800    -5.6200   -10.4100   -14.3900   -16.8000     2.3286     4.8500     4.800
     30     1.0000    -0.0000     7.2102     0.0500      4.713     42.000  11001.000      5.000    97.9308   142.2614   -75.4773     0.4200    -1.0000    28.3560     0.0000     0.0000    12.4775    99.3431    -1.0000    -1.5000     0.0000     0.0000     0.0000     0.0000    17.0000     8.0000     8.0000    17.0000     0.0000     0.0000   142.0306   -75.9388     0.0000    -4.2998    -2.9995    -1.8994    -0.6005     0.4003     1.8994     2.7994     3.8002    31.3400    22.1100    13.8400     6.4800    -5.6200   -10.4100   -14.3900   -16.8000     2.3266     4.8500     4.800
     31     1.0000    -0.0000     7.2001     0.0500      4.775     54.000  11001.000      5.000    97.9308   142.2614   -75.4773     0.4200    -1.0000    28.3560     0.0000     0.0000    12.3800    99.2271    -1.0000    -1.5000     0.0000     0.0000     0.0000     0.0000    17.0000     8.0000     8.0000    17.0000     0.0000     0.0000   142.0306   -75.9388     0.0000    -4.2998    -2.9995    -1.8994    -0.6005     0.4003     1.8994     2.7994     3.8002    31.3400    22.1100    13.8400     6.4800    -5.6200   -10.4100   -14.3900   -16.8000     2.3246     4.8500     4.800
     32     1.0000    -0.0000     7.1899     0.0500      4.726     36.000  11001.000      5.000    97.9308   142.2614   -75.4773     0.4200    -1.0000    28.3560     0.0000     0.0000    12.2825    99.1114    -1.0000    -1.5000     0.0000     0.0000     0.0000     0.0000    17.0000     8.0000     8.0000    17.0000     0.0000     0.0000   142.0306   -75.9388     0.0000    -4.2998    -2.9995    -1.8994    -0.6005     0.4003     1.8994     2.7994     3.8002    31.3400    22.1100    13.8400     6.4800    -5.6200   -10.4100   -14.3900   -16.8000     2.3226     4.8500     4.800
     33     1.0000    -0.0000     7.1801     0.0500      4.636     46.000  11001.000      5.000    97.9308   142.2614   -75.4773     0.4200    -1.0000    28.3560     0.0000     0.0000    12.1875    98.9958    -1.0000    -1.5000     0.0000     0.0000     0.0000     0.0000    17.0000     8.0000     8.0000    17.0000     0.0000     0.0000   142.0306   -75.9388     0.0000    -4.2998    -2.9995    -1.8994    -0.6005     0.4003     1.8994     2.7994     3.8002    31.3400    22.1100    13.8400     6.4800    -5.6200   -10.4100   -14.3900   -16.8000     2.3206     4.8500     4.800
     34     1.0000    -0.0000     7.1699     0.0500      4.662     37.000  11001.000      5.000    97.9308   142.2614   -75.4773     0.4200    -1.0000    28.3560     0.0000     0.0000    12.0900    98.8804    -1.0000    -1.5000     0.0000     0.0000     0.0000     0.0000    17.0000     8.0000     8.0000    17.0000     0.0000     0.0000   142.0306   -75.9388     0.0000    -4.2998    -2.9995    -1.8994    -0.6005     0.4003     1.8994     2.7994     3.8002    31.3400    22.1100    13.8400     6.4800    -5.6200   -10.4100   -14.3900   -16.8000     2.3186     4.8500     4.800
     35     1.0000    -0.0000     7.1601     0.0500      4.816     40.000  11001.000      5.000    97.9308   142.2614   -75.4773     0.4200    -1.0000    28.3560     0.0000     0.0000    11.9950    98.7652    -1.0000    -1.5000     0.0000     0.0000     0.0000     0.0000    17.0000     8.0000     8.0000    17.0000     0.0000     0.0000   142.0306   -75.9388     0.0000    -4.2998    -2.9995    -1.8994    -0.6005     0.4003     1.8994     2.7994     3.8002    31.3400    22.1100    13.8400     6.4800    -5.6200   -10.4100   -14.3900   -16.8000     2.3166     4.8500     4.800
     36     1.0000    -0.0000     7.1499     0.0500      4.685     37.000  11001.000      5.000    97.9308   142.2614   -75.4773     0.4200    -1.0000    28.3560     0.0000     0.0000    11.8975    98.6502    -1.0000    -1.5000     0.0000     0.0000     0.0000     0.0000    17.0000     8.0000     8.0000    17.0000     0.0000     0.0000   142.0306   -75.9388     0.0000    -4.2998    -2.9995    -1.8994    -0.6005     0.4003     1.8994     2.7994     3.8002    31.3400    22.1100    13.8400     6.4800    -5.6200   -10.4100   -14.3900   -16.8000     2.3146     4.8500     4.800
     37     1.0000    -0.0000     7.1400     0.0500      4.776     49.000  11001.000      5.000    97.9308   142.2614   -75.4773     0.4200    -1.0000    28.3560     0.0000     0.0000    11.8025    98.5354    -1.0000    -1.5000     0.0000     0.0000     0.0000     0.0000    17.0000     8.0000     8.0000    17.0000     0.0000     0.0000   142.0306   -75.9388     0.0000    -4.2998    -2.9995    -1.8994    -0.6005     0.4003     1.8994     2.7994     3.8002    31.3400    22.1100    13.8400     6.4800    -5.6200   -10.4100   -14.3900   -16.8000     2.3126     4.8500     4.800
     38     1.0000    -0.0000     7.1299     0.0500      4.740     41.000  11001.000      5.000    97.9308   142.2614   -75.4773     0.4200    -1.0000    28.3560     0.0000     0.0000    11.7050    98.4208    -1.0000    -1.5000     0.0000     0.0000     0.0000     0.0000    17.0000     8.0000     8.0000    17.0000     0.0000     0.0000   142.0306   -75.9388     0.0000    -4.2998    -2.9995    -1.8994    -0.6005     0.4003     1.8994     2.7994     3.8002    31.3400    22.1100    13.8400     6.4800    -5.6200   -10.4100   -14.3900   -16.8000     2.3106     4.8500     4.800
     39     1.0000    -0.0000     7.1200     0.0500      4.690     57.000  11001.000      5.000    97.9308   142.2614   -75.4773     0.4200    -1.0000    28.3560     0.0000     0.0000    11.6100    98.3064    -1.0000    -1.5000     0.0000     0.0000     0.0000     0.0000    17.0000     8.0000     8.0000    17.0000     0.0000     0.0000   142.0306   -75.9388     0.0000    -4.2998    -2.9995    -1.8994    -0.6005     0.4003     1.8994     2.7994     3.8002    31.3400    22.1100    13.8400     6.4800    -5.6200   -10.4100   -14.3900   -16.8000     2.3086     4.8500     4.800
     40     1.0000    -0.0000     7.1101     0.0500      4.696     54.000  11001.000      5.000    97.9308   142.2614   -75.4773     0.4200    -1.0000    28.3560     0.0000     0.0000    11.5150    98.1922    -1.0000    -1.5000     0.0000     0.0000     0.0000     0.0000    17.0000     8.0000     8.0000    17.0000     0.0000     0.0000   142.0306   -75.9388     0.0000    -4.2998    -2.9995    -1.8994    -0.6005     0.4003     1.8994     2.7994     3.8002    31.3400    22.1100    13.8400     6.4800    -5.6200   -10.4100   -14.3900   -16.8000     2.3067     4.8500     4.800
     41     1.0000    -0.0000     7.1000     0.0500      4.638     48.000  11001.000      5.000    97.9308   142.2614   -75.4773     0.4200    -1.0000    28.3560     0.0000     0.0000    11.4175    98.0782    -1.0000    -1.5000     0.0000     0.0000     0.0000     0.0000    17.0000     8.0000     8.0000    17.0000     0.0000     0.0000   142.0306   -75.9388     0.0000    -4.2998    -2.9995    -1.8994    -0.6005     0.4003     1.8994     2.7994     3.8002    31.3400    22.1100    13.8400     6.4800    -5.6200   -10.4100   -14.3900   -16.8000     2.3047     4.8500     4.800
     42     1.0000    -0.0000     7.0901     0.0500      4.702     53.000  11001.000      5.000    97.9308   142.2614   -75.4773     0.4200    -1.0000    28.3560     0.0000     0.0000    11.3225    97.9644    -1.0000    -1.5000     0.0000     0.0000     0.0000     0.0000    17.0000     8.0000     8.0000    17.0000     0.0000     0.0000   142.0306   -75.9388     0.0000    -4.2998    -2.9995    -1.8994    -0.6005     0.4003     1.8994     2.7994     3.8002    31.3400    22.1100    13.8400     6.4800    -5.6200   -10.4100   -14.3900   -16.8000     2.3027     4.8500     4.800
     43     1.0000    -0.0000     7.0799     0.0500      4.717     61.000  11001.000      5.000    97.9308   142.2614   -75.4773     0.4200    -1.0000    28.3560     0.0000     0.0000    11.2250    97.8508    -1.0000    -1.5000     0.0000     0.0000     0.0000     0.0000    17.0000     8.0000     8.0000    17.0000     0.0000     0.0000   142.0306   -75.9388     0.0000    -4.2998    -2.9995    -1.8994    -0.6005     0.4003     1.8994     2.7994     3.8002    31.3400    22.1100    13.8400     6.4800    -5.6200   -10.4100   -14.3900   -16.8000     2.3007     4.8500     4.800
     44     1.0000    -0.0000     7.0700     0.0500      4.644     62.000  11001.000      5.000    97.9308   142.2614   -75.4773     0.4200    -1.0000    28.3560     0.0000     0.0000    11.1300    97.7373    -1.0000    -1.5000     0.0000     0.0000     0.0000     0.0000    17.0000     8.0000     8.0000    17.0000     0.0000     0.0000   142.0306   -75.9388     0.0000    -4.2998    -2.9995    -1.8994    -0.6005     0.4003     1.8994     2.7994     3.8002    31.3400    22.1100    13.8400     6.4800    -5.6200   -10.4100   -14.3900   -16.8000     2.2987     4.8500     4.800
     45     1.0000    -0.0000     7.0601     0.0500      4.701     55.000  11001.000      5.000    97.9308   142.2614   -75.4773     0.4200    -1.0000    28.3560     0.0000     0.0000    11.0350    97.6240    -1.0000    -1.5000     0.0000     0.0000     0.0000     0.0000    17.0000     8.0000     8.0000    17.0000     0.0000     0.0000   142.0306   -75.9388     0.0000    -4.2998    -2.9995    -1.8994    -0.6005     0.4003     1.8994     2.7994     3.8002    31.3400    22.1100    13.8400     6.4800    -5.6200   -10.4100   -14.3900   -16.8000     2.2967     4.8500     4.800
     46     1.0000    -0.0000     7.0499     0.0500      4.761    118.000  11001.000      5.000    97.9308   142.2614   -75.4773     0.4200    -1.0000    28.3560     0.0000     0.0000    10.9375    97.5110    -1.0000    -1.5000     0.0000     0.0000     0.0000     0.0000    17.0000     8.0000     8.0000    17.0000     0.0000     0.0000   142.0306   -75.9388     0.0000    -4.2998    -2.9995    -1.8994    -0.6005     0.4003     1.8994     2.7994     3.8002    31.3400    22.1100    13.8400     6.4800    -5.6200   -10.4100   -14.3900   -16.8000     2.2947     4.8500     4.800
     47     1.0000    -0.0000     7.0400     0.0500      4.687    123.000  11001.000      5.000    97.9308   142.2614   -75.4773     0.4200    -1.0000    28.3560     0.0000     0.0000    10.8425    97.3981    -1.0000    -1.5000     0.0000     0.0000     0.0000     0.0000    17.0000     8.0000     8.0000    17.0000     0.0000     0.0000   142.0306   -75.9388     0.0000    -4.2998    -2.9995    -1.8994    -0.6005     0.4003     1.8994     2.7994     3.8002    31.3400    22.1100    13.8400     6.4800    -5.6200   -10.4100   -14.3900   -16.8000     2.2928     4.8500     4.800
     48     1.0000    -0.0000     7.0299     0.0500      4.726    278.000  11001.000      5.000    97.9308   142.2614   -75.4773     0.4200    -1.0000    28.3560     0.0000     0.0000    10.7450    97.2854    -1.0000    -1.5000     0.0000     0.0000     0.0000     0.0000    17.0000     8.0000     8.0000    17.0000     0.0000     0.0000   142.0306   -75.9388     0.0000    -4.2998    -2.9995    -1.8994    -0.6005     0.4003     1.8994     2.7994     3.8002    31.3400    22.1100    13.8400     6.4800    -5.6200   -10.4100   -14.3900   -16.8000     2.2908     4.8500     4.800
     49     1.0000    -0.0000     7.0202     0.0500      4.821    677.000  11001.000      5.000    97.9308   142.2614   -75.4773     0.4200    -1.0000    28.3560     0.0000     0.0000    10.6525    97.1730    -1.0000    -1.5000     0.0000     0.0000     0.0000     0.0000    17.0000     8.0000     8.0000    17.0000     0.0000     0.0000   142.0306   -75.9388     0.0000    -4.2998    -2.9995    -1.8994    -0.6005     0.4003     1.8994     2.7994     3.8002    31.3400    22.1100    13.8400     6.4800    -5.6200   -10.4100   -14.3900   -16.8000     2.2888     4.8500     4.800
     50     1.0000    -0.0000     7.0100     0.0500      4.734   1900.000  11001.000      5.000    97.9308   142.2614   -75.4773     0.4200    -1.0000    28.3560     0.0000     0.0000    10.5550    97.0606    -1.0000    -1.5000     0.0000     0.0000     0.0000     0.0000    17.0000     8.0000     8.0000    17.0000     0.0000     0.0000   142.0306   -75.9388     0.0000    -4.2998    -2.9995    -1.8994    -0.6005     0.4003     1.8994     2.7994     3.8002    31.3400    22.1100    13.8400     6.4800    -5.6200   -10.4100   -14.3900   -16.8000     2.2868     4.8500     4.800
     51     1.0000    -0.0000     7.0001     0.0500      4.774   3335.000  11001.000      5.000    97.9308   142.2614   -75.4773     0.4200    -1.0000    28.3560     0.0000     0.0000    10.4600    96.9485    -1.0000    -1.5000     0.0000     0.0000     0.0000     0.0000    17.0000     8.0000     8.0000    17.0000     0.0000     0.0000   142.0306   -75.9388     0.0000    -4.2998    -2.9995    -1.8994    -0.6005     0.4003     1.8994     2.7994     3.8002    31.3400    22.1100    13.8400     6.4800    -5.6200   -10.4100   -14.3900   -16.8000     2.2848     4.8500     4.800
     52     1.0000    -0.0000     6.9899     0.0500      4.672   6049.000  11001.000      5.000    97.9308   142.2614   -75.4773     0.4200    -1.0000    28.3560     0.0000     0.0000    10.3625    96.8366    -1.0000    -1.5000     0.0000     0.0000     0.0000     0.0000    17.0000     8.0000     8.0000    17.0000     0.0000     0.0000   142.0306   -75.9388     0.0000    -4.2998    -2.9995    -1.8994    -0.6005     0.4003     1.8994     2.7994     3.8002    31.3400    22.1100    13.8400     6.4800    -5.6200   -10.4100   -14.3900   -16.8000     2.2829     4.8500     4.800
     53     1.0000    -0.0000     6.9800     0.0500      4.720   7203.000  11001.000      5.000    97.9308   142.2614   -75.4773     0.4200    -1.0000    28.3560     0.0000     0.0000    10.2675    96.7248    -1.0000    -1.5000     0.0000     0.0000     0.0000     0.0000    17.0000     8.0000     8.0000    17.0000     0.0000     0.0000   142.0306   -75.9388     0.0000    -4.2998    -2.9995    -1.8994    -0.6005     0.4003     1.8994     2.7994     3.8002    31.3400    22.1100    13.8400     6.4800    -5.6200   -10.4100   -14.3900   -16.8000     2.2809     4.8500     4.800
     54     1.0000    -0.0000     6.9698     0.0500      4.711   7604.000  11001.000      5.000    97.9308   142.2614   -75.4773     0.4200    -1.0000    28.3560     0.0000     0.0000    10.1700    96.6133    -1.0000    -1.5000     0.0000     0.0000     0.0000     0.0000    17.0000     8.0000     8.0000    17.0000     0.0000     0.0000   142.0306   -75.9388     0.0000    -4.2998    -2.9995    -1.8994    -0.6005     0.4003     1.8994     2.7994     3.8002    31.3400    22.1100    13.8400     6.4800    -5.6200   -10.4100   -14.3900   -16.8000     2.2789     4.8500     4.800
     55     1.0000    -0.0000     6.9601     0.0500      4.728   5577.000  11001.000      5.000    97.9308   142.2614   -75.4773     0.4200    -1.0000    28.3560     0.0000     0.0000    10.0775    96.5019    -1.0000    -1.5000     0.0000     0.0000     0.0000     0.0000    17.0000     8.0000     8.0000    17.0000     0.0000     0.0000   142.0306   -75.9388     0.0000    -4.2998    -2.9995    -1.8994    -0.6005     0.4003     1.8994     2.7994     3.8002    31.3400    22.1100    13.8400     6.4800    -5.6200   -10.4100   -14.3900   -16.8000     2.2769     4.8500     4.800
     56     1.0000    -0.0000     6.9499     0.0500      4.679   3585.000  11001.000      5.000    97.9308   142.2614   -75.4773     0.4200    -1.0000    28.3560     0.0000     0.0000     9.9800    96.3907    -1.0000    -1.5000     0.0000     0.0000     0.0000     0.0000    17.0000     8.0000     8.0000    17.0000     0.0000     0.0000   142.0306   -75.9388     0.0000    -4.2998    -2.9995    -1.8994    -0.6005     0.4003     1.8994     2.7994     3.8002    31.3400    22.1100    13.8400     6.4800    -5.6200   -10.4100   -14.3900   -16.8000     2.2750     4.8500     4.800
     57     1.0000    -0.0000     6.9400     0.0500      4.766   1977.000  11001.000      5.000    97.9308   142.2614   -75.4773     0.4200    -1.0000    28.3560     0.0000     0.0000     9.8850    96.2797    -1.0000    -1.5000     0.0000     0.0000     0.0000     0.0000    17.0000     8.0000     8.0000    17.0000     0.0000     0.0000   142.0306   -75.9388     0.0000    -4.2998    -2.9995    -1.8994    -0.6005     0.4003     1.8994     2.7994     3.8002    31.3400    22.1100    13.8400     6.4800    -5.6200   -10.4100   -14.3900   -16.8000     2.2730     4.8500     4.800
     58     1.0000    -0.0000     6.9301     0.0500      4.681    752.000  11001.000      5.000    97.9308   142.2614   -75.4773     0.4200    -1.0000    28.3560     0.0000     0.0000     9.7900    96.1689    -1.0000    -1.5000     0.0000     0.0000     0.0000     0.0000    17.0000     8.0000     8.0000    17.0000     0.0000     0.0000   142.0306   -75.9388     0.0000    -4.2998    -2.9995    -1.8994    -0.6005     0.4003     1.8994     2.7994     3.8002    31.3400    22.1100    13.8400     6.4800    -5.6200   -10.4100   -14.3900   -16.8000     2.2710     4.8500     4.800
     59     1.0000    -0.0000     6.9201     0.0500      4.651    239.000  11001.000      5.000    97.9308   142.2614   -75.4773     0.4200    -1.0000    28.3560     0.0000     0.0000     9.6950    96.0582    -1.0000    -1.5000     0.0000     0.0000     0.0000     0.0000    17.0000     8.0000     8.0000    17.0000     0.0000     0.0000   142.0306   -75.9388     0.0000    -4.2998    -2.9995    -1.8994    -0.6005     0.4003     1.8994     2.7994     3.8002    31.3400    22.1100    13.8400     6.4800    -5.6200   -10.4100   -14.3900   -16.8000     2.2690     4.8500     4.800
     60     1.0000    -0.0000     6.9099     0.0500      4.699    109.000  11001.000      5.000    97.9308   142.2614   -75.4773     0.4200    -1.0000    28.3560     0.0000     0.0000     9.5975    95.9478    -1.0000    -1.5000     0.0000     0.0000     0.0000     0.0000    17.0000     8.0000     8.0000    17.0000     0.0000     0.0000   142.0306   -75.9388     0.0000    -4.2998    -2.9995    -1.8994    -0.6005     0.4003     1.8994     2.7994     3.8002    31.3400    22.1100    13.8400     6.4800    -5.6200   -10.4100   -14.3900   -16.8000     2.2671     4.8500     4.800
     61     1.0000    -0.0000     6.9000     0.0500      4.670     67.000  11001.000      5.000    97.9308   142.2614   -75.4773     0.4200    -1.0000    28.3560     0.0000     0.0000     9.5025    95.8375    -1.0000    -1.5000     0.0000     0.0000     0.0000     0.0000    17.0000     8.0000     8.0000    17.0000     0.0000     0.0000   142.0306   -75.9388     0.0000    -4.2998    -2.9995    -1.8994    -0.6005     0.4003     1.8994     2.7994     3.8002    31.3400    22.1100    13.8400     6.4800    -5.6200   -10.4100   -14.3900   -16.8000     2.2651     4.8500     4.800
     62     1.0000    -0.0000     6.8898     0.0500      4.634     58.000  11001.000      5.000    97.9308   142.2614   -75.4773     0.4200    -1.0000    28.3560     0.0000     0.0000     9.4050    95.7274    -1.0000    -1.5000     0.0000     0.0000     0.0000     0.0000    17.0000     8.0000     8.0000    17.0000     0.0000     0.0000   142.0306   -75.9388     0.0000    -4.2998    -2.9995    -1.8994    -0.6005     0.4003     1.8994     2.7994     3.8002    31.3400    22.1100    13.8400     6.4800    -5.6200   -10.4100   -14.3900   -16.8000     2.2631     4.8500     4.800
     63     0.9999    -0.0000     6.8803     0.0500      4.770     65.000  11001.000      5.000    97.9308   142.2614   -75.4773     0.4200    -1.0000    28.3560     0.0000     0.0000     9.3150    95.6175    -1.0000    -1.5000     0.0000     0.0000     0.0000     0.0000    17.0000     8.0000     8.0000    17.0000     0.0000     0.0000   142.0306   -75.9388     0.0000    -4.2998    -2.9995    -1.8994    -0.6005     0.4003     1.8994     2.7994     3.8002    31.3400    22.1100    13.8400     6.4800    -5.6200   -10.4100   -14.3900   -16.8000     2.2612     4.8500     4.800
     64     1.0000    -0.0000     6.8699     0.0500      4.674     64.000  11001.000      5.000    97.9308   142.2614   -75.4773     0.4200    -1.0000    28.3560     0.0000     0.0000     9.2150    95.5078    -1.0000    -1.5000     0.0000     0.0000     0.0000     0.0000    17.0000     8.0000     8.0000    17.0000     0.0000     0.0000   142.0306   -75.9388     0.0000    -4.2998    -2.9995    -1.8994    -0.6005     0.4003     1.8994     2.7994     3.8002    31.3400    22.1100    13.8400     6.4800    -5.6200   -10.4100   -14.3900   -16.8000     2.2592     4.8500     4.800
     65     1.0000    -0.0000     6.8599     0.0500      4.691     68.000  11001.000      5.000    97.9308   142.2614   -75.4773     0.4200    -1.0000    28.3560     0.0000     0.0000     9.1200    95.3982    -1.0000    -1.5000     0.0000     0.0000     0.0000     0.0000    17.0000     8.0000     8.0000    17.0000     0.0000     0.0000   142.0306   -75.9388     0.0000    -4.2998    -2.9995    -1.8994    -0.6005     0.4003     1.8994     2.7994     3.8002    31.3400    22.1100    13.8400     6.4800    -5.6200   -10.4100   -14.3900   -16.8000     2.2572     4.8500     4.800
     66     1.0000    -0.0000     6.8500     0.0500      4.645     64.000  11001.000      5.000    97.9308   142.2614   -75.4773     0.4200    -1.0000    28.3560     0.0000     0.0000     9.0250    95.2889    -1.0000    -1.5000     0.0000     0.0000     0.0000     0.0000    17.0000     8.0000     8.0000    17.0000     0.0000     0.0000   142.0306   -75.9388     0.0000    -4.2998    -2.9995    -1.8994    -0.6005     0.4003     1.8994     2.7994     3.8002    31.3400    22.1100    13.8400     6.4800    -5.6200   -10.4100   -14.3900   -16.8000     2.2553     4.8500     4.800
     67     1.0000    -0.0000     6.8400     0.0500      4.692     57.000  11001.000      5.000    97.9308   142.2614   -75.4773     0.4200    -1.0000    28.3560     0.0000     0.0000     8.9300    95.1797    -1.0000    -1.5000     0.0000     0.0000     0.0000     0.0000    17.0000     8.0000     8.0000    17.0000     0.0000     0.0000   142.0306   -75.9388     0.0000    -4.2998    -2.9995    -1.8994    -0.6005     0.4003     1.8994     2.7994     3.8002    31.3400    22.1100    13.8400     6.4800    -5.6200   -10.4100   -14.3900   -16.8000     2.2533     4.8500     4.800
     68     1.0000    -0.0000     6.8301     0.0500      4.660     47.000  11001.000      5.000    97.9308   142.2614   -75.4773     0.4200    -1.0000    28.3560     0.0000     0.0000     8.8350    95.0706    -1.0000    -1.5000     0.0000     0.0000     0.0000     0.0000    17.0000     8.0000     8.0000    17.0000     0.0000     0.0000   142.0306   -75.9388     0.0000    -4.2998    -2.9995    -1.8994    -0.6005     0.4003     1.8994     2.7994     3.8002    31.3400    22.1100    13.8400     6.4800    -5.6200   -10.4100   -14.3900   -16.8000     2.2514     4.8500     4.800
     69     1.0000    -0.0000     6.8201     0.0500      4.664     62.000  11001.000      5.000    97.9308   142.2614   -75.4773     0.4200    -1.0000    28.3560     0.0000     0.0000     8.7400    94.9618    -1.0000    -1.5000     0.0000     0.0000     0.0000     0.0000    17.0000     8.0000     8.0000    17.0000     0.0000     0.0000   142.0306   -75.9388     0.0000    -4.2998    -2.9995    -1.8994    -0.6005     0.4003     1.8994     2.7994     3.8002    31.3400    22.1100    13.8400     6.4800    -5.6200   -10.4100   -14.3900   -16.8000     2.2494     4.8500     4.800
     70     1.0000    -0.0000     6.8099     0.0500      4.678     48.000  11001.000      5.000    97.9308   142.2614   -75.4773     0.4200    -1.0000    28.3560     0.0000     0.0000     8.6425    94.8532    -1.0000    -1.5000     0.0000     0.0000     0.0000     0.0000    17.0000     8.0000     8.0000    17.0000     0.0000     0.0000   142.0306   -75.9388     0.0000    -4.2998    -2.9995    -1.8994    -0.6005     0.4003     1.8994     2.7994     3.8002    31.3400    22.1100    13.8400     6.4800    -5.6200   -10.4100   -14.3900   -16.8000     2.2475     4.8500     4.800
     71     1.0000    -0.0000     6.7999     0.0500      4.727     48.000  11001.000      5.000    97.9308   142.2614   -75.4773     0.4200    -1.0000    28.3560     0.0000     0.0000     8.5475    94.7447    -1.0000    -1.5000     0.0000     0.0000     0.0000     0.0000    17.0000     8.0000     8.0000    17.0000     0.0000     0.0000   142.0306   -75.9388     0.0000    -4.2998    -2.9995    -1.8994    -0.6005     0.4003     1.8994     2.7994     3.8002    31.3400    22.1100    13.8400     6.4800    -5.6200   -10.4100   -14.3900   -16.8000     2.2455     4.8500     4.800
     72     1.0000    -0.0000     6.7900     0.0500      4.799     41.000  11001.000      5.000    97.9308   142.2614   -75.4773     0.4200    -1.0000    28.3560     0.0000     0.0000     8.4525    94.6364    -1.0000    -1.5000     0.0000     0.0000     0.0000     0.0000    17.0000     8.0000     8.0000    17.0000     0.0000     0.0000   142.0306   -75.9388     0.0000    -4.2998    -2.9995    -1.8994    -0.6005     0.4003     1.8994     2.7994     3.8002    31.3400    22.1100    13.8400     6.4800    -5.6200   -10.4100   -14.3900   -16.8000     2.2435     4.8500     4.800
     73     1.0000    -0.0000     6.7802     0.0500      4.691     38.000  11001.000      5.000    97.9308   142.2614   -75.4773     0.4200    -1.0000    28.3560     0.0000     0.0000     8.3600    94.5282    -1.0000    -1.5000     0.0000     0.0000     0.0000     0.0000    17.0000     8.0000     8.0000    17.0000     0.0000     0.0000   142.0306   -75.9388     0.0000    -4.2998    -2.9995    -1.8994    -0.6005     0.4003     1.8994     2.7994     3.8002    31.3400    22.1100    13.8400     6.4800    -5.6200   -10.4100   -14.3900   -16.8000     2.2416     4.8500     4.800
     74     1.0000    -0.0000     6.7698     0.0500      4.686     37.000  11001.000      5.000    97.9308   142.2614   -75.4773     0.4200    -1.0000    28.3560     0.0000     0.0000     8.2600    94.4203    -1.0000    -1.5000     0.0000     0.0000     0.0000     0.0000    17.0000     8.0000     8.0000    17.0000     0.0000     0.0000   142.0306   -75.9388     0.0000    -4.2998    -2.9995    -1.8994    -0.6005     0.4003     1.8994     2.7994     3.8002    31.3400    22.1100    13.8400     6.4800    -5.6200   -10.4100   -14.3900   -16.8000     2.2396     4.8500     4.800
     75     1.0000    -0.0000     6.7600     0.0500      4.711     43.000  11001.000      5.000    97.9308   142.2614   -75.4773     0.4200    -1.0000    28.3560     0.0000     0.0000     8.1675    94.3125    -1.0000    -1.5000     0.0000     0.0000     0.0000     0.0000    17.0000     8.0000     8.0000    17.0000     0.0000     0.0000   142.0306   -75.9388     0.0000    -4.2998    -2.9995    -1.8994    -0.6005     0.4003     1.8994     2.7994     3.8002    31.3400    22.1100    13.8400     6.4800    -5.6200   -10.4100   -14.3900   -16.8000     2.2377     4.8500     4.800
     76     1.0000    -0.0000     6.7501     0.0500      4.729     38.000  11001.000      5.000    97.9308   142.2614   -75.4773     0.4200    -1.0000    28.3560     0.0000     0.0000     8.0725    94.2049    -1.0000    -1.5000     0.0000     0.0000     0.0000     0.0000    17.0000     8.0000     8.0000    17.0000     0.0000     0.0000   142.0306   -75.9388     0.0000    -4.2998    -2.9995    -1.8994    -0.6005     0.4003     1.8994     2.7994     3.8002    31.3400    22.1100    13.8400     6.4800    -5.6200   -10.4100   -14.3900   -16.8000     2.2357     4.8500     4.800
     77     1.0000    -0.0000     6.7399     0.0500      4.753     39.000  11001.000      5.000    97.9308   142.2614   -75.4773     0.4200    -1.0000    28.3560     0.0000     0.0000     7.9750    94.0974    -1.0000    -1.5000     0.0000     0.0000     0.0000     0.0000    17.0000     8.0000     8.0000    17.0000     0.0000     0.0000   142.0306   -75.9388     0.0000    -4.2998    -2.9995    -1.8994    -0.6005     0.4003     1.8994     2.7994     3.8002    31.3400    22.1100    13.8400     6.4800    -5.6200   -10.4100   -14.3900   -16.8000     2.2338     4.8500     4.800
     78     1.0000    -0.0000     6.7301     0.0500      4.741     32.000  11001.000      5.000    97.9308   142.2614   -75.4773     0.4200    -1.0000    28.3560     0.0000     0.0000     7.8825    93.9902    -1.0000    -1.5000     0.0000     0.0000     0.0000     0.0000    17.0000     8.0000     8.0000    17.0000     0.0000     0.0000   142.0306   -75.9388     0.0000    -4.2998    -2.9995    -1.8994    -0.6005     0.4003     1.8994     2.7994     3.8002    31.3400    22.1100    13.8400     6.4800    -5.6200   -10.4100   -14.3900   -16.8000     2.2318     4.8500     4.800
     79     1.0000    -0.0000     6.7199     0.0500      4.717     49.000  11001.000      5.000    97.9308   142.2614   -75.4773     0.4200    -1.0000    28.3560     0.0000     0.0000     7.7850    93.8831    -1.0000    -1.5000     0.0000     0.0000     0.0000     0.0000    17.0000     8.0000     8.0000    17.0000     0.0000     0.0000   142.0306   -75.9388     0.0000    -4.2998    -2.9995    -1.8994    -0.6005     0.4003     1.8994     2.7994     3.8002    31.3400    22.1100    13.8400     6.4800    -5.6200   -10.4100   -14.3900   -16.8000     2.2299     4.8500     4.800
     80     1.0000    -0.0000     6.7099     0.0500      4.755     31.000  11001.000      5.000    97.9308   142.2614   -75.4773     0.4200    -1.0000    28.3560     0.0000     0.0000     7.6900    93.7762    -1.0000    -1.5000     0.0000     0.0000     0.0000     0.0000    17.0000     8.0000     8.0000    17.0000     0.0000     0.0000   142.0306   -75.9388     0.0000    -4.2998    -2.9995    -1.8994    -0.6005     0.4003     1.8994     2.7994     3.8002    31.3400    22.1100    13.8400     6.4800    -5.6200   -10.4100   -14.3900   -16.8000     2.2280     4.8500     4.800
     81     1.0000    -0.0000     6.7002     0.0500      4.685     37.000  11001.000      5.000    97.9308   142.2614   -75.4773     0.4200    -1.0000    28.3560     0.0000     0.0000     7.5975    93.6694    -1.0000    -1.5000     0.0000     0.0000     0.0000     0.0000    17.0000     8.0000     8.0000    17.0000     0.0000     0.0000   142.0306   -75.9388     0.0000    -4.2998    -2.9995    -1.8994    -0.6005     0.4003     1.8994     2.7994     3.8002    31.3400    22.1100    13.8400     6.4800    -5.6200   -10.4100   -14.3900   -16.8000     2.2260     4.8500     4.800
     82     1.0000    -0.0000     6.6900     0.0500      4.729     49.000  11001.000      5.000    97.9308   142.2614   -75.4773     0.4200    -1.0000    28.3560     0.0000     0.0000     7.5000    93.5629    -1.0000    -1.5000     0.0000     0.0000     0.0000     0.0000    17.0000     8.0000     8.0000    17.0000     0.0000     0.0000   142.0306   -75.9388     0.0000    -4.2998    -2.9995    -1.8994    -0.6005     0.4003     1.8994     2.7994     3.8002    31.3400    22.1100    13.8400     6.4800    -5.6200   -10.4100   -14.3900   -16.8000     2.2241     4.8500     4.800
     83     1.0000    -0.0000     6.6800     0.0500      4.713     21.000  11001.000      5.000    97.9308   142.2614   -75.4773     0.4200    -1.0000    28.3560     0.0000     0.0000     7.4050    93.4565    -1.0000    -1.5000     0.0000     0.0000     0.0000     0.0000    17.0000     8.0000     8.0000    17.0000     0.0000     0.0000   142.0306   -75.9388     0.0000    -4.2998    -2.9995    -1.8994    -0.6005     0.4003     1.8994     2.7994     3.8002    31.3400    22.1100    13.8400     6.4800    -5.6200   -10.4100   -14.3900   -16.8000     2.2221     4.8500     4.800
     84     1.0000    -0.0000     6.6700     0.0500      4.770     35.000  11001.000      5.000    97.9308   142.2614   -75.4773     0.4200    -1.0000    28.3560     0.0000     0.0000     7.3100    93.3503    -1.0000    -1.5000     0.0000     0.0000     0.0000     0.0000    17.0000     8.0000     8.0000    17.0000     0.0000     0.0000   142.0306   -75.9388     0.0000    -4.2998    -2.9995    -1.8994    -0.6005     0.4003     1.8994     2.7994     3.8002    31.3400    22.1100    13.8400     6.4800    -5.6200   -10.4100   -14.3900   -16.8000     2.2202     4.8500     4.800
     85     1.0000    -0.0000     6.6600     0.0500      4.677     40.000  11001.000      5.000    97.9308   142.2614   -75.4773     0.4200    -1.0000    28.3560     0.0000     0.0000     7.2150    93.2442    -1.0000    -1.5000     0.0000     0.0000     0.0000     0.0000    17.0000     8.0000     8.0000    17.0000     0.0000     0.0000   142.0306   -75.9388     0.0000    -4.2998    -2.9995    -1.8994    -0.6005     0.4003     1.8994     2.7994     3.8002    31.3400    22.1100    13.8400     6.4800    -5.6200   -10.4100   -14.3900   -16.8000     2.2182     4.8500     4.800
     86     1.0000    -0.0000     6.6500     0.0500      4.886     27.000  11001.000      5.000    97.9308   142.2614   -75.4773     0.4200    -1.0000    28.3560     0.0000     0.0000     7.1200    93.1383    -1.0000    -1.5000     0.0000     0.0000     0.0000     0.0000    17.0000     8.0000     8.0000    17.0000     0.0000     0.0000   142.0306   -75.9388     0.0000    -4.2998    -2.9995    -1.8994    -0.6005     0.4003     1.8994     2.7994     3.8002    31.3400    22.1100    13.8400     6.4800    -5.6200   -10.4100   -14.3900   -16.8000     2.2163     4.8500     4.800
     87     1.0000    -0.0000     6.6400     0.0500      4.780     35.000  11001.000      5.000    97.9308   142.2614   -75.4773     0.4200    -1.0000    28.3560     0.0000     0.0000     7.0250    93.0326    -1.0000    -1.5000     0.0000     0.0000     0.0000     0.0000    17.0000     8.0000     8.0000    17.0000     0.0000     0.0000   142.0306   -75.9388     0.0000    -4.2998    -2.9995    -1.8994    -0.6005     0.4003     1.8994     2.7994     3.8002    31.3400    22.1100    13.8400     6.4800    -5.6200   -10.4100   -14.3900   -16.8000     2.2144     4.8500     4.800
     88     1.0000    -0.0000     6.6301     0.0500      4.659     38.000  11001.000      5.000    97.9308   142.2614   -75.4773     0.4200    -1.0000    28.3560     0.0000     0.0000     6.9300    92.9271    -1.0000    -1.5000     0.0000     0.0000     0.0000     0.0000    17.0000     8.0000     8.0000    17.0000     0.0000     0.0000   142.0306   -75.9388     0.0000    -4.2998    -2.9995    -1.8994    -0.6005     0.4003     1.8994     2.7994     3.8002    31.3400    22.1100    13.8400     6.4800    -5.6200   -10.4100   -14.3900   -16.8000     2.2124     4.8500     4.800
     89     1.0000    -0.0000     6.6198     0.0500      4.785     35.000  11001.000      5.000    97.9308   142.2614   -75.4773     0.4200    -1.0000    28.3560     0.0000     0.0000     6.8325    92.8217    -1.0000    -1.5000     0.0000     0.0000     0.0000     0.0000    17.0000     8.0000     8.0000    17.0000     0.0000     0.0000   142.0306   -75.9388     0.0000    -4.2998    -2.9995    -1.8994    -0.6005     0.4003     1.8994     2.7994     3.8002    31.3400    22.1100    13.8400     6.4800    -5.6200   -10.4100   -14.3900   -16.8000     2.2105     4.8500     4.800
     90     1.0000    -0.0000     6.6101     0.0500      4.691     31.000  11001.000      5.000    97.9308   142.2614   -75.4773     0.4200    -1.0000    28.3560     0.0000     0.0000     6.7400    92.7165    -1.0000    -1.5000     0.0000     0.0000     0.0000     0.0000    17.0000     8.0000     8.0000    17.0000     0.0000     0.0000   142.0306   -75.9388     0.0000    -4.2998    -2.9995    -1.8994    -0.6005     0.4003     1.8994     2.7994     3.8002    31.3400    22.1100    13.8400     6.4800    -5.6200   -10.4100   -14.3900   -16.8000     2.2086     4.8500     4.800
     91     1.0000    -0.0000     6.6001     0.0500      4.755     29.000  11001.000      5.000    97.9308   142.2614   -75.4773     0.4200    -1.0000    28.3560     0.0000     0.0000     6.6450    92.6114    -1.0000    -1.5000     0.0000     0.0000     0.0000     0.0000    17.0000     8.0000     8.0000    17.0000     0.0000     0.0000   142.0306   -75.9388     0.0000    -4.2998    -2.9995    -1.8994    -0.6005     0.4003     1.8994     2.7994     3.8002    31.3400    22.1100    13.8400     6.4800    -5.6200   -10.4100   -14.3900   -16.8000     2.2066     4.8500     4.800
     92     1.0000    -0.0000     6.5899     0.0500      4.666     38.000  11001.000      5.000    97.9308   142.2614   -75.4773     0.4200    -1.0000    28.3560     0.0000     0.0000     6.5475    92.5066    -1.0000    -1.5000     0.0000     0.0000     0.0000     0.0000    17.0000     8.0000     8.0000    17.0000     0.0000     0.0000   142.0306   -75.9388     0.0000    -4.2998    -2.9995    -1.8994    -0.6005     0.4003     1.8994     2.7994     3.8002    31.3400    22.1100    13.8400     6.4800    -5.6200   -10.4100   -14.3900   -16.8000     2.2047     4.8500     4.800
     93     1.0000    -0.0000     6.5801     0.0500      4.773     33.000  11001.000      5.000    97.9308   142.2614   -75.4773     0.4200    -1.0000    28.3560     0.0000     0.0000     6.4550    92.4019    -1.0000    -1.5000     0.0000     0.0000     0.0000     0.0000    17.0000     8.0000     8.0000    17.0000     0.0000     0.0000   142.0306   -75.9388     0.0000    -4.2998    -2.9995    -1.8994    -0.6005     0.4003     1.8994     2.7994     3.8002    31.3400    22.1100    13.8400     6.4800    -5.6200   -10.4100   -14.3900   -16.8000     2.2028     4.8500     4.800
     94     1.0000    -0.0000     6.5699     0.0500      4.722     32.000  11001.000      5.000    97.9308   142.2614   -75.4773     0.4200    -1.0000    28.3560     0.0000     0.0000     6.3575    92.2973    -1.0000    -1.5000     0.0000     0.0000     0.0000     0.0000    17.0000     8.0000     8.0000    17.0000     0.0000     0.0000   142.0306   -75.9388     0.0000    -4.2998    -2.9995    -1.8994    -0.6005     0.4003     1.8994     2.7994     3.8002    31.3400    22.1100    13.8400     6.4800    -5.6200   -10.4100   -14.3900   -16.8000     2.2008     4.8500     4.800
     95     1.0000    -0.0000     6.5601     0.0500      4.721     35.000  11001.000      5.000    97.9308   142.2614   -75.4773     0.4200    -1.0000    28.3560     0.0000     0.0000     6.2650    92.1930    -1.0000    -1.5000     0.0000     0.0000     0.0000     0.0000    17.0000     8.0000     8.0000    17.0000     0.0000     0.0000   142.0306   -75.9388     0.0000    -4.2998    -2.9995    -1.8994    -0.6005     0.4003     1.8994     2.7994     3.8002    31.3400    22.1100    13.8400     6.4800    -5.6200   -10.4100   -14.3900   -16.8000     2.1989     4.8500     4.800
     96     1.0000    -0.0000     6.5499     0.0500      4.688     37.000  11001.000      5.000    97.9308   142.2614   -75.4773     0.4200    -1.0000    28.3560     0.0000     0.0000     6.1675    92.0888    -1.0000    -1.5000     0.0000     0.0000     0.0000     0.0000    17.0000     8.0000     8.0000    17.0000     0.0000     0.0000   142.0306   -75.9388     0.0000    -4.2998    -2.9995    -1.8994    -0.6005     0.4003     1.8994     2.7994     3.8002    31.3400    22.1100    13.8400     6.4800    -5.6200   -10.4100   -14.3900   -16.8000     2.1970     4.8500     4.800
     97     1.0000    -0.0000     6.5401     0.0500      4.710     33.000  11001.000      5.000    97.9308   142.2614   -75.4773     0.4200    -1.0000    28.3560     0.0000     0.0000     6.0750    91.9847    -1.0000    -1.5000     0.0000     0.0000     0.0000     0.0000    17.0000     8.0000     8.0000    17.0000     0.0000     0.0000   142.0306   -75.9388     0.0000    -4.2998    -2.9995    -1.8994    -0.6005     0.4003     1.8994     2.7994     3.8002    31.3400    22.1100    13.8400     6.4800    -5.6200   -10.4100   -14.3900   -16.8000     2.1951     4.8500     4.800
     98     1.0000    -0.0000     6.5299     0.0500      4.751     31.000  11001.000      5.000    97.9308   142.2614   -75.4773     0.4200    -1.0000    28.3560     0.0000     0.0000     5.9775    91.8808    -1.0000    -1.5000     0.0000     0.0000     0.0000     0.0000    17.0000     8.0000     8.0000    17.0000     0.0000     0.0000   142.0306   -75.9388     0.0000    -4.2998    -2.9995    -1.8994    -0.6005     0.4003     1.8994     2.7994     3.8002    31.3400    22.1100    13.8400     6.4800    -5.6200   -10.4100   -14.3900   -16.8000     2.1931     4.8500     4.800
     99     1.0000    -0.0000     6.5201     0.0500      4.786     42.000  11001.000      5.000    97.9308   142.2614   -75.4773     0.4200    -1.0000    28.3560     0.0000     0.0000     5.8850    91.7771    -1.0000    -1.5000     0.0000     0.0000     0.0000     0.0000    17.0000     8.0000     8.0000    17.0000     0.0000     0.0000   142.0306   -75.9388     0.0000    -4.2998    -2.9995    -1.8994    -0.6005     0.4003     1.8994     2.7994     3.8002    31.3400    22.1100    13.8400     6.4800    -5.6200   -10.4100   -14.3900   -16.8000     2.1912     4.8500     4.800
    100     1.0001    -0.0000     6.5097     0.0500      4.708     33.000  11001.000      5.000    97.9308   142.2614   -75.4773     0.4200    -1.0000    28.3560     0.0000     0.0000     5.7850    91.6736    -1.0000    -1.5000     0.0000     0.0000     0.0000     0.0000    17.0000     8.0000     8.0000    17.0000     0.0000     0.0000   142.0306   -75.9388     0.0000    -4.2998    -2.9995    -1.8994    -0.6005     0.4003     1.8994     2.7994     3.8002    31.3400    22.1100    13.8400     6.4800    -5.6200   -10.4100   -14.3900   -16.8000     2.1893     4.8500     4.800
    101     1.0000    -0.0000     6.5002     0.0500      4.698     34.000  11001.000      5.000    97.9308   142.2614   -75.4773     0.4200    -1.0000    28.3560     0.0000     0.0000     5.6950    91.5702    -1.0000    -1.5000     0.0000     0.0000     0.0000     0.0000    17.0000     8.0000     8.0000    17.0000     0.0000     0.0000   142.0306   -75.9388     0.0000    -4.2998    -2.9995    -1.8994    -0.6005     0.4003     1.8994     2.7994     3.8002    31.3400    22.1100    13.8400     6.4800    -5.6200   -10.4100   -14.3900   -16.8000     2.1874     4.8500     4.800
# Sum of Counts = 43244
# Center of Mass = 6.979036+/-0.047464
# Full Width Half-Maximum = 0.184317+/-0.006281
# 3:54:54 PM  3/12/2025   scan completed.
