# scan = 220
# date = 3/12/2025
# time = 2:49:30 PM
# proposal = 35030
# experiment = CTAX Instrumental resolution benchmarking
# experiment_number = 445
# command = scan h 1 k 0 l 7.5 6.5 0.01 e -0.15 preset mcu 5
# builtin_command = scan h 1 k 0 l 7.5 6.5 0.01 e -0.15 preset mcu 5
# users = Tao Hong, Tao Hong, Bing Li
# local_contact = Tao Hong
# scan_title = (10L) scan at E=-0.15 meV and hori-focusing
# monochromator = PG002
# analyzer = Pg002
# sense = -+-
# collimation = 48-40-40-120
# samplename = LaN
# sampletype = crystal
# samplemosaic = 30.000000
# latticeconstants = 5.058628,5.058628,24.728465,90.000000,90.000000,120.000000
# ubmatrix = -0.002928,0.001986,-0.040430,-0.228168,-0.119258,0.000500,-0.005924,0.194622,0.000719
# mode = 0
# plane_normal = 0.017452,-0.026173,0.999505
# ubconf = UB10Mar2025_114214AM.ini
# preset_type = normal 
# preset_channel = mcu
# preset_value = 5.000000
# def_x = l
# def_y = detector
# col_headers = 
#   Pt.          h          k          l          e       time   detector    monitor        mcu focal_length         m1         m2       marc     mtrans     mfocus   vti_temp  smpl_temp         s1         s2        sgl        sgu        bbb        bbl        bbr        bbt        bab        bal        bar        bat        stl        stu         a1         a2     afocus        qm1        qm2        qm3        qm4        qm5        qm6        qm7        qm8        xm1        xm2        xm3        xm4        xm5        xm6        xm7        xm8          q         ei         ef
      1     1.0000    -0.0000     7.4998    -0.1500      4.698     25.000  11001.000      5.000   100.0155   141.3116   -77.3768     0.4200    -1.0000    27.9440     0.0000     0.0000    15.5750   104.3216    -1.0000    -1.5000     0.0000     0.0000     0.0000     0.0000    17.0000     8.0000     8.0000    17.0000     0.0000     0.0000   142.0306   -75.9388     0.0000    -4.2998    -2.9995    -1.8994    -0.6005     0.4003     1.8994     2.7994     3.8002    31.3400    22.1100    13.8400     6.4800    -5.6200   -10.4100   -14.3900   -16.8000     2.3851     4.6500     4.800
      2     1.0000    -0.0000     7.4901    -0.1500      4.653     30.000  11001.000      5.000   100.0155   141.3116   -77.3768     0.4200    -1.0000    27.9440     0.0000     0.0000    15.4775   104.1962    -1.0000    -1.5000     0.0000     0.0000     0.0000     0.0000    17.0000     8.0000     8.0000    17.0000     0.0000     0.0000   142.0306   -75.9388     0.0000    -4.2998    -2.9995    -1.8994    -0.6005     0.4003     1.8994     2.7994     3.8002    31.3400    22.1100    13.8400     6.4800    -5.6200   -10.4100   -14.3900   -16.8000     2.3830     4.6500     4.800
      3     1.0000    -0.0000     7.4801    -0.1500      4.690     45.000  11001.000      5.000   100.0155   141.3116   -77.3768     0.4200    -1.0000    27.9440     0.0000     0.0000    15.3775   104.0709    -1.0000    -1.5000     0.0000     0.0000     0.0000     0.0000    17.0000     8.0000     8.0000    17.0000     0.0000     0.0000   142.0306   -75.9388     0.0000    -4.2998    -2.9995    -1.8994    -0.6005     0.4003     1.8994     2.7994     3.8002    31.3400    22.1100    13.8400     6.4800    -5.6200   -10.4100   -14.3900   -16.8000     2.3810     4.6500     4.800
      4     1.0000    -0.0000     7.4701    -0.1500      4.703     22.000  11001.000      5.000   100.0155   141.3116   -77.3768     0.4200    -1.0000    27.9440     0.0000     0.0000    15.2775   103.9459    -1.0000    -1.5000     0.0000     0.0000     0.0000     0.0000    17.0000     8.0000     8.0000    17.0000     0.0000     0.0000   142.0306   -75.9388     0.0000    -4.2998    -2.9995    -1.8994    -0.6005     0.4003     1.8994     2.7994     3.8002    31.3400    22.1100    13.8400     6.4800    -5.6200   -10.4100   -14.3900   -16.8000     2.3790     4.6500     4.800
      5     1.0000    -0.0000     7.4601    -0.1500      4.698     33.000  11001.000      5.000   100.0155   141.3116   -77.3768     0.4200    -1.0000    27.9440     0.0000     0.0000    15.1775   103.8212    -1.0000    -1.5000     0.0000     0.0000     0.0000     0.0000    17.0000     8.0000     8.0000    17.0000     0.0000     0.0000   142.0306   -75.9388     0.0000    -4.2998    -2.9995    -1.8994    -0.6005     0.4003     1.8994     2.7994     3.8002    31.3400    22.1100    13.8400     6.4800    -5.6200   -10.4100   -14.3900   -16.8000     2.3769     4.6500     4.800
      6     1.0000    -0.0000     7.4499    -0.1500      4.760     26.000  11001.000      5.000   100.0155   141.3116   -77.3768     0.4200    -1.0000    27.9440     0.0000     0.0000    15.0750   103.6966    -1.0000    -1.5000     0.0000     0.0000     0.0000     0.0000    17.0000     8.0000     8.0000    17.0000     0.0000     0.0000   142.0306   -75.9388     0.0000    -4.2998    -2.9995    -1.8994    -0.6005     0.4003     1.8994     2.7994     3.8002    31.3400    22.1100    13.8400     6.4800    -5.6200   -10.4100   -14.3900   -16.8000     2.3749     4.6500     4.800
      7     0.9999    -0.0000     7.4404    -0.1500      4.752     28.000  11001.000      5.000   100.0155   141.3116   -77.3768     0.4200    -1.0000    27.9440     0.0000     0.0000    14.9800   103.5724    -1.0000    -1.5000     0.0000     0.0000     0.0000     0.0000    17.0000     8.0000     8.0000    17.0000     0.0000     0.0000   142.0306   -75.9388     0.0000    -4.2998    -2.9995    -1.8994    -0.6005     0.4003     1.8994     2.7994     3.8002    31.3400    22.1100    13.8400     6.4800    -5.6200   -10.4100   -14.3900   -16.8000     2.3729     4.6500     4.800
      8     1.0000    -0.0000     7.4301    -0.1500      4.638     26.000  11001.000      5.000   100.0155   141.3116   -77.3768     0.4200    -1.0000    27.9440     0.0000     0.0000    14.8775   103.4483    -1.0000    -1.5000     0.0000     0.0000     0.0000     0.0000    17.0000     8.0000     8.0000    17.0000     0.0000     0.0000   142.0306   -75.9388     0.0000    -4.2998    -2.9995    -1.8994    -0.6005     0.4003     1.8994     2.7994     3.8002    31.3400    22.1100    13.8400     6.4800    -5.6200   -10.4100   -14.3900   -16.8000     2.3709     4.6500     4.800
      9     1.0000    -0.0000     7.4201    -0.1500      4.727     31.000  11001.000      5.000   100.0155   141.3116   -77.3768     0.4200    -1.0000    27.9440     0.0000     0.0000    14.7775   103.3245    -1.0000    -1.5000     0.0000     0.0000     0.0000     0.0000    17.0000     8.0000     8.0000    17.0000     0.0000     0.0000   142.0306   -75.9388     0.0000    -4.2998    -2.9995    -1.8994    -0.6005     0.4003     1.8994     2.7994     3.8002    31.3400    22.1100    13.8400     6.4800    -5.6200   -10.4100   -14.3900   -16.8000     2.3688     4.6500     4.800
     10     1.0000    -0.0000     7.4098    -0.1500      4.662     27.000  11001.000      5.000   100.0155   141.3116   -77.3768     0.4200    -1.0000    27.9440     0.0000     0.0000    14.6750   103.2009    -1.0000    -1.5000     0.0000     0.0000     0.0000     0.0000    17.0000     8.0000     8.0000    17.0000     0.0000     0.0000   142.0306   -75.9388     0.0000    -4.2998    -2.9995    -1.8994    -0.6005     0.4003     1.8994     2.7994     3.8002    31.3400    22.1100    13.8400     6.4800    -5.6200   -10.4100   -14.3900   -16.8000     2.3668     4.6500     4.800
     11     1.0000    -0.0000     7.4001    -0.1500      4.687     34.000  11001.000      5.000   100.0155   141.3116   -77.3768     0.4200    -1.0000    27.9440     0.0000     0.0000    14.5775   103.0775    -1.0000    -1.5000     0.0000     0.0000     0.0000     0.0000    17.0000     8.0000     8.0000    17.0000     0.0000     0.0000   142.0306   -75.9388     0.0000    -4.2998    -2.9995    -1.8994    -0.6005     0.4003     1.8994     2.7994     3.8002    31.3400    22.1100    13.8400     6.4800    -5.6200   -10.4100   -14.3900   -16.8000     2.3648     4.6500     4.800
     12     1.0000    -0.0000     7.3900    -0.1500      4.727     32.000  11001.000      5.000   100.0155   141.3116   -77.3768     0.4200    -1.0000    27.9440     0.0000     0.0000    14.4775   102.9544    -1.0000    -1.5000     0.0000     0.0000     0.0000     0.0000    17.0000     8.0000     8.0000    17.0000     0.0000     0.0000   142.0306   -75.9388     0.0000    -4.2998    -2.9995    -1.8994    -0.6005     0.4003     1.8994     2.7994     3.8002    31.3400    22.1100    13.8400     6.4800    -5.6200   -10.4100   -14.3900   -16.8000     2.3628     4.6500     4.800
     13     0.9999    -0.0000     7.3803    -0.1500      4.764     28.000  11001.000      5.000   100.0155   141.3116   -77.3768     0.4200    -1.0000    27.9440     0.0000     0.0000    14.3800   102.8315    -1.0000    -1.5000     0.0000     0.0000     0.0000     0.0000    17.0000     8.0000     8.0000    17.0000     0.0000     0.0000   142.0306   -75.9388     0.0000    -4.2998    -2.9995    -1.8994    -0.6005     0.4003     1.8994     2.7994     3.8002    31.3400    22.1100    13.8400     6.4800    -5.6200   -10.4100   -14.3900   -16.8000     2.3608     4.6500     4.800
     14     1.0000    -0.0000     7.3700    -0.1500      4.651     37.000  11001.000      5.000   100.0155   141.3116   -77.3768     0.4200    -1.0000    27.9440     0.0000     0.0000    14.2775   102.7088    -1.0000    -1.5000     0.0000     0.0000     0.0000     0.0000    17.0000     8.0000     8.0000    17.0000     0.0000     0.0000   142.0306   -75.9388     0.0000    -4.2998    -2.9995    -1.8994    -0.6005     0.4003     1.8994     2.7994     3.8002    31.3400    22.1100    13.8400     6.4800    -5.6200   -10.4100   -14.3900   -16.8000     2.3588     4.6500     4.800
     15     1.0000    -0.0000     7.3599    -0.1500      4.663     24.000  11001.000      5.000   100.0155   141.3116   -77.3768     0.4200    -1.0000    27.9440     0.0000     0.0000    14.1775   102.5863    -1.0000    -1.5000     0.0000     0.0000     0.0000     0.0000    17.0000     8.0000     8.0000    17.0000     0.0000     0.0000   142.0306   -75.9388     0.0000    -4.2998    -2.9995    -1.8994    -0.6005     0.4003     1.8994     2.7994     3.8002    31.3400    22.1100    13.8400     6.4800    -5.6200   -10.4100   -14.3900   -16.8000     2.3567     4.6500     4.800
     16     1.0000    -0.0000     7.3499    -0.1500      4.805     28.000  11001.000      5.000   100.0155   141.3116   -77.3768     0.4200    -1.0000    27.9440     0.0000     0.0000    14.0775   102.4641    -1.0000    -1.5000     0.0000     0.0000     0.0000     0.0000    17.0000     8.0000     8.0000    17.0000     0.0000     0.0000   142.0306   -75.9388     0.0000    -4.2998    -2.9995    -1.8994    -0.6005     0.4003     1.8994     2.7994     3.8002    31.3400    22.1100    13.8400     6.4800    -5.6200   -10.4100   -14.3900   -16.8000     2.3547     4.6500     4.800
     17     1.0000    -0.0000     7.3401    -0.1500      4.724     29.000  11001.000      5.000   100.0155   141.3116   -77.3768     0.4200    -1.0000    27.9440     0.0000     0.0000    13.9800   102.3421    -1.0000    -1.5000     0.0000     0.0000     0.0000     0.0000    17.0000     8.0000     8.0000    17.0000     0.0000     0.0000   142.0306   -75.9388     0.0000    -4.2998    -2.9995    -1.8994    -0.6005     0.4003     1.8994     2.7994     3.8002    31.3400    22.1100    13.8400     6.4800    -5.6200   -10.4100   -14.3900   -16.8000     2.3527     4.6500     4.800
     18     1.0000    -0.0000     7.3300    -0.1500      4.689     26.000  11001.000      5.000   100.0155   141.3116   -77.3768     0.4200    -1.0000    27.9440     0.0000     0.0000    13.8800   102.2203    -1.0000    -1.5000     0.0000     0.0000     0.0000     0.0000    17.0000     8.0000     8.0000    17.0000     0.0000     0.0000   142.0306   -75.9388     0.0000    -4.2998    -2.9995    -1.8994    -0.6005     0.4003     1.8994     2.7994     3.8002    31.3400    22.1100    13.8400     6.4800    -5.6200   -10.4100   -14.3900   -16.8000     2.3507     4.6500     4.800
     19     1.0000    -0.0000     7.3200    -0.1500      4.691     35.000  11001.000      5.000   100.0155   141.3116   -77.3768     0.4200    -1.0000    27.9440     0.0000     0.0000    13.7800   102.0987    -1.0000    -1.5000     0.0000     0.0000     0.0000     0.0000    17.0000     8.0000     8.0000    17.0000     0.0000     0.0000   142.0306   -75.9388     0.0000    -4.2998    -2.9995    -1.8994    -0.6005     0.4003     1.8994     2.7994     3.8002    31.3400    22.1100    13.8400     6.4800    -5.6200   -10.4100   -14.3900   -16.8000     2.3487     4.6500     4.800
     20     1.0000    -0.0000     7.3102    -0.1500      4.763     22.000  11001.000      5.000   100.0155   141.3116   -77.3768     0.4200    -1.0000    27.9440     0.0000     0.0000    13.6825   101.9774    -1.0000    -1.5000     0.0000     0.0000     0.0000     0.0000    17.0000     8.0000     8.0000    17.0000     0.0000     0.0000   142.0306   -75.9388     0.0000    -4.2998    -2.9995    -1.8994    -0.6005     0.4003     1.8994     2.7994     3.8002    31.3400    22.1100    13.8400     6.4800    -5.6200   -10.4100   -14.3900   -16.8000     2.3467     4.6500     4.800
     21     1.0000    -0.0000     7.2998    -0.1500      4.758     29.000  11001.000      5.000   100.0155   141.3116   -77.3768     0.4200    -1.0000    27.9440     0.0000     0.0000    13.5800   101.8562    -1.0000    -1.5000     0.0000     0.0000     0.0000     0.0000    17.0000     8.0000     8.0000    17.0000     0.0000     0.0000   142.0306   -75.9388     0.0000    -4.2998    -2.9995    -1.8994    -0.6005     0.4003     1.8994     2.7994     3.8002    31.3400    22.1100    13.8400     6.4800    -5.6200   -10.4100   -14.3900   -16.8000     2.3447     4.6500     4.800
     22     1.0000    -0.0000     7.2900    -0.1500      4.700     34.000  11001.000      5.000   100.0155   141.3116   -77.3768     0.4200    -1.0000    27.9440     0.0000     0.0000    13.4825   101.7353    -1.0000    -1.5000     0.0000     0.0000     0.0000     0.0000    17.0000     8.0000     8.0000    17.0000     0.0000     0.0000   142.0306   -75.9388     0.0000    -4.2998    -2.9995    -1.8994    -0.6005     0.4003     1.8994     2.7994     3.8002    31.3400    22.1100    13.8400     6.4800    -5.6200   -10.4100   -14.3900   -16.8000     2.3426     4.6500     4.800
     23     1.0000    -0.0000     7.2799    -0.1500      4.692     29.000  11001.000      5.000   100.0155   141.3116   -77.3768     0.4200    -1.0000    27.9440     0.0000     0.0000    13.3825   101.6146    -1.0000    -1.5000     0.0000     0.0000     0.0000     0.0000    17.0000     8.0000     8.0000    17.0000     0.0000     0.0000   142.0306   -75.9388     0.0000    -4.2998    -2.9995    -1.8994    -0.6005     0.4003     1.8994     2.7994     3.8002    31.3400    22.1100    13.8400     6.4800    -5.6200   -10.4100   -14.3900   -16.8000     2.3406     4.6500     4.800
     24     1.0000    -0.0000     7.2701    -0.1500      4.722     22.000  11001.000      5.000   100.0155   141.3116   -77.3768     0.4200    -1.0000    27.9440     0.0000     0.0000    13.2850   101.4942    -1.0000    -1.5000     0.0000     0.0000     0.0000     0.0000    17.0000     8.0000     8.0000    17.0000     0.0000     0.0000   142.0306   -75.9388     0.0000    -4.2998    -2.9995    -1.8994    -0.6005     0.4003     1.8994     2.7994     3.8002    31.3400    22.1100    13.8400     6.4800    -5.6200   -10.4100   -14.3900   -16.8000     2.3386     4.6500     4.800
     25     1.0000    -0.0000     7.2600    -0.1500      4.706     36.000  11001.000      5.000   100.0155   141.3116   -77.3768     0.4200    -1.0000    27.9440     0.0000     0.0000    13.1850   101.3739    -1.0000    -1.5000     0.0000     0.0000     0.0000     0.0000    17.0000     8.0000     8.0000    17.0000     0.0000     0.0000   142.0306   -75.9388     0.0000    -4.2998    -2.9995    -1.8994    -0.6005     0.4003     1.8994     2.7994     3.8002    31.3400    22.1100    13.8400     6.4800    -5.6200   -10.4100   -14.3900   -16.8000     2.3366     4.6500     4.800
     26     1.0000    -0.0000     7.2499    -0.1500      4.798     29.000  11001.000      5.000   100.0155   141.3116   -77.3768     0.4200    -1.0000    27.9440     0.0000     0.0000    13.0850   101.2539    -1.0000    -1.5000     0.0000     0.0000     0.0000     0.0000    17.0000     8.0000     8.0000    17.0000     0.0000     0.0000   142.0306   -75.9388     0.0000    -4.2998    -2.9995    -1.8994    -0.6005     0.4003     1.8994     2.7994     3.8002    31.3400    22.1100    13.8400     6.4800    -5.6200   -10.4100   -14.3900   -16.8000     2.3346     4.6500     4.800
     27     1.0000    -0.0000     7.2398    -0.1500      4.711     30.000  11001.000      5.000   100.0155   141.3116   -77.3768     0.4200    -1.0000    27.9440     0.0000     0.0000    12.9850   101.1340    -1.0000    -1.5000     0.0000     0.0000     0.0000     0.0000    17.0000     8.0000     8.0000    17.0000     0.0000     0.0000   142.0306   -75.9388     0.0000    -4.2998    -2.9995    -1.8994    -0.6005     0.4003     1.8994     2.7994     3.8002    31.3400    22.1100    13.8400     6.4800    -5.6200   -10.4100   -14.3900   -16.8000     2.3326     4.6500     4.800
     28     0.9999    -0.0000     7.2302    -0.1500      4.766     32.000  11001.000      5.000   100.0155   141.3116   -77.3768     0.4200    -1.0000    27.9440     0.0000     0.0000    12.8900   101.0144    -1.0000    -1.5000     0.0000     0.0000     0.0000     0.0000    17.0000     8.0000     8.0000    17.0000     0.0000     0.0000   142.0306   -75.9388     0.0000    -4.2998    -2.9995    -1.8994    -0.6005     0.4003     1.8994     2.7994     3.8002    31.3400    22.1100    13.8400     6.4800    -5.6200   -10.4100   -14.3900   -16.8000     2.3306     4.6500     4.800
     29     1.0000    -0.0000     7.2199    -0.1500      4.790     30.000  11001.000      5.000   100.0155   141.3116   -77.3768     0.4200    -1.0000    27.9440     0.0000     0.0000    12.7875   100.8950    -1.0000    -1.5000     0.0000     0.0000     0.0000     0.0000    17.0000     8.0000     8.0000    17.0000     0.0000     0.0000   142.0306   -75.9388     0.0000    -4.2998    -2.9995    -1.8994    -0.6005     0.4003     1.8994     2.7994     3.8002    31.3400    22.1100    13.8400     6.4800    -5.6200   -10.4100   -14.3900   -16.8000     2.3286     4.6500     4.800
     30     0.9999    -0.0000     7.2103    -0.1500      4.740     32.000  11001.000      5.000   100.0155   141.3116   -77.3768     0.4200    -1.0000    27.9440     0.0000     0.0000    12.6925   100.7759    -1.0000    -1.5000     0.0000     0.0000     0.0000     0.0000    17.0000     8.0000     8.0000    17.0000     0.0000     0.0000   142.0306   -75.9388     0.0000    -4.2998    -2.9995    -1.8994    -0.6005     0.4003     1.8994     2.7994     3.8002    31.3400    22.1100    13.8400     6.4800    -5.6200   -10.4100   -14.3900   -16.8000     2.3266     4.6500     4.800
     31     1.0000    -0.0000     7.2002    -0.1500      4.757     43.000  11001.000      5.000   100.0155   141.3116   -77.3768     0.4200    -1.0000    27.9440     0.0000     0.0000    12.5925   100.6569    -1.0000    -1.5000     0.0000     0.0000     0.0000     0.0000    17.0000     8.0000     8.0000    17.0000     0.0000     0.0000   142.0306   -75.9388     0.0000    -4.2998    -2.9995    -1.8994    -0.6005     0.4003     1.8994     2.7994     3.8002    31.3400    22.1100    13.8400     6.4800    -5.6200   -10.4100   -14.3900   -16.8000     2.3246     4.6500     4.800
     32     1.0000    -0.0000     7.1901    -0.1500      4.743     46.000  11001.000      5.000   100.0155   141.3116   -77.3768     0.4200    -1.0000    27.9440     0.0000     0.0000    12.4925   100.5382    -1.0000    -1.5000     0.0000     0.0000     0.0000     0.0000    17.0000     8.0000     8.0000    17.0000     0.0000     0.0000   142.0306   -75.9388     0.0000    -4.2998    -2.9995    -1.8994    -0.6005     0.4003     1.8994     2.7994     3.8002    31.3400    22.1100    13.8400     6.4800    -5.6200   -10.4100   -14.3900   -16.8000     2.3226     4.6500     4.800
     33     1.0000    -0.0000     7.1802    -0.1500      4.677     57.000  11001.000      5.000   100.0155   141.3116   -77.3768     0.4200    -1.0000    27.9440     0.0000     0.0000    12.3950   100.4196    -1.0000    -1.5000     0.0000     0.0000     0.0000     0.0000    17.0000     8.0000     8.0000    17.0000     0.0000     0.0000   142.0306   -75.9388     0.0000    -4.2998    -2.9995    -1.8994    -0.6005     0.4003     1.8994     2.7994     3.8002    31.3400    22.1100    13.8400     6.4800    -5.6200   -10.4100   -14.3900   -16.8000     2.3206     4.6500     4.800
     34     1.0000    -0.0000     7.1701    -0.1500      4.654     81.000  11001.000      5.000   100.0155   141.3116   -77.3768     0.4200    -1.0000    27.9440     0.0000     0.0000    12.2950   100.3013    -1.0000    -1.5000     0.0000     0.0000     0.0000     0.0000    17.0000     8.0000     8.0000    17.0000     0.0000     0.0000   142.0306   -75.9388     0.0000    -4.2998    -2.9995    -1.8994    -0.6005     0.4003     1.8994     2.7994     3.8002    31.3400    22.1100    13.8400     6.4800    -5.6200   -10.4100   -14.3900   -16.8000     2.3186     4.6500     4.800
     35     1.0000    -0.0000     7.1599    -0.1500      4.796    181.000  11001.000      5.000   100.0155   141.3116   -77.3768     0.4200    -1.0000    27.9440     0.0000     0.0000    12.1950   100.1831    -1.0000    -1.5000     0.0000     0.0000     0.0000     0.0000    17.0000     8.0000     8.0000    17.0000     0.0000     0.0000   142.0306   -75.9388     0.0000    -4.2998    -2.9995    -1.8994    -0.6005     0.4003     1.8994     2.7994     3.8002    31.3400    22.1100    13.8400     6.4800    -5.6200   -10.4100   -14.3900   -16.8000     2.3166     4.6500     4.800
     36     1.0000    -0.0000     7.1501    -0.1500      4.725    415.000  11001.000      5.000   100.0155   141.3116   -77.3768     0.4200    -1.0000    27.9440     0.0000     0.0000    12.0975   100.0652    -1.0000    -1.5000     0.0000     0.0000     0.0000     0.0000    17.0000     8.0000     8.0000    17.0000     0.0000     0.0000   142.0306   -75.9388     0.0000    -4.2998    -2.9995    -1.8994    -0.6005     0.4003     1.8994     2.7994     3.8002    31.3400    22.1100    13.8400     6.4800    -5.6200   -10.4100   -14.3900   -16.8000     2.3146     4.6500     4.800
     37     1.0000    -0.0000     7.1402    -0.1500      4.780    877.000  11001.000      5.000   100.0155   141.3116   -77.3768     0.4200    -1.0000    27.9440     0.0000     0.0000    12.0000    99.9475    -1.0000    -1.5000     0.0000     0.0000     0.0000     0.0000    17.0000     8.0000     8.0000    17.0000     0.0000     0.0000   142.0306   -75.9388     0.0000    -4.2998    -2.9995    -1.8994    -0.6005     0.4003     1.8994     2.7994     3.8002    31.3400    22.1100    13.8400     6.4800    -5.6200   -10.4100   -14.3900   -16.8000     2.3126     4.6500     4.800
     38     1.0000    -0.0000     7.1300    -0.1500      4.736   1676.000  11001.000      5.000   100.0155   141.3116   -77.3768     0.4200    -1.0000    27.9440     0.0000     0.0000    11.9000    99.8300    -1.0000    -1.5000     0.0000     0.0000     0.0000     0.0000    17.0000     8.0000     8.0000    17.0000     0.0000     0.0000   142.0306   -75.9388     0.0000    -4.2998    -2.9995    -1.8994    -0.6005     0.4003     1.8994     2.7994     3.8002    31.3400    22.1100    13.8400     6.4800    -5.6200   -10.4100   -14.3900   -16.8000     2.3106     4.6500     4.800
     39     1.0000    -0.0000     7.1201    -0.1500      4.682   2939.000  11001.000      5.000   100.0155   141.3116   -77.3768     0.4200    -1.0000    27.9440     0.0000     0.0000    11.8025    99.7127    -1.0000    -1.5000     0.0000     0.0000     0.0000     0.0000    17.0000     8.0000     8.0000    17.0000     0.0000     0.0000   142.0306   -75.9388     0.0000    -4.2998    -2.9995    -1.8994    -0.6005     0.4003     1.8994     2.7994     3.8002    31.3400    22.1100    13.8400     6.4800    -5.6200   -10.4100   -14.3900   -16.8000     2.3086     4.6500     4.800
     40     1.0000    -0.0000     7.1100    -0.1500      4.770   3547.000  11001.000      5.000   100.0155   141.3116   -77.3768     0.4200    -1.0000    27.9440     0.0000     0.0000    11.7025    99.5956    -1.0000    -1.5000     0.0000     0.0000     0.0000     0.0000    17.0000     8.0000     8.0000    17.0000     0.0000     0.0000   142.0306   -75.9388     0.0000    -4.2998    -2.9995    -1.8994    -0.6005     0.4003     1.8994     2.7994     3.8002    31.3400    22.1100    13.8400     6.4800    -5.6200   -10.4100   -14.3900   -16.8000     2.3067     4.6500     4.800
     41     1.0000    -0.0000     7.0998    -0.1500      4.716   4188.000  11001.000      5.000   100.0155   141.3116   -77.3768     0.4200    -1.0000    27.9440     0.0000     0.0000    11.6025    99.4787    -1.0000    -1.5000     0.0000     0.0000     0.0000     0.0000    17.0000     8.0000     8.0000    17.0000     0.0000     0.0000   142.0306   -75.9388     0.0000    -4.2998    -2.9995    -1.8994    -0.6005     0.4003     1.8994     2.7994     3.8002    31.3400    22.1100    13.8400     6.4800    -5.6200   -10.4100   -14.3900   -16.8000     2.3047     4.6500     4.800
     42     1.0000    -0.0000     7.0902    -0.1500      4.714   2886.000  11001.000      5.000   100.0155   141.3116   -77.3768     0.4200    -1.0000    27.9440     0.0000     0.0000    11.5075    99.3620    -1.0000    -1.5000     0.0000     0.0000     0.0000     0.0000    17.0000     8.0000     8.0000    17.0000     0.0000     0.0000   142.0306   -75.9388     0.0000    -4.2998    -2.9995    -1.8994    -0.6005     0.4003     1.8994     2.7994     3.8002    31.3400    22.1100    13.8400     6.4800    -5.6200   -10.4100   -14.3900   -16.8000     2.3027     4.6500     4.800
     43     1.0000    -0.0000     7.0798    -0.1500      4.719   2290.000  11001.000      5.000   100.0155   141.3116   -77.3768     0.4200    -1.0000    27.9440     0.0000     0.0000    11.4050    99.2456    -1.0000    -1.5000     0.0000     0.0000     0.0000     0.0000    17.0000     8.0000     8.0000    17.0000     0.0000     0.0000   142.0306   -75.9388     0.0000    -4.2998    -2.9995    -1.8994    -0.6005     0.4003     1.8994     2.7994     3.8002    31.3400    22.1100    13.8400     6.4800    -5.6200   -10.4100   -14.3900   -16.8000     2.3007     4.6500     4.800
     44     1.0000    -0.0000     7.0701    -0.1500      4.746   1500.000  11001.000      5.000   100.0155   141.3116   -77.3768     0.4200    -1.0000    27.9440     0.0000     0.0000    11.3100    99.1293    -1.0000    -1.5000     0.0000     0.0000     0.0000     0.0000    17.0000     8.0000     8.0000    17.0000     0.0000     0.0000   142.0306   -75.9388     0.0000    -4.2998    -2.9995    -1.8994    -0.6005     0.4003     1.8994     2.7994     3.8002    31.3400    22.1100    13.8400     6.4800    -5.6200   -10.4100   -14.3900   -16.8000     2.2987     4.6500     4.800
     45     1.0000    -0.0000     7.0600    -0.1500      4.767    833.000  11001.000      5.000   100.0155   141.3116   -77.3768     0.4200    -1.0000    27.9440     0.0000     0.0000    11.2100    99.0132    -1.0000    -1.5000     0.0000     0.0000     0.0000     0.0000    17.0000     8.0000     8.0000    17.0000     0.0000     0.0000   142.0306   -75.9388     0.0000    -4.2998    -2.9995    -1.8994    -0.6005     0.4003     1.8994     2.7994     3.8002    31.3400    22.1100    13.8400     6.4800    -5.6200   -10.4100   -14.3900   -16.8000     2.2967     4.6500     4.800
     46     1.0000    -0.0000     7.0501    -0.1500      4.761    304.000  11001.000      5.000   100.0155   141.3116   -77.3768     0.4200    -1.0000    27.9440     0.0000     0.0000    11.1125    98.8974    -1.0000    -1.5000     0.0000     0.0000     0.0000     0.0000    17.0000     8.0000     8.0000    17.0000     0.0000     0.0000   142.0306   -75.9388     0.0000    -4.2998    -2.9995    -1.8994    -0.6005     0.4003     1.8994     2.7994     3.8002    31.3400    22.1100    13.8400     6.4800    -5.6200   -10.4100   -14.3900   -16.8000     2.2947     4.6500     4.800
     47     1.0000    -0.0000     7.0401    -0.1500      4.688    159.000  11001.000      5.000   100.0155   141.3116   -77.3768     0.4200    -1.0000    27.9440     0.0000     0.0000    11.0150    98.7817    -1.0000    -1.5000     0.0000     0.0000     0.0000     0.0000    17.0000     8.0000     8.0000    17.0000     0.0000     0.0000   142.0306   -75.9388     0.0000    -4.2998    -2.9995    -1.8994    -0.6005     0.4003     1.8994     2.7994     3.8002    31.3400    22.1100    13.8400     6.4800    -5.6200   -10.4100   -14.3900   -16.8000     2.2928     4.6500     4.800
     48     1.0000    -0.0000     7.0300    -0.1500      4.774     95.000  11001.000      5.000   100.0155   141.3116   -77.3768     0.4200    -1.0000    27.9440     0.0000     0.0000    10.9150    98.6662    -1.0000    -1.5000     0.0000     0.0000     0.0000     0.0000    17.0000     8.0000     8.0000    17.0000     0.0000     0.0000   142.0306   -75.9388     0.0000    -4.2998    -2.9995    -1.8994    -0.6005     0.4003     1.8994     2.7994     3.8002    31.3400    22.1100    13.8400     6.4800    -5.6200   -10.4100   -14.3900   -16.8000     2.2908     4.6500     4.800
     49     1.0000    -0.0000     7.0198    -0.1500      4.666     89.000  11001.000      5.000   100.0155   141.3116   -77.3768     0.4200    -1.0000    27.9440     0.0000     0.0000    10.8150    98.5509    -1.0000    -1.5000     0.0000     0.0000     0.0000     0.0000    17.0000     8.0000     8.0000    17.0000     0.0000     0.0000   142.0306   -75.9388     0.0000    -4.2998    -2.9995    -1.8994    -0.6005     0.4003     1.8994     2.7994     3.8002    31.3400    22.1100    13.8400     6.4800    -5.6200   -10.4100   -14.3900   -16.8000     2.2888     4.6500     4.800
     50     1.0000    -0.0000     7.0101    -0.1500      4.772     92.000  11001.000      5.000   100.0155   141.3116   -77.3768     0.4200    -1.0000    27.9440     0.0000     0.0000    10.7200    98.4358    -1.0000    -1.5000     0.0000     0.0000     0.0000     0.0000    17.0000     8.0000     8.0000    17.0000     0.0000     0.0000   142.0306   -75.9388     0.0000    -4.2998    -2.9995    -1.8994    -0.6005     0.4003     1.8994     2.7994     3.8002    31.3400    22.1100    13.8400     6.4800    -5.6200   -10.4100   -14.3900   -16.8000     2.2868     4.6500     4.800
     51     1.0000    -0.0000     6.9999    -0.1500      4.647     87.000  11001.000      5.000   100.0155   141.3116   -77.3768     0.4200    -1.0000    27.9440     0.0000     0.0000    10.6200    98.3210    -1.0000    -1.5000     0.0000     0.0000     0.0000     0.0000    17.0000     8.0000     8.0000    17.0000     0.0000     0.0000   142.0306   -75.9388     0.0000    -4.2998    -2.9995    -1.8994    -0.6005     0.4003     1.8994     2.7994     3.8002    31.3400    22.1100    13.8400     6.4800    -5.6200   -10.4100   -14.3900   -16.8000     2.2848     4.6500     4.800
     52     1.0001    -0.0000     6.9897    -0.1500      4.659     79.000  11001.000      5.000   100.0155   141.3116   -77.3768     0.4200    -1.0000    27.9440     0.0000     0.0000    10.5200    98.2063    -1.0000    -1.5000     0.0000     0.0000     0.0000     0.0000    17.0000     8.0000     8.0000    17.0000     0.0000     0.0000   142.0306   -75.9388     0.0000    -4.2998    -2.9995    -1.8994    -0.6005     0.4003     1.8994     2.7994     3.8002    31.3400    22.1100    13.8400     6.4800    -5.6200   -10.4100   -14.3900   -16.8000     2.2829     4.6500     4.800
     53     1.0000    -0.0000     6.9801    -0.1500      4.662     65.000  11001.000      5.000   100.0155   141.3116   -77.3768     0.4200    -1.0000    27.9440     0.0000     0.0000    10.4250    98.0918    -1.0000    -1.5000     0.0000     0.0000     0.0000     0.0000    17.0000     8.0000     8.0000    17.0000     0.0000     0.0000   142.0306   -75.9388     0.0000    -4.2998    -2.9995    -1.8994    -0.6005     0.4003     1.8994     2.7994     3.8002    31.3400    22.1100    13.8400     6.4800    -5.6200   -10.4100   -14.3900   -16.8000     2.2809     4.6500     4.800
     54     1.0000    -0.0000     6.9699    -0.1500      4.771     58.000  11001.000      5.000   100.0155   141.3116   -77.3768     0.4200    -1.0000    27.9440     0.0000     0.0000    10.3250    97.9776    -1.0000    -1.5000     0.0000     0.0000     0.0000     0.0000    17.0000     8.0000     8.0000    17.0000     0.0000     0.0000   142.0306   -75.9388     0.0000    -4.2998    -2.9995    -1.8994    -0.6005     0.4003     1.8994     2.7994     3.8002    31.3400    22.1100    13.8400     6.4800    -5.6200   -10.4100   -14.3900   -16.8000     2.2789     4.6500     4.800
     55     1.0000    -0.0000     6.9602    -0.1500      4.688     64.000  11001.000      5.000   100.0155   141.3116   -77.3768     0.4200    -1.0000    27.9440     0.0000     0.0000    10.2300    97.8634    -1.0000    -1.5000     0.0000     0.0000     0.0000     0.0000    17.0000     8.0000     8.0000    17.0000     0.0000     0.0000   142.0306   -75.9388     0.0000    -4.2998    -2.9995    -1.8994    -0.6005     0.4003     1.8994     2.7994     3.8002    31.3400    22.1100    13.8400     6.4800    -5.6200   -10.4100   -14.3900   -16.8000     2.2769     4.6500     4.800
     56     1.0000    -0.0000     6.9500    -0.1500      4.854     63.000  11001.000      5.000   100.0155   141.3116   -77.3768     0.4200    -1.0000    27.9440     0.0000     0.0000    10.1300    97.7496    -1.0000    -1.5000     0.0000     0.0000     0.0000     0.0000    17.0000     8.0000     8.0000    17.0000     0.0000     0.0000   142.0306   -75.9388     0.0000    -4.2998    -2.9995    -1.8994    -0.6005     0.4003     1.8994     2.7994     3.8002    31.3400    22.1100    13.8400     6.4800    -5.6200   -10.4100   -14.3900   -16.8000     2.2750     4.6500     4.800
     57     1.0000    -0.0000     6.9398    -0.1500      4.778     53.000  11001.000      5.000   100.0155   141.3116   -77.3768     0.4200    -1.0000    27.9440     0.0000     0.0000    10.0300    97.6359    -1.0000    -1.5000     0.0000     0.0000     0.0000     0.0000    17.0000     8.0000     8.0000    17.0000     0.0000     0.0000   142.0306   -75.9388     0.0000    -4.2998    -2.9995    -1.8994    -0.6005     0.4003     1.8994     2.7994     3.8002    31.3400    22.1100    13.8400     6.4800    -5.6200   -10.4100   -14.3900   -16.8000     2.2730     4.6500     4.800
     58     1.0000    -0.0000     6.9301    -0.1500      4.745     52.000  11001.000      5.000   100.0155   141.3116   -77.3768     0.4200    -1.0000    27.9440     0.0000     0.0000     9.9350    97.5224    -1.0000    -1.5000     0.0000     0.0000     0.0000     0.0000    17.0000     8.0000     8.0000    17.0000     0.0000     0.0000   142.0306   -75.9388     0.0000    -4.2998    -2.9995    -1.8994    -0.6005     0.4003     1.8994     2.7994     3.8002    31.3400    22.1100    13.8400     6.4800    -5.6200   -10.4100   -14.3900   -16.8000     2.2710     4.6500     4.800
     59     1.0000    -0.0000     6.9199    -0.1500      4.729     35.000  11001.000      5.000   100.0155   141.3116   -77.3768     0.4200    -1.0000    27.9440     0.0000     0.0000     9.8350    97.4090    -1.0000    -1.5000     0.0000     0.0000     0.0000     0.0000    17.0000     8.0000     8.0000    17.0000     0.0000     0.0000   142.0306   -75.9388     0.0000    -4.2998    -2.9995    -1.8994    -0.6005     0.4003     1.8994     2.7994     3.8002    31.3400    22.1100    13.8400     6.4800    -5.6200   -10.4100   -14.3900   -16.8000     2.2690     4.6500     4.800
     60     1.0000    -0.0000     6.9102    -0.1500      4.775     41.000  11001.000      5.000   100.0155   141.3116   -77.3768     0.4200    -1.0000    27.9440     0.0000     0.0000     9.7400    97.2959    -1.0000    -1.5000     0.0000     0.0000     0.0000     0.0000    17.0000     8.0000     8.0000    17.0000     0.0000     0.0000   142.0306   -75.9388     0.0000    -4.2998    -2.9995    -1.8994    -0.6005     0.4003     1.8994     2.7994     3.8002    31.3400    22.1100    13.8400     6.4800    -5.6200   -10.4100   -14.3900   -16.8000     2.2671     4.6500     4.800
     61     1.0000    -0.0000     6.9000    -0.1500      4.731     48.000  11001.000      5.000   100.0155   141.3116   -77.3768     0.4200    -1.0000    27.9440     0.0000     0.0000     9.6400    97.1830    -1.0000    -1.5000     0.0000     0.0000     0.0000     0.0000    17.0000     8.0000     8.0000    17.0000     0.0000     0.0000   142.0306   -75.9388     0.0000    -4.2998    -2.9995    -1.8994    -0.6005     0.4003     1.8994     2.7994     3.8002    31.3400    22.1100    13.8400     6.4800    -5.6200   -10.4100   -14.3900   -16.8000     2.2651     4.6500     4.800
     62     1.0000    -0.0000     6.8900    -0.1500      4.735     43.000  11001.000      5.000   100.0155   141.3116   -77.3768     0.4200    -1.0000    27.9440     0.0000     0.0000     9.5425    97.0703    -1.0000    -1.5000     0.0000     0.0000     0.0000     0.0000    17.0000     8.0000     8.0000    17.0000     0.0000     0.0000   142.0306   -75.9388     0.0000    -4.2998    -2.9995    -1.8994    -0.6005     0.4003     1.8994     2.7994     3.8002    31.3400    22.1100    13.8400     6.4800    -5.6200   -10.4100   -14.3900   -16.8000     2.2631     4.6500     4.800
     63     1.0000    -0.0000     6.8800    -0.1500      4.619     36.000  11001.000      5.000   100.0155   141.3116   -77.3768     0.4200    -1.0000    27.9440     0.0000     0.0000     9.4450    96.9577    -1.0000    -1.5000     0.0000     0.0000     0.0000     0.0000    17.0000     8.0000     8.0000    17.0000     0.0000     0.0000   142.0306   -75.9388     0.0000    -4.2998    -2.9995    -1.8994    -0.6005     0.4003     1.8994     2.7994     3.8002    31.3400    22.1100    13.8400     6.4800    -5.6200   -10.4100   -14.3900   -16.8000     2.2612     4.6500     4.800
     64     1.0000    -0.0000     6.8698    -0.1500      4.647     15.000  11001.000      5.000   100.0155   141.3116   -77.3768     0.4200    -1.0000    27.9440     0.0000     0.0000     9.3450    96.8454    -1.0000    -1.5000     0.0000     0.0000     0.0000     0.0000    17.0000     8.0000     8.0000    17.0000     0.0000     0.0000   142.0306   -75.9388     0.0000    -4.2998    -2.9995    -1.8994    -0.6005     0.4003     1.8994     2.7994     3.8002    31.3400    22.1100    13.8400     6.4800    -5.6200   -10.4100   -14.3900   -16.8000     2.2592     4.6500     4.800
     65     1.0000    -0.0000     6.8601    -0.1500      4.739     29.000  11001.000      5.000   100.0155   141.3116   -77.3768     0.4200    -1.0000    27.9440     0.0000     0.0000     9.2500    96.7332    -1.0000    -1.5000     0.0000     0.0000     0.0000     0.0000    17.0000     8.0000     8.0000    17.0000     0.0000     0.0000   142.0306   -75.9388     0.0000    -4.2998    -2.9995    -1.8994    -0.6005     0.4003     1.8994     2.7994     3.8002    31.3400    22.1100    13.8400     6.4800    -5.6200   -10.4100   -14.3900   -16.8000     2.2572     4.6500     4.800
     66     1.0000    -0.0000     6.8499    -0.1500      4.692     15.000  11001.000      5.000   100.0155   141.3116   -77.3768     0.4200    -1.0000    27.9440     0.0000     0.0000     9.1500    96.6212    -1.0000    -1.5000     0.0000     0.0000     0.0000     0.0000    17.0000     8.0000     8.0000    17.0000     0.0000     0.0000   142.0306   -75.9388     0.0000    -4.2998    -2.9995    -1.8994    -0.6005     0.4003     1.8994     2.7994     3.8002    31.3400    22.1100    13.8400     6.4800    -5.6200   -10.4100   -14.3900   -16.8000     2.2553     4.6500     4.800
     67     1.0000    -0.0000     6.8402    -0.1500      4.787     27.000  11001.000      5.000   100.0155   141.3116   -77.3768     0.4200    -1.0000    27.9440     0.0000     0.0000     9.0550    96.5094    -1.0000    -1.5000     0.0000     0.0000     0.0000     0.0000    17.0000     8.0000     8.0000    17.0000     0.0000     0.0000   142.0306   -75.9388     0.0000    -4.2998    -2.9995    -1.8994    -0.6005     0.4003     1.8994     2.7994     3.8002    31.3400    22.1100    13.8400     6.4800    -5.6200   -10.4100   -14.3900   -16.8000     2.2533     4.6500     4.800
     68     1.0000    -0.0000     6.8299    -0.1500      4.742     26.000  11001.000      5.000   100.0155   141.3116   -77.3768     0.4200    -1.0000    27.9440     0.0000     0.0000     8.9550    96.3978    -1.0000    -1.5000     0.0000     0.0000     0.0000     0.0000    17.0000     8.0000     8.0000    17.0000     0.0000     0.0000   142.0306   -75.9388     0.0000    -4.2998    -2.9995    -1.8994    -0.6005     0.4003     1.8994     2.7994     3.8002    31.3400    22.1100    13.8400     6.4800    -5.6200   -10.4100   -14.3900   -16.8000     2.2514     4.6500     4.800
     69     1.0000    -0.0000     6.8200    -0.1500      4.719     29.000  11001.000      5.000   100.0155   141.3116   -77.3768     0.4200    -1.0000    27.9440     0.0000     0.0000     8.8575    96.2864    -1.0000    -1.5000     0.0000     0.0000     0.0000     0.0000    17.0000     8.0000     8.0000    17.0000     0.0000     0.0000   142.0306   -75.9388     0.0000    -4.2998    -2.9995    -1.8994    -0.6005     0.4003     1.8994     2.7994     3.8002    31.3400    22.1100    13.8400     6.4800    -5.6200   -10.4100   -14.3900   -16.8000     2.2494     4.6500     4.800
     70     1.0000    -0.0000     6.8100    -0.1500      4.755     15.000  11001.000      5.000   100.0155   141.3116   -77.3768     0.4200    -1.0000    27.9440     0.0000     0.0000     8.7600    96.1752    -1.0000    -1.5000     0.0000     0.0000     0.0000     0.0000    17.0000     8.0000     8.0000    17.0000     0.0000     0.0000   142.0306   -75.9388     0.0000    -4.2998    -2.9995    -1.8994    -0.6005     0.4003     1.8994     2.7994     3.8002    31.3400    22.1100    13.8400     6.4800    -5.6200   -10.4100   -14.3900   -16.8000     2.2475     4.6500     4.800
     71     1.0000    -0.0000     6.8000    -0.1500      4.741     23.000  11001.000      5.000   100.0155   141.3116   -77.3768     0.4200    -1.0000    27.9440     0.0000     0.0000     8.6625    96.0642    -1.0000    -1.5000     0.0000     0.0000     0.0000     0.0000    17.0000     8.0000     8.0000    17.0000     0.0000     0.0000   142.0306   -75.9388     0.0000    -4.2998    -2.9995    -1.8994    -0.6005     0.4003     1.8994     2.7994     3.8002    31.3400    22.1100    13.8400     6.4800    -5.6200   -10.4100   -14.3900   -16.8000     2.2455     4.6500     4.800
     72     1.0000    -0.0000     6.7900    -0.1500      4.688     19.000  11001.000      5.000   100.0155   141.3116   -77.3768     0.4200    -1.0000    27.9440     0.0000     0.0000     8.5650    95.9533    -1.0000    -1.5000     0.0000     0.0000     0.0000     0.0000    17.0000     8.0000     8.0000    17.0000     0.0000     0.0000   142.0306   -75.9388     0.0000    -4.2998    -2.9995    -1.8994    -0.6005     0.4003     1.8994     2.7994     3.8002    31.3400    22.1100    13.8400     6.4800    -5.6200   -10.4100   -14.3900   -16.8000     2.2435     4.6500     4.800
     73     1.0000    -0.0000     6.7798    -0.1500      4.734     29.000  11001.000      5.000   100.0155   141.3116   -77.3768     0.4200    -1.0000    27.9440     0.0000     0.0000     8.4650    95.8426    -1.0000    -1.5000     0.0000     0.0000     0.0000     0.0000    17.0000     8.0000     8.0000    17.0000     0.0000     0.0000   142.0306   -75.9388     0.0000    -4.2998    -2.9995    -1.8994    -0.6005     0.4003     1.8994     2.7994     3.8002    31.3400    22.1100    13.8400     6.4800    -5.6200   -10.4100   -14.3900   -16.8000     2.2416     4.6500     4.800
     74     1.0000    -0.0000     6.7701    -0.1500      4.673     27.000  11001.000      5.000   100.0155   141.3116   -77.3768     0.4200    -1.0000    27.9440     0.0000     0.0000     8.3700    95.7322    -1.0000    -1.5000     0.0000     0.0000     0.0000     0.0000    17.0000     8.0000     8.0000    17.0000     0.0000     0.0000   142.0306   -75.9388     0.0000    -4.2998    -2.9995    -1.8994    -0.6005     0.4003     1.8994     2.7994     3.8002    31.3400    22.1100    13.8400     6.4800    -5.6200   -10.4100   -14.3900   -16.8000     2.2396     4.6500     4.800
     75     1.0000    -0.0000     6.7601    -0.1500      4.636     26.000  11001.000      5.000   100.0155   141.3116   -77.3768     0.4200    -1.0000    27.9440     0.0000     0.0000     8.2725    95.6219    -1.0000    -1.5000     0.0000     0.0000     0.0000     0.0000    17.0000     8.0000     8.0000    17.0000     0.0000     0.0000   142.0306   -75.9388     0.0000    -4.2998    -2.9995    -1.8994    -0.6005     0.4003     1.8994     2.7994     3.8002    31.3400    22.1100    13.8400     6.4800    -5.6200   -10.4100   -14.3900   -16.8000     2.2377     4.6500     4.800
     76     1.0000    -0.0000     6.7501    -0.1500      4.704     25.000  11001.000      5.000   100.0155   141.3116   -77.3768     0.4200    -1.0000    27.9440     0.0000     0.0000     8.1750    95.5118    -1.0000    -1.5000     0.0000     0.0000     0.0000     0.0000    17.0000     8.0000     8.0000    17.0000     0.0000     0.0000   142.0306   -75.9388     0.0000    -4.2998    -2.9995    -1.8994    -0.6005     0.4003     1.8994     2.7994     3.8002    31.3400    22.1100    13.8400     6.4800    -5.6200   -10.4100   -14.3900   -16.8000     2.2357     4.6500     4.800
     77     1.0000    -0.0000     6.7398    -0.1500      4.675     18.000  11001.000      5.000   100.0155   141.3116   -77.3768     0.4200    -1.0000    27.9440     0.0000     0.0000     8.0750    95.4018    -1.0000    -1.5000     0.0000     0.0000     0.0000     0.0000    17.0000     8.0000     8.0000    17.0000     0.0000     0.0000   142.0306   -75.9388     0.0000    -4.2998    -2.9995    -1.8994    -0.6005     0.4003     1.8994     2.7994     3.8002    31.3400    22.1100    13.8400     6.4800    -5.6200   -10.4100   -14.3900   -16.8000     2.2338     4.6500     4.800
     78     1.0000    -0.0000     6.7301    -0.1500      4.740     12.000  11001.000      5.000   100.0155   141.3116   -77.3768     0.4200    -1.0000    27.9440     0.0000     0.0000     7.9800    95.2921    -1.0000    -1.5000     0.0000     0.0000     0.0000     0.0000    17.0000     8.0000     8.0000    17.0000     0.0000     0.0000   142.0306   -75.9388     0.0000    -4.2998    -2.9995    -1.8994    -0.6005     0.4003     1.8994     2.7994     3.8002    31.3400    22.1100    13.8400     6.4800    -5.6200   -10.4100   -14.3900   -16.8000     2.2318     4.6500     4.800
     79     1.0000    -0.0000     6.7201    -0.1500      4.682     21.000  11001.000      5.000   100.0155   141.3116   -77.3768     0.4200    -1.0000    27.9440     0.0000     0.0000     7.8825    95.1825    -1.0000    -1.5000     0.0000     0.0000     0.0000     0.0000    17.0000     8.0000     8.0000    17.0000     0.0000     0.0000   142.0306   -75.9388     0.0000    -4.2998    -2.9995    -1.8994    -0.6005     0.4003     1.8994     2.7994     3.8002    31.3400    22.1100    13.8400     6.4800    -5.6200   -10.4100   -14.3900   -16.8000     2.2299     4.6500     4.800
     80     1.0000    -0.0000     6.7101    -0.1500      4.745     30.000  11001.000      5.000   100.0155   141.3116   -77.3768     0.4200    -1.0000    27.9440     0.0000     0.0000     7.7850    95.0732    -1.0000    -1.5000     0.0000     0.0000     0.0000     0.0000    17.0000     8.0000     8.0000    17.0000     0.0000     0.0000   142.0306   -75.9388     0.0000    -4.2998    -2.9995    -1.8994    -0.6005     0.4003     1.8994     2.7994     3.8002    31.3400    22.1100    13.8400     6.4800    -5.6200   -10.4100   -14.3900   -16.8000     2.2280     4.6500     4.800
     81     1.0000    -0.0000     6.6998    -0.1500      4.730     30.000  11001.000      5.000   100.0155   141.3116   -77.3768     0.4200    -1.0000    27.9440     0.0000     0.0000     7.6850    94.9640    -1.0000    -1.5000     0.0000     0.0000     0.0000     0.0000    17.0000     8.0000     8.0000    17.0000     0.0000     0.0000   142.0306   -75.9388     0.0000    -4.2998    -2.9995    -1.8994    -0.6005     0.4003     1.8994     2.7994     3.8002    31.3400    22.1100    13.8400     6.4800    -5.6200   -10.4100   -14.3900   -16.8000     2.2260     4.6500     4.800
     82     1.0000    -0.0000     6.6901    -0.1500      4.696     23.000  11001.000      5.000   100.0155   141.3116   -77.3768     0.4200    -1.0000    27.9440     0.0000     0.0000     7.5900    94.8549    -1.0000    -1.5000     0.0000     0.0000     0.0000     0.0000    17.0000     8.0000     8.0000    17.0000     0.0000     0.0000   142.0306   -75.9388     0.0000    -4.2998    -2.9995    -1.8994    -0.6005     0.4003     1.8994     2.7994     3.8002    31.3400    22.1100    13.8400     6.4800    -5.6200   -10.4100   -14.3900   -16.8000     2.2241     4.6500     4.800
     83     1.0000    -0.0000     6.6798    -0.1500      4.686     28.000  11001.000      5.000   100.0155   141.3116   -77.3768     0.4200    -1.0000    27.9440     0.0000     0.0000     7.4900    94.7461    -1.0000    -1.5000     0.0000     0.0000     0.0000     0.0000    17.0000     8.0000     8.0000    17.0000     0.0000     0.0000   142.0306   -75.9388     0.0000    -4.2998    -2.9995    -1.8994    -0.6005     0.4003     1.8994     2.7994     3.8002    31.3400    22.1100    13.8400     6.4800    -5.6200   -10.4100   -14.3900   -16.8000     2.2221     4.6500     4.800
     84     1.0000    -0.0000     6.6701    -0.1500      4.709     19.000  11001.000      5.000   100.0155   141.3116   -77.3768     0.4200    -1.0000    27.9440     0.0000     0.0000     7.3950    94.6374    -1.0000    -1.5000     0.0000     0.0000     0.0000     0.0000    17.0000     8.0000     8.0000    17.0000     0.0000     0.0000   142.0306   -75.9388     0.0000    -4.2998    -2.9995    -1.8994    -0.6005     0.4003     1.8994     2.7994     3.8002    31.3400    22.1100    13.8400     6.4800    -5.6200   -10.4100   -14.3900   -16.8000     2.2202     4.6500     4.800
     85     1.0000    -0.0000     6.6601    -0.1500      4.739     20.000  11001.000      5.000   100.0155   141.3116   -77.3768     0.4200    -1.0000    27.9440     0.0000     0.0000     7.2975    94.5290    -1.0000    -1.5000     0.0000     0.0000     0.0000     0.0000    17.0000     8.0000     8.0000    17.0000     0.0000     0.0000   142.0306   -75.9388     0.0000    -4.2998    -2.9995    -1.8994    -0.6005     0.4003     1.8994     2.7994     3.8002    31.3400    22.1100    13.8400     6.4800    -5.6200   -10.4100   -14.3900   -16.8000     2.2182     4.6500     4.800
     86     1.0000    -0.0000     6.6501    -0.1500      4.696     22.000  11001.000      5.000   100.0155   141.3116   -77.3768     0.4200    -1.0000    27.9440     0.0000     0.0000     7.2000    94.4206    -1.0000    -1.5000     0.0000     0.0000     0.0000     0.0000    17.0000     8.0000     8.0000    17.0000     0.0000     0.0000   142.0306   -75.9388     0.0000    -4.2998    -2.9995    -1.8994    -0.6005     0.4003     1.8994     2.7994     3.8002    31.3400    22.1100    13.8400     6.4800    -5.6200   -10.4100   -14.3900   -16.8000     2.2163     4.6500     4.800
     87     1.0000    -0.0000     6.6401    -0.1500      4.825     16.000  11001.000      5.000   100.0155   141.3116   -77.3768     0.4200    -1.0000    27.9440     0.0000     0.0000     7.1025    94.3125    -1.0000    -1.5000     0.0000     0.0000     0.0000     0.0000    17.0000     8.0000     8.0000    17.0000     0.0000     0.0000   142.0306   -75.9388     0.0000    -4.2998    -2.9995    -1.8994    -0.6005     0.4003     1.8994     2.7994     3.8002    31.3400    22.1100    13.8400     6.4800    -5.6200   -10.4100   -14.3900   -16.8000     2.2144     4.6500     4.800
     88     1.0000    -0.0000     6.6300    -0.1500      4.730     23.000  11001.000      5.000   100.0155   141.3116   -77.3768     0.4200    -1.0000    27.9440     0.0000     0.0000     7.0050    94.2046    -1.0000    -1.5000     0.0000     0.0000     0.0000     0.0000    17.0000     8.0000     8.0000    17.0000     0.0000     0.0000   142.0306   -75.9388     0.0000    -4.2998    -2.9995    -1.8994    -0.6005     0.4003     1.8994     2.7994     3.8002    31.3400    22.1100    13.8400     6.4800    -5.6200   -10.4100   -14.3900   -16.8000     2.2124     4.6500     4.800
     89     1.0000    -0.0000     6.6198    -0.1500      4.700     23.000  11001.000      5.000   100.0155   141.3116   -77.3768     0.4200    -1.0000    27.9440     0.0000     0.0000     6.9050    94.0968    -1.0000    -1.5000     0.0000     0.0000     0.0000     0.0000    17.0000     8.0000     8.0000    17.0000     0.0000     0.0000   142.0306   -75.9388     0.0000    -4.2998    -2.9995    -1.8994    -0.6005     0.4003     1.8994     2.7994     3.8002    31.3400    22.1100    13.8400     6.4800    -5.6200   -10.4100   -14.3900   -16.8000     2.2105     4.6500     4.800
     90     0.9999    -0.0000     6.6103    -0.1500      4.724     29.000  11001.000      5.000   100.0155   141.3116   -77.3768     0.4200    -1.0000    27.9440     0.0000     0.0000     6.8125    93.9892    -1.0000    -1.5000     0.0000     0.0000     0.0000     0.0000    17.0000     8.0000     8.0000    17.0000     0.0000     0.0000   142.0306   -75.9388     0.0000    -4.2998    -2.9995    -1.8994    -0.6005     0.4003     1.8994     2.7994     3.8002    31.3400    22.1100    13.8400     6.4800    -5.6200   -10.4100   -14.3900   -16.8000     2.2086     4.6500     4.800
     91     0.9999    -0.0000     6.6002    -0.1500      4.752     24.000  11001.000      5.000   100.0155   141.3116   -77.3768     0.4200    -1.0000    27.9440     0.0000     0.0000     6.7150    93.8818    -1.0000    -1.5000     0.0000     0.0000     0.0000     0.0000    17.0000     8.0000     8.0000    17.0000     0.0000     0.0000   142.0306   -75.9388     0.0000    -4.2998    -2.9995    -1.8994    -0.6005     0.4003     1.8994     2.7994     3.8002    31.3400    22.1100    13.8400     6.4800    -5.6200   -10.4100   -14.3900   -16.8000     2.2066     4.6500     4.800
     92     1.0000    -0.0000     6.5900    -0.1500      4.739     14.000  11001.000      5.000   100.0155   141.3116   -77.3768     0.4200    -1.0000    27.9440     0.0000     0.0000     6.6150    93.7746    -1.0000    -1.5000     0.0000     0.0000     0.0000     0.0000    17.0000     8.0000     8.0000    17.0000     0.0000     0.0000   142.0306   -75.9388     0.0000    -4.2998    -2.9995    -1.8994    -0.6005     0.4003     1.8994     2.7994     3.8002    31.3400    22.1100    13.8400     6.4800    -5.6200   -10.4100   -14.3900   -16.8000     2.2047     4.6500     4.800
     93     1.0000    -0.0000     6.5800    -0.1500      4.745     20.000  11001.000      5.000   100.0155   141.3116   -77.3768     0.4200    -1.0000    27.9440     0.0000     0.0000     6.5175    93.6675    -1.0000    -1.5000     0.0000     0.0000     0.0000     0.0000    17.0000     8.0000     8.0000    17.0000     0.0000     0.0000   142.0306   -75.9388     0.0000    -4.2998    -2.9995    -1.8994    -0.6005     0.4003     1.8994     2.7994     3.8002    31.3400    22.1100    13.8400     6.4800    -5.6200   -10.4100   -14.3900   -16.8000     2.2028     4.6500     4.800
     94     1.0000    -0.0000     6.5699    -0.1500      4.663     23.000  11001.000      5.000   100.0155   141.3116   -77.3768     0.4200    -1.0000    27.9440     0.0000     0.0000     6.4200    93.5606    -1.0000    -1.5000     0.0000     0.0000     0.0000     0.0000    17.0000     8.0000     8.0000    17.0000     0.0000     0.0000   142.0306   -75.9388     0.0000    -4.2998    -2.9995    -1.8994    -0.6005     0.4003     1.8994     2.7994     3.8002    31.3400    22.1100    13.8400     6.4800    -5.6200   -10.4100   -14.3900   -16.8000     2.2008     4.6500     4.800
     95     1.0000    -0.0000     6.5599    -0.1500      4.667     30.000  11001.000      5.000   100.0155   141.3116   -77.3768     0.4200    -1.0000    27.9440     0.0000     0.0000     6.3225    93.4539    -1.0000    -1.5000     0.0000     0.0000     0.0000     0.0000    17.0000     8.0000     8.0000    17.0000     0.0000     0.0000   142.0306   -75.9388     0.0000    -4.2998    -2.9995    -1.8994    -0.6005     0.4003     1.8994     2.7994     3.8002    31.3400    22.1100    13.8400     6.4800    -5.6200   -10.4100   -14.3900   -16.8000     2.1989     4.6500     4.800
     96     1.0000    -0.0000     6.5499    -0.1500      4.756     24.000  11001.000      5.000   100.0155   141.3116   -77.3768     0.4200    -1.0000    27.9440     0.0000     0.0000     6.2250    93.3474    -1.0000    -1.5000     0.0000     0.0000     0.0000     0.0000    17.0000     8.0000     8.0000    17.0000     0.0000     0.0000   142.0306   -75.9388     0.0000    -4.2998    -2.9995    -1.8994    -0.6005     0.4003     1.8994     2.7994     3.8002    31.3400    22.1100    13.8400     6.4800    -5.6200   -10.4100   -14.3900   -16.8000     2.1970     4.6500     4.800
     97     1.0000    -0.0000     6.5399    -0.1500      4.640     29.000  11001.000      5.000   100.0155   141.3116   -77.3768     0.4200    -1.0000    27.9440     0.0000     0.0000     6.1275    93.2410    -1.0000    -1.5000     0.0000     0.0000     0.0000     0.0000    17.0000     8.0000     8.0000    17.0000     0.0000     0.0000   142.0306   -75.9388     0.0000    -4.2998    -2.9995    -1.8994    -0.6005     0.4003     1.8994     2.7994     3.8002    31.3400    22.1100    13.8400     6.4800    -5.6200   -10.4100   -14.3900   -16.8000     2.1951     4.6500     4.800
     98     1.0000    -0.0000     6.5299    -0.1500      4.683     24.000  11001.000      5.000   100.0155   141.3116   -77.3768     0.4200    -1.0000    27.9440     0.0000     0.0000     6.0300    93.1348    -1.0000    -1.5000     0.0000     0.0000     0.0000     0.0000    17.0000     8.0000     8.0000    17.0000     0.0000     0.0000   142.0306   -75.9388     0.0000    -4.2998    -2.9995    -1.8994    -0.6005     0.4003     1.8994     2.7994     3.8002    31.3400    22.1100    13.8400     6.4800    -5.6200   -10.4100   -14.3900   -16.8000     2.1931     4.6500     4.800
     99     1.0000    -0.0000     6.5201    -0.1500      4.706     29.000  11001.000      5.000   100.0155   141.3116   -77.3768     0.4200    -1.0000    27.9440     0.0000     0.0000     5.9350    93.0288    -1.0000    -1.5000     0.0000     0.0000     0.0000     0.0000    17.0000     8.0000     8.0000    17.0000     0.0000     0.0000   142.0306   -75.9388     0.0000    -4.2998    -2.9995    -1.8994    -0.6005     0.4003     1.8994     2.7994     3.8002    31.3400    22.1100    13.8400     6.4800    -5.6200   -10.4100   -14.3900   -16.8000     2.1912     4.6500     4.800
    100     1.0000    -0.0000     6.5101    -0.1500      4.739     19.000  11001.000      5.000   100.0155   141.3116   -77.3768     0.4200    -1.0000    27.9440     0.0000     0.0000     5.8375    92.9230    -1.0000    -1.5000     0.0000     0.0000     0.0000     0.0000    17.0000     8.0000     8.0000    17.0000     0.0000     0.0000   142.0306   -75.9388     0.0000    -4.2998    -2.9995    -1.8994    -0.6005     0.4003     1.8994     2.7994     3.8002    31.3400    22.1100    13.8400     6.4800    -5.6200   -10.4100   -14.3900   -16.8000     2.1893     4.6500     4.800
    101     1.0000    -0.0000     6.5000    -0.1500      4.662     19.000  11001.000      5.000   100.0155   141.3116   -77.3768     0.4200    -1.0000    27.9440     0.0000     0.0000     5.7400    92.8173    -1.0000    -1.5000     0.0000     0.0000     0.0000     0.0000    17.0000     8.0000     8.0000    17.0000     0.0000     0.0000   142.0306   -75.9388     0.0000    -4.2998    -2.9995    -1.8994    -0.6005     0.4003     1.8994     2.7994     3.8002    31.3400    22.1100    13.8400     6.4800    -5.6200   -10.4100   -14.3900   -16.8000     2.1874     4.6500     4.800
# Sum of Counts = 24787
# Center of Mass = 7.091292+/-0.063702
# Full Width Half-Maximum = 0.203565+/-0.009028
# 3:02:03 PM  3/12/2025   scan completed.
