# scan = 150
# date = 3/11/2025
# time = 8:53:30 PM
# proposal = 35030
# experiment = CTAX Instrumental resolution benchmarking
# experiment_number = 445
# command = scan h 0 k 0 l 6 e -0.2 0.2 0.01 preset mcu 2
# builtin_command = scan h 0 k 0 l 6 e -0.2 0.2 0.01 preset mcu 2
# users = Tao Hong, Tao Hong, Bing Li
# local_contact = Tao Hong
# scan_title = (006) scans-hori-focusing
# monochromator = PG002
# analyzer = Pg002
# sense = -+-
# collimation = 48-40-40-120
# samplename = LaN
# sampletype = crystal
# samplemosaic = 30.000000
# latticeconstants = 5.058628,5.058628,24.728465,90.000000,90.000000,120.000000
# ubmatrix = -0.002928,0.001986,-0.040430,-0.228168,-0.119258,0.000500,-0.005924,0.194622,0.000719
# mode = 0
# plane_normal = 0.017452,-0.026173,0.999505
# ubconf = UB10Mar2025_114214AM.ini
# preset_type = normal 
# preset_channel = mcu
# preset_value = 2.000000
# def_x = e
# def_y = detector
# col_headers = 
#   Pt.          h          k          l          e       time   detector    monitor        mcu focal_length         m1         m2       marc     mtrans     mfocus   vti_temp  smpl_temp         s1         s2        sgl        sgu        bbb        bbl        bbr        bbt        bab        bal        bar        bat        stl        stu         a1         a2     afocus        qm1        qm2        qm3        qm4        qm5        qm6        qm7        qm8        xm1        xm2        xm3        xm4        xm5        xm6        xm7        xm8          q         ei         ef
      1    -0.0000     0.0000     6.0000    -0.2000      1.930     17.000   4401.000      2.000   100.5558   141.0625   -77.8750     0.4200    -1.0000    27.8400     0.0000     0.0000    30.1000    60.8057    -1.0000    -1.5000     0.0000     0.0000     0.0000     0.0000    17.0000     8.0000     8.0000    17.0000     0.0000     0.0000   142.0306   -75.9388     0.0000    -4.2998    -2.9995    -1.8994    -0.6005     0.4003     1.8994     2.7994     3.8002    31.3400    22.1100    13.8400     6.4800    -5.6200   -10.4100   -14.3900   -16.8000     1.5245     4.6000     4.800
      2     0.0000     0.0000     6.0000    -0.1900      2.000     18.000   4401.000      2.000   100.4515   141.1127   -77.7746     0.4200    -1.0000    27.8600     0.0000     0.0000    30.1325    60.7706    -1.0000    -1.5000     0.0000     0.0000     0.0000     0.0000    17.0000     8.0000     8.0000    17.0000     0.0000     0.0000   142.0306   -75.9388     0.0000    -4.2998    -2.9995    -1.8994    -0.6005     0.4003     1.8994     2.7994     3.8002    31.3400    22.1100    13.8400     6.4800    -5.6200   -10.4100   -14.3900   -16.8000     1.5245     4.6100     4.800
      3    -0.0000     0.0000     6.0000    -0.1800      1.901     17.000   4401.000      2.000   100.3473   141.1627   -77.6746     0.4200    -1.0000    27.8800     0.0000     0.0000    30.1700    60.7356    -1.0000    -1.5000     0.0000     0.0000     0.0000     0.0000    17.0000     8.0000     8.0000    17.0000     0.0000     0.0000   142.0306   -75.9388     0.0000    -4.2998    -2.9995    -1.8994    -0.6005     0.4003     1.8994     2.7994     3.8002    31.3400    22.1100    13.8400     6.4800    -5.6200   -10.4100   -14.3900   -16.8000     1.5245     4.6200     4.800
      4     0.0000     0.0000     6.0000    -0.1700      1.893     25.000   4401.000      2.000   100.2226   141.2125   -77.5749     0.4200    -1.0000    27.9040     0.0000     0.0000    30.2025    60.7007    -1.0000    -1.5000     0.0000     0.0000     0.0000     0.0000    17.0000     8.0000     8.0000    17.0000     0.0000     0.0000   142.0306   -75.9388     0.0000    -4.2998    -2.9995    -1.8994    -0.6005     0.4003     1.8994     2.7994     3.8002    31.3400    22.1100    13.8400     6.4800    -5.6200   -10.4100   -14.3900   -16.8000     1.5245     4.6300     4.800
      5    -0.0000     0.0000     6.0000    -0.1600      1.886     24.000   4401.000      2.000   100.1190   141.2622   -77.4757     0.4200    -1.0000    27.9240     0.0000     0.0000    30.2400    60.6657    -1.0000    -1.5000     0.0000     0.0000     0.0000     0.0000    17.0000     8.0000     8.0000    17.0000     0.0000     0.0000   142.0306   -75.9388     0.0000    -4.2998    -2.9995    -1.8994    -0.6005     0.4003     1.8994     2.7994     3.8002    31.3400    22.1100    13.8400     6.4800    -5.6200   -10.4100   -14.3900   -16.8000     1.5245     4.6400     4.800
      6     0.0000     0.0000     6.0000    -0.1500      1.913     26.000   4401.000      2.000   100.0155   141.3116   -77.3768     0.4200    -1.0000    27.9440     0.0000     0.0000    30.2725    60.6308    -1.0000    -1.5000     0.0000     0.0000     0.0000     0.0000    17.0000     8.0000     8.0000    17.0000     0.0000     0.0000   142.0306   -75.9388     0.0000    -4.2998    -2.9995    -1.8994    -0.6005     0.4003     1.8994     2.7994     3.8002    31.3400    22.1100    13.8400     6.4800    -5.6200   -10.4100   -14.3900   -16.8000     1.5245     4.6500     4.800
      7    -0.0000     0.0000     6.0000    -0.1400      1.879     40.000   4401.000      2.000    99.9123   141.3608   -77.2783     0.4200    -1.0000    27.9640     0.0000     0.0000    30.3075    60.5959    -1.0000    -1.5000     0.0000     0.0000     0.0000     0.0000    17.0000     8.0000     8.0000    17.0000     0.0000     0.0000   142.0306   -75.9388     0.0000    -4.2998    -2.9995    -1.8994    -0.6005     0.4003     1.8994     2.7994     3.8002    31.3400    22.1100    13.8400     6.4800    -5.6200   -10.4100   -14.3900   -16.8000     1.5245     4.6600     4.800
      8    -0.0001     0.0000     6.0000    -0.1300      1.860     40.000   4401.000      2.000    99.8092   141.4099   -77.1802     0.4200    -1.0000    27.9840     0.0000     0.0000    30.3450    60.5610    -1.0000    -1.5000     0.0000     0.0000     0.0000     0.0000    17.0000     8.0000     8.0000    17.0000     0.0000     0.0000   142.0306   -75.9388     0.0000    -4.2998    -2.9995    -1.8994    -0.6005     0.4003     1.8994     2.7994     3.8002    31.3400    22.1100    13.8400     6.4800    -5.6200   -10.4100   -14.3900   -16.8000     1.5245     4.6700     4.800
      9    -0.0001     0.0000     6.0000    -0.1200      1.926     40.000   4401.000      2.000    99.6859   141.4588   -77.0825     0.4200    -1.0000    28.0080     0.0000     0.0000    30.3800    60.5262    -1.0000    -1.5000     0.0000     0.0000     0.0000     0.0000    17.0000     8.0000     8.0000    17.0000     0.0000     0.0000   142.0306   -75.9388     0.0000    -4.2998    -2.9995    -1.8994    -0.6005     0.4003     1.8994     2.7994     3.8002    31.3400    22.1100    13.8400     6.4800    -5.6200   -10.4100   -14.3900   -16.8000     1.5245     4.6800     4.800
     10    -0.0000     0.0000     6.0000    -0.1100      1.908     57.000   4401.000      2.000    99.5833   141.5074   -76.9852     0.4200    -1.0000    28.0280     0.0000     0.0000    30.4125    60.4914    -1.0000    -1.5000     0.0000     0.0000     0.0000     0.0000    17.0000     8.0000     8.0000    17.0000     0.0000     0.0000   142.0306   -75.9388     0.0000    -4.2998    -2.9995    -1.8994    -0.6005     0.4003     1.8994     2.7994     3.8002    31.3400    22.1100    13.8400     6.4800    -5.6200   -10.4100   -14.3900   -16.8000     1.5245     4.6900     4.800
     11     0.0000     0.0000     6.0000    -0.1000      1.851     63.000   4401.000      2.000    99.4809   141.5559   -76.8882     0.4200    -1.0000    28.0480     0.0000     0.0000    30.4450    60.4566    -1.0000    -1.5000     0.0000     0.0000     0.0000     0.0000    17.0000     8.0000     8.0000    17.0000     0.0000     0.0000   142.0306   -75.9388     0.0000    -4.2998    -2.9995    -1.8994    -0.6005     0.4003     1.8994     2.7994     3.8002    31.3400    22.1100    13.8400     6.4800    -5.6200   -10.4100   -14.3900   -16.8000     1.5245     4.7000     4.800
     12    -0.0000     0.0000     6.0000    -0.0900      1.892     69.000   4401.000      2.000    99.3788   141.6042   -76.7916     0.4200    -1.0000    28.0680     0.0000     0.0000    30.4825    60.4218    -1.0000    -1.5000     0.0000     0.0000     0.0000     0.0000    17.0000     8.0000     8.0000    17.0000     0.0000     0.0000   142.0306   -75.9388     0.0000    -4.2998    -2.9995    -1.8994    -0.6005     0.4003     1.8994     2.7994     3.8002    31.3400    22.1100    13.8400     6.4800    -5.6200   -10.4100   -14.3900   -16.8000     1.5245     4.7100     4.800
     13    -0.0000     0.0000     6.0000    -0.0800      1.877     58.000   4401.000      2.000    99.2768   141.6523   -76.6954     0.4200    -1.0000    28.0880     0.0000     0.0000    30.5150    60.3871    -1.0000    -1.5000     0.0000     0.0000     0.0000     0.0000    17.0000     8.0000     8.0000    17.0000     0.0000     0.0000   142.0306   -75.9388     0.0000    -4.2998    -2.9995    -1.8994    -0.6005     0.4003     1.8994     2.7994     3.8002    31.3400    22.1100    13.8400     6.4800    -5.6200   -10.4100   -14.3900   -16.8000     1.5245     4.7200     4.800
     14    -0.0000     0.0000     6.0000    -0.0700      1.840     88.000   4401.000      2.000    99.1548   141.7002   -76.5996     0.4200    -1.0000    28.1120     0.0000     0.0000    30.5500    60.3524    -1.0000    -1.5000     0.0000     0.0000     0.0000     0.0000    17.0000     8.0000     8.0000    17.0000     0.0000     0.0000   142.0306   -75.9388     0.0000    -4.2998    -2.9995    -1.8994    -0.6005     0.4003     1.8994     2.7994     3.8002    31.3400    22.1100    13.8400     6.4800    -5.6200   -10.4100   -14.3900   -16.8000     1.5245     4.7300     4.800
     15    -0.0000     0.0000     6.0000    -0.0600      1.862    144.000   4401.000      2.000    99.0533   141.7480   -76.5041     0.4200    -1.0000    28.1320     0.0000     0.0000    30.5850    60.3176    -1.0000    -1.5000     0.0000     0.0000     0.0000     0.0000    17.0000     8.0000     8.0000    17.0000     0.0000     0.0000   142.0306   -75.9388     0.0000    -4.2998    -2.9995    -1.8994    -0.6005     0.4003     1.8994     2.7994     3.8002    31.3400    22.1100    13.8400     6.4800    -5.6200   -10.4100   -14.3900   -16.8000     1.5245     4.7400     4.800
     16    -0.0000     0.0000     6.0000    -0.0500      1.919    363.000   4401.000      2.000    98.9520   141.7955   -76.4089     0.4200    -1.0000    28.1520     0.0000     0.0000    30.6200    60.2830    -1.0000    -1.5000     0.0000     0.0000     0.0000     0.0000    17.0000     8.0000     8.0000    17.0000     0.0000     0.0000   142.0306   -75.9388     0.0000    -4.2998    -2.9995    -1.8994    -0.6005     0.4003     1.8994     2.7994     3.8002    31.3400    22.1100    13.8400     6.4800    -5.6200   -10.4100   -14.3900   -16.8000     1.5245     4.7500     4.800
     17    -0.0000     0.0000     6.0000    -0.0400      1.852   1095.000   4401.000      2.000    98.8510   141.8429   -76.3142     0.4200    -1.0000    28.1720     0.0000     0.0000    30.6550    60.2483    -1.0000    -1.5000     0.0000     0.0000     0.0000     0.0000    17.0000     8.0000     8.0000    17.0000     0.0000     0.0000   142.0306   -75.9388     0.0000    -4.2998    -2.9995    -1.8994    -0.6005     0.4003     1.8994     2.7994     3.8002    31.3400    22.1100    13.8400     6.4800    -5.6200   -10.4100   -14.3900   -16.8000     1.5245     4.7600     4.800
     18    -0.0000     0.0000     6.0000    -0.0300      1.888   2502.000   4401.000      2.000    98.7501   141.8901   -76.2198     0.4200    -1.0000    28.1920     0.0000     0.0000    30.6875    60.2137    -1.0000    -1.5000     0.0000     0.0000     0.0000     0.0000    17.0000     8.0000     8.0000    17.0000     0.0000     0.0000   142.0306   -75.9388     0.0000    -4.2998    -2.9995    -1.8994    -0.6005     0.4003     1.8994     2.7994     3.8002    31.3400    22.1100    13.8400     6.4800    -5.6200   -10.4100   -14.3900   -16.8000     1.5245     4.7700     4.800
     19     0.0000     0.0000     6.0000    -0.0200      1.872   4135.000   4401.000      2.000    98.6495   141.9371   -76.1258     0.4200    -1.0000    28.2120     0.0000     0.0000    30.7200    60.1791    -1.0000    -1.5000     0.0000     0.0000     0.0000     0.0000    17.0000     8.0000     8.0000    17.0000     0.0000     0.0000   142.0306   -75.9388     0.0000    -4.2998    -2.9995    -1.8994    -0.6005     0.4003     1.8994     2.7994     3.8002    31.3400    22.1100    13.8400     6.4800    -5.6200   -10.4100   -14.3900   -16.8000     1.5245     4.7800     4.800
     20     0.0000     0.0000     6.0000    -0.0100      1.867   5662.000   4401.000      2.000    98.5490   141.9840   -76.0321     0.4200    -1.0000    28.2320     0.0000     0.0000    30.7550    60.1446    -1.0000    -1.5000     0.0000     0.0000     0.0000     0.0000    17.0000     8.0000     8.0000    17.0000     0.0000     0.0000   142.0306   -75.9388     0.0000    -4.2998    -2.9995    -1.8994    -0.6005     0.4003     1.8994     2.7994     3.8002    31.3400    22.1100    13.8400     6.4800    -5.6200   -10.4100   -14.3900   -16.8000     1.5245     4.7900     4.800
     21     0.0000     0.0000     6.0000     0.0000      1.936   6285.000   4401.000      2.000    98.4288   142.0306   -75.9387     0.4200    -1.0000    28.2560     0.0000     0.0000    30.7900    60.1100    -1.0000    -1.5000     0.0000     0.0000     0.0000     0.0000    17.0000     8.0000     8.0000    17.0000     0.0000     0.0000   142.0306   -75.9388     0.0000    -4.2998    -2.9995    -1.8994    -0.6005     0.4003     1.8994     2.7994     3.8002    31.3400    22.1100    13.8400     6.4800    -5.6200   -10.4100   -14.3900   -16.8000     1.5245     4.8000     4.800
     22    -0.0000     0.0000     6.0000     0.0100      1.864   5156.000   4401.000      2.000    98.3288   142.0771   -75.8458     0.4200    -1.0000    28.2760     0.0000     0.0000    30.8250    60.0755    -1.0000    -1.5000     0.0000     0.0000     0.0000     0.0000    17.0000     8.0000     8.0000    17.0000     0.0000     0.0000   142.0306   -75.9388     0.0000    -4.2998    -2.9995    -1.8994    -0.6005     0.4003     1.8994     2.7994     3.8002    31.3400    22.1100    13.8400     6.4800    -5.6200   -10.4100   -14.3900   -16.8000     1.5245     4.8100     4.800
     23     0.0000     0.0000     6.0000     0.0200      1.857   3515.000   4401.000      2.000    98.2290   142.1234   -75.7531     0.4200    -1.0000    28.2960     0.0000     0.0000    30.8575    60.0410    -1.0000    -1.5000     0.0000     0.0000     0.0000     0.0000    17.0000     8.0000     8.0000    17.0000     0.0000     0.0000   142.0306   -75.9388     0.0000    -4.2998    -2.9995    -1.8994    -0.6005     0.4003     1.8994     2.7994     3.8002    31.3400    22.1100    13.8400     6.4800    -5.6200   -10.4100   -14.3900   -16.8000     1.5245     4.8200     4.800
     24     0.0000     0.0000     6.0000     0.0300      1.852   1752.000   4401.000      2.000    98.1294   142.1696   -75.6608     0.4200    -1.0000    28.3160     0.0000     0.0000    30.8925    60.0065    -1.0000    -1.5000     0.0000     0.0000     0.0000     0.0000    17.0000     8.0000     8.0000    17.0000     0.0000     0.0000   142.0306   -75.9388     0.0000    -4.2998    -2.9995    -1.8994    -0.6005     0.4003     1.8994     2.7994     3.8002    31.3400    22.1100    13.8400     6.4800    -5.6200   -10.4100   -14.3900   -16.8000     1.5245     4.8300     4.800
     25    -0.0000     0.0000     6.0000     0.0400      1.891    627.000   4401.000      2.000    98.0300   142.2156   -75.5689     0.4200    -1.0000    28.3360     0.0000     0.0000    30.9275    59.9720    -1.0000    -1.5000     0.0000     0.0000     0.0000     0.0000    17.0000     8.0000     8.0000    17.0000     0.0000     0.0000   142.0306   -75.9388     0.0000    -4.2998    -2.9995    -1.8994    -0.6005     0.4003     1.8994     2.7994     3.8002    31.3400    22.1100    13.8400     6.4800    -5.6200   -10.4100   -14.3900   -16.8000     1.5245     4.8400     4.800
     26    -0.0000     0.0000     6.0000     0.0500      1.877    203.000   4401.000      2.000    97.9308   142.2614   -75.4773     0.4200    -1.0000    28.3560     0.0000     0.0000    30.9625    59.9376    -1.0000    -1.5000     0.0000     0.0000     0.0000     0.0000    17.0000     8.0000     8.0000    17.0000     0.0000     0.0000   142.0306   -75.9388     0.0000    -4.2998    -2.9995    -1.8994    -0.6005     0.4003     1.8994     2.7994     3.8002    31.3400    22.1100    13.8400     6.4800    -5.6200   -10.4100   -14.3900   -16.8000     1.5245     4.8500     4.800
     27    -0.0000     0.0000     6.0000     0.0600      1.895     87.000   4401.000      2.000    97.8318   142.3070   -75.3860     0.4200    -1.0000    28.3760     0.0000     0.0000    30.9975    59.9032    -1.0000    -1.5000     0.0000     0.0000     0.0000     0.0000    17.0000     8.0000     8.0000    17.0000     0.0000     0.0000   142.0306   -75.9388     0.0000    -4.2998    -2.9995    -1.8994    -0.6005     0.4003     1.8994     2.7994     3.8002    31.3400    22.1100    13.8400     6.4800    -5.6200   -10.4100   -14.3900   -16.8000     1.5245     4.8600     4.800
     28    -0.0000     0.0000     6.0000     0.0700      1.913     53.000   4401.000      2.000    97.7330   142.3524   -75.2951     0.4200    -1.0000    28.3960     0.0000     0.0000    31.0300    59.8688    -1.0000    -1.5000     0.0000     0.0000     0.0000     0.0000    17.0000     8.0000     8.0000    17.0000     0.0000     0.0000   142.0306   -75.9388     0.0000    -4.2998    -2.9995    -1.8994    -0.6005     0.4003     1.8994     2.7994     3.8002    31.3400    22.1100    13.8400     6.4800    -5.6200   -10.4100   -14.3900   -16.8000     1.5245     4.8700     4.800
     29     0.0000     0.0000     6.0000     0.0800      1.939     50.000   4401.000      2.000    97.6344   142.3978   -75.2045     0.4200    -1.0000    28.4160     0.0000     0.0000    31.0625    59.8345    -1.0000    -1.5000     0.0000     0.0000     0.0000     0.0000    17.0000     8.0000     8.0000    17.0000     0.0000     0.0000   142.0306   -75.9388     0.0000    -4.2998    -2.9995    -1.8994    -0.6005     0.4003     1.8994     2.7994     3.8002    31.3400    22.1100    13.8400     6.4800    -5.6200   -10.4100   -14.3900   -16.8000     1.5245     4.8800     4.800
     30     0.0000     0.0000     6.0000     0.0900      1.984     33.000   4401.000      2.000    97.5360   142.4429   -75.1142     0.4200    -1.0000    28.4360     0.0000     0.0000    31.0975    59.8002    -1.0000    -1.5000     0.0000     0.0000     0.0000     0.0000    17.0000     8.0000     8.0000    17.0000     0.0000     0.0000   142.0306   -75.9388     0.0000    -4.2998    -2.9995    -1.8994    -0.6005     0.4003     1.8994     2.7994     3.8002    31.3400    22.1100    13.8400     6.4800    -5.6200   -10.4100   -14.3900   -16.8000     1.5245     4.8900     4.800
     31    -0.0000     0.0000     6.0000     0.1000      1.980     35.000   4401.000      2.000    97.4378   142.4878   -75.0243     0.4200    -1.0000    28.4560     0.0000     0.0000    31.1325    59.7658    -1.0000    -1.5000     0.0000     0.0000     0.0000     0.0000    17.0000     8.0000     8.0000    17.0000     0.0000     0.0000   142.0306   -75.9388     0.0000    -4.2998    -2.9995    -1.8994    -0.6005     0.4003     1.8994     2.7994     3.8002    31.3400    22.1100    13.8400     6.4800    -5.6200   -10.4100   -14.3900   -16.8000     1.5245     4.9000     4.800
     32    -0.0000     0.0000     6.0000     0.1100      1.960     21.000   4401.000      2.000    97.3203   142.5326   -74.9347     0.4200    -1.0000    28.4800     0.0000     0.0000    31.1675    59.7316    -1.0000    -1.5000     0.0000     0.0000     0.0000     0.0000    17.0000     8.0000     8.0000    17.0000     0.0000     0.0000   142.0306   -75.9388     0.0000    -4.2998    -2.9995    -1.8994    -0.6005     0.4003     1.8994     2.7994     3.8002    31.3400    22.1100    13.8400     6.4800    -5.6200   -10.4100   -14.3900   -16.8000     1.5245     4.9100     4.800
     33    -0.0000     0.0000     6.0000     0.1200      1.943     32.000   4401.000      2.000    97.2225   142.5773   -74.8455     0.4200    -1.0000    28.5000     0.0000     0.0000    31.2025    59.6973    -1.0000    -1.5000     0.0000     0.0000     0.0000     0.0000    17.0000     8.0000     8.0000    17.0000     0.0000     0.0000   142.0306   -75.9388     0.0000    -4.2998    -2.9995    -1.8994    -0.6005     0.4003     1.8994     2.7994     3.8002    31.3400    22.1100    13.8400     6.4800    -5.6200   -10.4100   -14.3900   -16.8000     1.5245     4.9200     4.800
     34    -0.0000     0.0000     6.0000     0.1300      1.986     23.000   4401.000      2.000    97.1249   142.6218   -74.7565     0.4200    -1.0000    28.5200     0.0000     0.0000    31.2350    59.6631    -1.0000    -1.5000     0.0000     0.0000     0.0000     0.0000    17.0000     8.0000     8.0000    17.0000     0.0000     0.0000   142.0306   -75.9388     0.0000    -4.2998    -2.9995    -1.8994    -0.6005     0.4003     1.8994     2.7994     3.8002    31.3400    22.1100    13.8400     6.4800    -5.6200   -10.4100   -14.3900   -16.8000     1.5245     4.9300     4.800
     35    -0.0000     0.0000     6.0000     0.1400      1.980     18.000   4401.000      2.000    97.0276   142.6660   -74.6679     0.4200    -1.0000    28.5400     0.0000     0.0000    31.2700    59.6288    -1.0000    -1.5000     0.0000     0.0000     0.0000     0.0000    17.0000     8.0000     8.0000    17.0000     0.0000     0.0000   142.0306   -75.9388     0.0000    -4.2998    -2.9995    -1.8994    -0.6005     0.4003     1.8994     2.7994     3.8002    31.3400    22.1100    13.8400     6.4800    -5.6200   -10.4100   -14.3900   -16.8000     1.5245     4.9400     4.800
     36    -0.0000     0.0000     6.0000     0.1500      2.003     20.000   4401.000      2.000    96.9304   142.7102   -74.5796     0.4200    -1.0000    28.5600     0.0000     0.0000    31.3025    59.5946    -1.0000    -1.5000     0.0000     0.0000     0.0000     0.0000    17.0000     8.0000     8.0000    17.0000     0.0000     0.0000   142.0306   -75.9388     0.0000    -4.2998    -2.9995    -1.8994    -0.6005     0.4003     1.8994     2.7994     3.8002    31.3400    22.1100    13.8400     6.4800    -5.6200   -10.4100   -14.3900   -16.8000     1.5245     4.9500     4.800
     37    -0.0000     0.0000     6.0000     0.1600      2.005     14.000   4401.000      2.000    96.8334   142.7542   -74.4916     0.4200    -1.0000    28.5800     0.0000     0.0000    31.3375    59.5605    -1.0000    -1.5000     0.0000     0.0000     0.0000     0.0000    17.0000     8.0000     8.0000    17.0000     0.0000     0.0000   142.0306   -75.9388     0.0000    -4.2998    -2.9995    -1.8994    -0.6005     0.4003     1.8994     2.7994     3.8002    31.3400    22.1100    13.8400     6.4800    -5.6200   -10.4100   -14.3900   -16.8000     1.5245     4.9600     4.800
     38     0.0000     0.0000     6.0000     0.1700      2.042     24.000   4401.000      2.000    96.7366   142.7980   -74.4039     0.4200    -1.0000    28.6000     0.0000     0.0000    31.3675    59.5263    -1.0000    -1.5000     0.0000     0.0000     0.0000     0.0000    17.0000     8.0000     8.0000    17.0000     0.0000     0.0000   142.0306   -75.9388     0.0000    -4.2998    -2.9995    -1.8994    -0.6005     0.4003     1.8994     2.7994     3.8002    31.3400    22.1100    13.8400     6.4800    -5.6200   -10.4100   -14.3900   -16.8000     1.5245     4.9700     4.800
     39    -0.0000     0.0000     6.0000     0.1800      2.021     18.000   4401.000      2.000    96.6400   142.8417   -74.3166     0.4200    -1.0000    28.6200     0.0000     0.0000    31.4050    59.4922    -1.0000    -1.5000     0.0000     0.0000     0.0000     0.0000    17.0000     8.0000     8.0000    17.0000     0.0000     0.0000   142.0306   -75.9388     0.0000    -4.2998    -2.9995    -1.8994    -0.6005     0.4003     1.8994     2.7994     3.8002    31.3400    22.1100    13.8400     6.4800    -5.6200   -10.4100   -14.3900   -16.8000     1.5245     4.9800     4.800
     40     0.0000     0.0000     6.0000     0.1900      2.046      9.000   4401.000      2.000    96.5436   142.8852   -74.2295     0.4200    -1.0000    28.6400     0.0000     0.0000    31.4375    59.4581    -1.0000    -1.5000     0.0000     0.0000     0.0000     0.0000    17.0000     8.0000     8.0000    17.0000     0.0000     0.0000   142.0306   -75.9388     0.0000    -4.2998    -2.9995    -1.8994    -0.6005     0.4003     1.8994     2.7994     3.8002    31.3400    22.1100    13.8400     6.4800    -5.6200   -10.4100   -14.3900   -16.8000     1.5245     4.9900     4.800
     41    -0.0000     0.0000     6.0000     0.2000      2.102     10.000   4401.000      2.000    96.4474   142.9286   -74.1428     0.4200    -1.0000    28.6600     0.0000     0.0000    31.4725    59.4240    -1.0000    -1.5000     0.0000     0.0000     0.0000     0.0000    17.0000     8.0000     8.0000    17.0000     0.0000     0.0000   142.0306   -75.9388     0.0000    -4.2998    -2.9995    -1.8994    -0.6005     0.4003     1.8994     2.7994     3.8002    31.3400    22.1100    13.8400     6.4800    -5.6200   -10.4100   -14.3900   -16.8000     1.5245     5.0000     4.800
# Sum of Counts = 32468
# Center of Mass = -0.002927+/-0.000161
# Full Width Half-Maximum = 0.057329+/-0.000619
# 8:58:49 PM  3/11/2025   scan completed.
