# scan = 263
# date = 3/13/2025
# time = 7:28:05 AM
# proposal = 35030
# experiment = CTAX Instrumental resolution benchmarking
# experiment_number = 445
# command = scan h 0 k 0 l 4.5 3.5 0.01 e -0.1 preset mcu 5
# builtin_command = scan h 0 k 0 l 4.5 3.5 0.01 e -0.1 preset mcu 5
# users = Tao Hong, Tao Hong, Bing Li
# local_contact = Tao Hong
# scan_title = (00L) scan at E=-0.1 meV and hori-focusing
# monochromator = PG002
# analyzer = Pg002
# sense = -+-
# collimation = 48-40-40-120
# samplename = LaN
# sampletype = crystal
# samplemosaic = 30.000000
# latticeconstants = 5.058628,5.058628,24.728465,90.000000,90.000000,120.000000
# ubmatrix = -0.002928,0.001986,-0.040430,-0.228168,-0.119258,0.000500,-0.005924,0.194622,0.000719
# mode = 0
# plane_normal = 0.017452,-0.026173,0.999505
# ubconf = UB10Mar2025_114214AM.ini
# preset_type = normal 
# preset_channel = mcu
# preset_value = 5.000000
# def_x = l
# def_y = detector
# col_headers = 
#   Pt.          h          k          l          e       time   detector    monitor        mcu focal_length         m1         m2       marc     mtrans     mfocus   vti_temp  smpl_temp         s1         s2        sgl        sgu        bbb        bbl        bbr        bbt        bab        bal        bar        bat        stl        stu         a1         a2     afocus        qm1        qm2        qm3        qm4        qm5        qm6        qm7        qm8        xm1        xm2        xm3        xm4        xm5        xm6        xm7        xm8          q         ei         ef
      1     0.0000    -0.0000     4.5000    -0.1000      4.614     44.000  11001.000      5.000    99.4809   141.5559   -76.8882     0.4200    -1.0000    28.0480     0.0000     0.0000    22.1775    44.3664    -1.0000    -1.5000     0.0000     0.0000     0.0000     0.0000    17.0000     8.0000     8.0000    17.0000     0.0000     0.0000   142.0306   -75.9388     0.0000    -4.2998    -2.9995    -1.8994    -0.6005     0.4003     1.8994     2.7994     3.8002    31.3400    22.1100    13.8400     6.4800    -5.6200   -10.4100   -14.3900   -16.8000     1.1434     4.7000     4.800
      2    -0.0000    -0.0000     4.4900    -0.1000      4.734     51.000  11001.000      5.000    99.4809   141.5559   -76.8882     0.4200    -1.0000    28.0480     0.0000     0.0000    22.1250    44.2625    -1.0000    -1.5000     0.0000     0.0000     0.0000     0.0000    17.0000     8.0000     8.0000    17.0000     0.0000     0.0000   142.0306   -75.9388     0.0000    -4.2998    -2.9995    -1.8994    -0.6005     0.4003     1.8994     2.7994     3.8002    31.3400    22.1100    13.8400     6.4800    -5.6200   -10.4100   -14.3900   -16.8000     1.1409     4.7000     4.800
      3    -0.0001    -0.0000     4.4800    -0.1000      4.807     56.000  11001.000      5.000    99.4809   141.5559   -76.8882     0.4200    -1.0000    28.0480     0.0000     0.0000    22.0750    44.1587    -1.0000    -1.5000     0.0000     0.0000     0.0000     0.0000    17.0000     8.0000     8.0000    17.0000     0.0000     0.0000   142.0306   -75.9388     0.0000    -4.2998    -2.9995    -1.8994    -0.6005     0.4003     1.8994     2.7994     3.8002    31.3400    22.1100    13.8400     6.4800    -5.6200   -10.4100   -14.3900   -16.8000     1.1383     4.7000     4.800
      4     0.0000    -0.0000     4.4700    -0.1000      4.673     53.000  11001.000      5.000    99.4809   141.5559   -76.8882     0.4200    -1.0000    28.0480     0.0000     0.0000    22.0150    44.0550    -1.0000    -1.5000     0.0000     0.0000     0.0000     0.0000    17.0000     8.0000     8.0000    17.0000     0.0000     0.0000   142.0306   -75.9388     0.0000    -4.2998    -2.9995    -1.8994    -0.6005     0.4003     1.8994     2.7994     3.8002    31.3400    22.1100    13.8400     6.4800    -5.6200   -10.4100   -14.3900   -16.8000     1.1358     4.7000     4.800
      5    -0.0000    -0.0000     4.4600    -0.1000      4.675     56.000  11001.000      5.000    99.4809   141.5559   -76.8882     0.4200    -1.0000    28.0480     0.0000     0.0000    21.9650    43.9512    -1.0000    -1.5000     0.0000     0.0000     0.0000     0.0000    17.0000     8.0000     8.0000    17.0000     0.0000     0.0000   142.0306   -75.9388     0.0000    -4.2998    -2.9995    -1.8994    -0.6005     0.4003     1.8994     2.7994     3.8002    31.3400    22.1100    13.8400     6.4800    -5.6200   -10.4100   -14.3900   -16.8000     1.1332     4.7000     4.800
      6    -0.0000    -0.0000     4.4500    -0.1000      4.659     52.000  11001.000      5.000    99.4809   141.5559   -76.8882     0.4200    -1.0000    28.0480     0.0000     0.0000    21.9100    43.8476    -1.0000    -1.5000     0.0000     0.0000     0.0000     0.0000    17.0000     8.0000     8.0000    17.0000     0.0000     0.0000   142.0306   -75.9388     0.0000    -4.2998    -2.9995    -1.8994    -0.6005     0.4003     1.8994     2.7994     3.8002    31.3400    22.1100    13.8400     6.4800    -5.6200   -10.4100   -14.3900   -16.8000     1.1307     4.7000     4.800
      7     0.0000    -0.0000     4.4400    -0.1000      4.688     52.000  11001.000      5.000    99.4809   141.5559   -76.8882     0.4200    -1.0000    28.0480     0.0000     0.0000    21.8550    43.7439    -1.0000    -1.5000     0.0000     0.0000     0.0000     0.0000    17.0000     8.0000     8.0000    17.0000     0.0000     0.0000   142.0306   -75.9388     0.0000    -4.2998    -2.9995    -1.8994    -0.6005     0.4003     1.8994     2.7994     3.8002    31.3400    22.1100    13.8400     6.4800    -5.6200   -10.4100   -14.3900   -16.8000     1.1281     4.7000     4.800
      8    -0.0000    -0.0000     4.4300    -0.1000      4.685     48.000  11001.000      5.000    99.4809   141.5559   -76.8882     0.4200    -1.0000    28.0480     0.0000     0.0000    21.8025    43.6403    -1.0000    -1.5000     0.0000     0.0000     0.0000     0.0000    17.0000     8.0000     8.0000    17.0000     0.0000     0.0000   142.0306   -75.9388     0.0000    -4.2998    -2.9995    -1.8994    -0.6005     0.4003     1.8994     2.7994     3.8002    31.3400    22.1100    13.8400     6.4800    -5.6200   -10.4100   -14.3900   -16.8000     1.1256     4.7000     4.800
      9     0.0000    -0.0000     4.4200    -0.1000      4.660     41.000  11001.000      5.000    99.4809   141.5559   -76.8882     0.4200    -1.0000    28.0480     0.0000     0.0000    21.7475    43.5368    -1.0000    -1.5000     0.0000     0.0000     0.0000     0.0000    17.0000     8.0000     8.0000    17.0000     0.0000     0.0000   142.0306   -75.9388     0.0000    -4.2998    -2.9995    -1.8994    -0.6005     0.4003     1.8994     2.7994     3.8002    31.3400    22.1100    13.8400     6.4800    -5.6200   -10.4100   -14.3900   -16.8000     1.1231     4.7000     4.800
     10    -0.0000    -0.0000     4.4100    -0.1000      4.645     51.000  11001.000      5.000    99.4809   141.5559   -76.8882     0.4200    -1.0000    28.0480     0.0000     0.0000    21.6950    43.4332    -1.0000    -1.5000     0.0000     0.0000     0.0000     0.0000    17.0000     8.0000     8.0000    17.0000     0.0000     0.0000   142.0306   -75.9388     0.0000    -4.2998    -2.9995    -1.8994    -0.6005     0.4003     1.8994     2.7994     3.8002    31.3400    22.1100    13.8400     6.4800    -5.6200   -10.4100   -14.3900   -16.8000     1.1205     4.7000     4.800
     11     0.0000    -0.0000     4.4000    -0.1000      4.681     56.000  11001.000      5.000    99.4809   141.5559   -76.8882     0.4200    -1.0000    28.0480     0.0000     0.0000    21.6400    43.3297    -1.0000    -1.5000     0.0000     0.0000     0.0000     0.0000    17.0000     8.0000     8.0000    17.0000     0.0000     0.0000   142.0306   -75.9388     0.0000    -4.2998    -2.9995    -1.8994    -0.6005     0.4003     1.8994     2.7994     3.8002    31.3400    22.1100    13.8400     6.4800    -5.6200   -10.4100   -14.3900   -16.8000     1.1180     4.7000     4.800
     12     0.0000    -0.0000     4.3900    -0.1000      4.764     48.000  11001.000      5.000    99.4809   141.5559   -76.8882     0.4200    -1.0000    28.0480     0.0000     0.0000    21.5850    43.2262    -1.0000    -1.5000     0.0000     0.0000     0.0000     0.0000    17.0000     8.0000     8.0000    17.0000     0.0000     0.0000   142.0306   -75.9388     0.0000    -4.2998    -2.9995    -1.8994    -0.6005     0.4003     1.8994     2.7994     3.8002    31.3400    22.1100    13.8400     6.4800    -5.6200   -10.4100   -14.3900   -16.8000     1.1154     4.7000     4.800
     13     0.0000    -0.0000     4.3800    -0.1000      4.755     55.000  11001.000      5.000    99.4809   141.5559   -76.8882     0.4200    -1.0000    28.0480     0.0000     0.0000    21.5325    43.1228    -1.0000    -1.5000     0.0000     0.0000     0.0000     0.0000    17.0000     8.0000     8.0000    17.0000     0.0000     0.0000   142.0306   -75.9388     0.0000    -4.2998    -2.9995    -1.8994    -0.6005     0.4003     1.8994     2.7994     3.8002    31.3400    22.1100    13.8400     6.4800    -5.6200   -10.4100   -14.3900   -16.8000     1.1129     4.7000     4.800
     14    -0.0000    -0.0000     4.3700    -0.1000      4.705     46.000  11001.000      5.000    99.4809   141.5559   -76.8882     0.4200    -1.0000    28.0480     0.0000     0.0000    21.4800    43.0194    -1.0000    -1.5000     0.0000     0.0000     0.0000     0.0000    17.0000     8.0000     8.0000    17.0000     0.0000     0.0000   142.0306   -75.9388     0.0000    -4.2998    -2.9995    -1.8994    -0.6005     0.4003     1.8994     2.7994     3.8002    31.3400    22.1100    13.8400     6.4800    -5.6200   -10.4100   -14.3900   -16.8000     1.1104     4.7000     4.800
     15     0.0000    -0.0000     4.3600    -0.1000      4.631     56.000  11001.000      5.000    99.4809   141.5559   -76.8882     0.4200    -1.0000    28.0480     0.0000     0.0000    21.4250    42.9161    -1.0000    -1.5000     0.0000     0.0000     0.0000     0.0000    17.0000     8.0000     8.0000    17.0000     0.0000     0.0000   142.0306   -75.9388     0.0000    -4.2998    -2.9995    -1.8994    -0.6005     0.4003     1.8994     2.7994     3.8002    31.3400    22.1100    13.8400     6.4800    -5.6200   -10.4100   -14.3900   -16.8000     1.1078     4.7000     4.800
     16    -0.0000    -0.0000     4.3500    -0.1000      4.681     44.000  11001.000      5.000    99.4809   141.5559   -76.8882     0.4200    -1.0000    28.0480     0.0000     0.0000    21.3750    42.8128    -1.0000    -1.5000     0.0000     0.0000     0.0000     0.0000    17.0000     8.0000     8.0000    17.0000     0.0000     0.0000   142.0306   -75.9388     0.0000    -4.2998    -2.9995    -1.8994    -0.6005     0.4003     1.8994     2.7994     3.8002    31.3400    22.1100    13.8400     6.4800    -5.6200   -10.4100   -14.3900   -16.8000     1.1053     4.7000     4.800
     17     0.0000    -0.0000     4.3400    -0.1000      4.691     48.000  11001.000      5.000    99.4809   141.5559   -76.8882     0.4200    -1.0000    28.0480     0.0000     0.0000    21.3175    42.7095    -1.0000    -1.5000     0.0000     0.0000     0.0000     0.0000    17.0000     8.0000     8.0000    17.0000     0.0000     0.0000   142.0306   -75.9388     0.0000    -4.2998    -2.9995    -1.8994    -0.6005     0.4003     1.8994     2.7994     3.8002    31.3400    22.1100    13.8400     6.4800    -5.6200   -10.4100   -14.3900   -16.8000     1.1027     4.7000     4.800
     18    -0.0000    -0.0000     4.3300    -0.1000      4.694     46.000  11001.000      5.000    99.4809   141.5559   -76.8882     0.4200    -1.0000    28.0480     0.0000     0.0000    21.2650    42.6063    -1.0000    -1.5000     0.0000     0.0000     0.0000     0.0000    17.0000     8.0000     8.0000    17.0000     0.0000     0.0000   142.0306   -75.9388     0.0000    -4.2998    -2.9995    -1.8994    -0.6005     0.4003     1.8994     2.7994     3.8002    31.3400    22.1100    13.8400     6.4800    -5.6200   -10.4100   -14.3900   -16.8000     1.1002     4.7000     4.800
     19    -0.0000    -0.0000     4.3200    -0.1000      4.714     40.000  11001.000      5.000    99.4809   141.5559   -76.8882     0.4200    -1.0000    28.0480     0.0000     0.0000    21.2125    42.5031    -1.0000    -1.5000     0.0000     0.0000     0.0000     0.0000    17.0000     8.0000     8.0000    17.0000     0.0000     0.0000   142.0306   -75.9388     0.0000    -4.2998    -2.9995    -1.8994    -0.6005     0.4003     1.8994     2.7994     3.8002    31.3400    22.1100    13.8400     6.4800    -5.6200   -10.4100   -14.3900   -16.8000     1.0977     4.7000     4.800
     20     0.0000    -0.0000     4.3100    -0.1000      4.676     57.000  11001.000      5.000    99.4809   141.5559   -76.8882     0.4200    -1.0000    28.0480     0.0000     0.0000    21.1550    42.3999    -1.0000    -1.5000     0.0000     0.0000     0.0000     0.0000    17.0000     8.0000     8.0000    17.0000     0.0000     0.0000   142.0306   -75.9388     0.0000    -4.2998    -2.9995    -1.8994    -0.6005     0.4003     1.8994     2.7994     3.8002    31.3400    22.1100    13.8400     6.4800    -5.6200   -10.4100   -14.3900   -16.8000     1.0951     4.7000     4.800
     21    -0.0000    -0.0000     4.3000    -0.1000      4.625     52.000  11001.000      5.000    99.4809   141.5559   -76.8882     0.4200    -1.0000    28.0480     0.0000     0.0000    21.1050    42.2968    -1.0000    -1.5000     0.0000     0.0000     0.0000     0.0000    17.0000     8.0000     8.0000    17.0000     0.0000     0.0000   142.0306   -75.9388     0.0000    -4.2998    -2.9995    -1.8994    -0.6005     0.4003     1.8994     2.7994     3.8002    31.3400    22.1100    13.8400     6.4800    -5.6200   -10.4100   -14.3900   -16.8000     1.0926     4.7000     4.800
     22     0.0000    -0.0000     4.2900    -0.1000      4.757     55.000  11001.000      5.000    99.4809   141.5559   -76.8882     0.4200    -1.0000    28.0480     0.0000     0.0000    21.0500    42.1937    -1.0000    -1.5000     0.0000     0.0000     0.0000     0.0000    17.0000     8.0000     8.0000    17.0000     0.0000     0.0000   142.0306   -75.9388     0.0000    -4.2998    -2.9995    -1.8994    -0.6005     0.4003     1.8994     2.7994     3.8002    31.3400    22.1100    13.8400     6.4800    -5.6200   -10.4100   -14.3900   -16.8000     1.0900     4.7000     4.800
     23    -0.0000    -0.0000     4.2800    -0.1000      4.697     58.000  11001.000      5.000    99.4809   141.5559   -76.8882     0.4200    -1.0000    28.0480     0.0000     0.0000    20.9975    42.0906    -1.0000    -1.5000     0.0000     0.0000     0.0000     0.0000    17.0000     8.0000     8.0000    17.0000     0.0000     0.0000   142.0306   -75.9388     0.0000    -4.2998    -2.9995    -1.8994    -0.6005     0.4003     1.8994     2.7994     3.8002    31.3400    22.1100    13.8400     6.4800    -5.6200   -10.4100   -14.3900   -16.8000     1.0875     4.7000     4.800
     24     0.0000    -0.0000     4.2700    -0.1000      4.657     46.000  11001.000      5.000    99.4809   141.5559   -76.8882     0.4200    -1.0000    28.0480     0.0000     0.0000    20.9425    41.9876    -1.0000    -1.5000     0.0000     0.0000     0.0000     0.0000    17.0000     8.0000     8.0000    17.0000     0.0000     0.0000   142.0306   -75.9388     0.0000    -4.2998    -2.9995    -1.8994    -0.6005     0.4003     1.8994     2.7994     3.8002    31.3400    22.1100    13.8400     6.4800    -5.6200   -10.4100   -14.3900   -16.8000     1.0850     4.7000     4.800
     25    -0.0000    -0.0000     4.2600    -0.1000      4.697     62.000  11001.000      5.000    99.4809   141.5559   -76.8882     0.4200    -1.0000    28.0480     0.0000     0.0000    20.8900    41.8846    -1.0000    -1.5000     0.0000     0.0000     0.0000     0.0000    17.0000     8.0000     8.0000    17.0000     0.0000     0.0000   142.0306   -75.9388     0.0000    -4.2998    -2.9995    -1.8994    -0.6005     0.4003     1.8994     2.7994     3.8002    31.3400    22.1100    13.8400     6.4800    -5.6200   -10.4100   -14.3900   -16.8000     1.0824     4.7000     4.800
     26     0.0000    -0.0000     4.2500    -0.1000      4.710     99.000  11001.000      5.000    99.4809   141.5559   -76.8882     0.4200    -1.0000    28.0480     0.0000     0.0000    20.8350    41.7817    -1.0000    -1.5000     0.0000     0.0000     0.0000     0.0000    17.0000     8.0000     8.0000    17.0000     0.0000     0.0000   142.0306   -75.9388     0.0000    -4.2998    -2.9995    -1.8994    -0.6005     0.4003     1.8994     2.7994     3.8002    31.3400    22.1100    13.8400     6.4800    -5.6200   -10.4100   -14.3900   -16.8000     1.0799     4.7000     4.800
     27    -0.0000    -0.0000     4.2400    -0.1000      4.649    210.000  11001.000      5.000    99.4809   141.5559   -76.8882     0.4200    -1.0000    28.0480     0.0000     0.0000    20.7825    41.6788    -1.0000    -1.5000     0.0000     0.0000     0.0000     0.0000    17.0000     8.0000     8.0000    17.0000     0.0000     0.0000   142.0306   -75.9388     0.0000    -4.2998    -2.9995    -1.8994    -0.6005     0.4003     1.8994     2.7994     3.8002    31.3400    22.1100    13.8400     6.4800    -5.6200   -10.4100   -14.3900   -16.8000     1.0773     4.7000     4.800
     28    -0.0000    -0.0000     4.2300    -0.1000      4.756    513.000  11001.000      5.000    99.4809   141.5559   -76.8882     0.4200    -1.0000    28.0480     0.0000     0.0000    20.7300    41.5759    -1.0000    -1.5000     0.0000     0.0000     0.0000     0.0000    17.0000     8.0000     8.0000    17.0000     0.0000     0.0000   142.0306   -75.9388     0.0000    -4.2998    -2.9995    -1.8994    -0.6005     0.4003     1.8994     2.7994     3.8002    31.3400    22.1100    13.8400     6.4800    -5.6200   -10.4100   -14.3900   -16.8000     1.0748     4.7000     4.800
     29     0.0000    -0.0000     4.2200    -0.1000      4.711   1084.000  11001.000      5.000    99.4809   141.5559   -76.8882     0.4200    -1.0000    28.0480     0.0000     0.0000    20.6750    41.4730    -1.0000    -1.5000     0.0000     0.0000     0.0000     0.0000    17.0000     8.0000     8.0000    17.0000     0.0000     0.0000   142.0306   -75.9388     0.0000    -4.2998    -2.9995    -1.8994    -0.6005     0.4003     1.8994     2.7994     3.8002    31.3400    22.1100    13.8400     6.4800    -5.6200   -10.4100   -14.3900   -16.8000     1.0722     4.7000     4.800
     30    -0.0000    -0.0000     4.2100    -0.1000      4.733   1722.000  11001.000      5.000    99.4809   141.5559   -76.8882     0.4200    -1.0000    28.0480     0.0000     0.0000    20.6225    41.3702    -1.0000    -1.5000     0.0000     0.0000     0.0000     0.0000    17.0000     8.0000     8.0000    17.0000     0.0000     0.0000   142.0306   -75.9388     0.0000    -4.2998    -2.9995    -1.8994    -0.6005     0.4003     1.8994     2.7994     3.8002    31.3400    22.1100    13.8400     6.4800    -5.6200   -10.4100   -14.3900   -16.8000     1.0697     4.7000     4.800
     31     0.0000    -0.0000     4.2000    -0.1000      4.718   1871.000  11001.000      5.000    99.4809   141.5559   -76.8882     0.4200    -1.0000    28.0480     0.0000     0.0000    20.5650    41.2674    -1.0000    -1.5000     0.0000     0.0000     0.0000     0.0000    17.0000     8.0000     8.0000    17.0000     0.0000     0.0000   142.0306   -75.9388     0.0000    -4.2998    -2.9995    -1.8994    -0.6005     0.4003     1.8994     2.7994     3.8002    31.3400    22.1100    13.8400     6.4800    -5.6200   -10.4100   -14.3900   -16.8000     1.0672     4.7000     4.800
     32    -0.0000    -0.0000     4.1900    -0.1000      4.706   1726.000  11001.000      5.000    99.4809   141.5559   -76.8882     0.4200    -1.0000    28.0480     0.0000     0.0000    20.5175    41.1647    -1.0000    -1.5000     0.0000     0.0000     0.0000     0.0000    17.0000     8.0000     8.0000    17.0000     0.0000     0.0000   142.0306   -75.9388     0.0000    -4.2998    -2.9995    -1.8994    -0.6005     0.4003     1.8994     2.7994     3.8002    31.3400    22.1100    13.8400     6.4800    -5.6200   -10.4100   -14.3900   -16.8000     1.0646     4.7000     4.800
     33     0.0000    -0.0000     4.1800    -0.1000      4.649   1136.000  11001.000      5.000    99.4809   141.5559   -76.8882     0.4200    -1.0000    28.0480     0.0000     0.0000    20.4600    41.0620    -1.0000    -1.5000     0.0000     0.0000     0.0000     0.0000    17.0000     8.0000     8.0000    17.0000     0.0000     0.0000   142.0306   -75.9388     0.0000    -4.2998    -2.9995    -1.8994    -0.6005     0.4003     1.8994     2.7994     3.8002    31.3400    22.1100    13.8400     6.4800    -5.6200   -10.4100   -14.3900   -16.8000     1.0621     4.7000     4.800
     34     0.0000    -0.0000     4.1700    -0.1000      4.663    844.000  11001.000      5.000    99.4809   141.5559   -76.8882     0.4200    -1.0000    28.0480     0.0000     0.0000    20.4050    40.9593    -1.0000    -1.5000     0.0000     0.0000     0.0000     0.0000    17.0000     8.0000     8.0000    17.0000     0.0000     0.0000   142.0306   -75.9388     0.0000    -4.2998    -2.9995    -1.8994    -0.6005     0.4003     1.8994     2.7994     3.8002    31.3400    22.1100    13.8400     6.4800    -5.6200   -10.4100   -14.3900   -16.8000     1.0595     4.7000     4.800
     35    -0.0000    -0.0000     4.1600    -0.1000      4.648    692.000  11001.000      5.000    99.4809   141.5559   -76.8882     0.4200    -1.0000    28.0480     0.0000     0.0000    20.3575    40.8567    -1.0000    -1.5000     0.0000     0.0000     0.0000     0.0000    17.0000     8.0000     8.0000    17.0000     0.0000     0.0000   142.0306   -75.9388     0.0000    -4.2998    -2.9995    -1.8994    -0.6005     0.4003     1.8994     2.7994     3.8002    31.3400    22.1100    13.8400     6.4800    -5.6200   -10.4100   -14.3900   -16.8000     1.0570     4.7000     4.800
     36     0.0000    -0.0000     4.1500    -0.1000      4.733    627.000  11001.000      5.000    99.4809   141.5559   -76.8882     0.4200    -1.0000    28.0480     0.0000     0.0000    20.3000    40.7541    -1.0000    -1.5000     0.0000     0.0000     0.0000     0.0000    17.0000     8.0000     8.0000    17.0000     0.0000     0.0000   142.0306   -75.9388     0.0000    -4.2998    -2.9995    -1.8994    -0.6005     0.4003     1.8994     2.7994     3.8002    31.3400    22.1100    13.8400     6.4800    -5.6200   -10.4100   -14.3900   -16.8000     1.0545     4.7000     4.800
     37    -0.0000    -0.0000     4.1400    -0.1000      4.686    549.000  11001.000      5.000    99.4809   141.5559   -76.8882     0.4200    -1.0000    28.0480     0.0000     0.0000    20.2475    40.6515    -1.0000    -1.5000     0.0000     0.0000     0.0000     0.0000    17.0000     8.0000     8.0000    17.0000     0.0000     0.0000   142.0306   -75.9388     0.0000    -4.2998    -2.9995    -1.8994    -0.6005     0.4003     1.8994     2.7994     3.8002    31.3400    22.1100    13.8400     6.4800    -5.6200   -10.4100   -14.3900   -16.8000     1.0519     4.7000     4.800
     38     0.0000    -0.0000     4.1300    -0.1000      4.707    466.000  11001.000      5.000    99.4809   141.5559   -76.8882     0.4200    -1.0000    28.0480     0.0000     0.0000    20.1925    40.5490    -1.0000    -1.5000     0.0000     0.0000     0.0000     0.0000    17.0000     8.0000     8.0000    17.0000     0.0000     0.0000   142.0306   -75.9388     0.0000    -4.2998    -2.9995    -1.8994    -0.6005     0.4003     1.8994     2.7994     3.8002    31.3400    22.1100    13.8400     6.4800    -5.6200   -10.4100   -14.3900   -16.8000     1.0494     4.7000     4.800
     39    -0.0000    -0.0000     4.1200    -0.1000      4.735    360.000  11001.000      5.000    99.4809   141.5559   -76.8882     0.4200    -1.0000    28.0480     0.0000     0.0000    20.1400    40.4465    -1.0000    -1.5000     0.0000     0.0000     0.0000     0.0000    17.0000     8.0000     8.0000    17.0000     0.0000     0.0000   142.0306   -75.9388     0.0000    -4.2998    -2.9995    -1.8994    -0.6005     0.4003     1.8994     2.7994     3.8002    31.3400    22.1100    13.8400     6.4800    -5.6200   -10.4100   -14.3900   -16.8000     1.0468     4.7000     4.800
     40     0.0000    -0.0000     4.1100    -0.1000      4.693    228.000  11001.000      5.000    99.4809   141.5559   -76.8882     0.4200    -1.0000    28.0480     0.0000     0.0000    20.0850    40.3440    -1.0000    -1.5000     0.0000     0.0000     0.0000     0.0000    17.0000     8.0000     8.0000    17.0000     0.0000     0.0000   142.0306   -75.9388     0.0000    -4.2998    -2.9995    -1.8994    -0.6005     0.4003     1.8994     2.7994     3.8002    31.3400    22.1100    13.8400     6.4800    -5.6200   -10.4100   -14.3900   -16.8000     1.0443     4.7000     4.800
     41    -0.0000    -0.0000     4.1000    -0.1000      4.668    147.000  11001.000      5.000    99.4809   141.5559   -76.8882     0.4200    -1.0000    28.0480     0.0000     0.0000    20.0350    40.2416    -1.0000    -1.5000     0.0000     0.0000     0.0000     0.0000    17.0000     8.0000     8.0000    17.0000     0.0000     0.0000   142.0306   -75.9388     0.0000    -4.2998    -2.9995    -1.8994    -0.6005     0.4003     1.8994     2.7994     3.8002    31.3400    22.1100    13.8400     6.4800    -5.6200   -10.4100   -14.3900   -16.8000     1.0418     4.7000     4.800
     42     0.0000    -0.0000     4.0900    -0.1000      4.666     89.000  11001.000      5.000    99.4809   141.5559   -76.8882     0.4200    -1.0000    28.0480     0.0000     0.0000    19.9775    40.1392    -1.0000    -1.5000     0.0000     0.0000     0.0000     0.0000    17.0000     8.0000     8.0000    17.0000     0.0000     0.0000   142.0306   -75.9388     0.0000    -4.2998    -2.9995    -1.8994    -0.6005     0.4003     1.8994     2.7994     3.8002    31.3400    22.1100    13.8400     6.4800    -5.6200   -10.4100   -14.3900   -16.8000     1.0392     4.7000     4.800
     43     0.0000    -0.0000     4.0800    -0.1000      4.707     79.000  11001.000      5.000    99.4809   141.5559   -76.8882     0.4200    -1.0000    28.0480     0.0000     0.0000    19.9250    40.0368    -1.0000    -1.5000     0.0000     0.0000     0.0000     0.0000    17.0000     8.0000     8.0000    17.0000     0.0000     0.0000   142.0306   -75.9388     0.0000    -4.2998    -2.9995    -1.8994    -0.6005     0.4003     1.8994     2.7994     3.8002    31.3400    22.1100    13.8400     6.4800    -5.6200   -10.4100   -14.3900   -16.8000     1.0367     4.7000     4.800
     44     0.0000    -0.0000     4.0700    -0.1000      4.696     62.000  11001.000      5.000    99.4809   141.5559   -76.8882     0.4200    -1.0000    28.0480     0.0000     0.0000    19.8700    39.9345    -1.0000    -1.5000     0.0000     0.0000     0.0000     0.0000    17.0000     8.0000     8.0000    17.0000     0.0000     0.0000   142.0306   -75.9388     0.0000    -4.2998    -2.9995    -1.8994    -0.6005     0.4003     1.8994     2.7994     3.8002    31.3400    22.1100    13.8400     6.4800    -5.6200   -10.4100   -14.3900   -16.8000     1.0341     4.7000     4.800
     45    -0.0000    -0.0000     4.0600    -0.1000      4.710     59.000  11001.000      5.000    99.4809   141.5559   -76.8882     0.4200    -1.0000    28.0480     0.0000     0.0000    19.8225    39.8322    -1.0000    -1.5000     0.0000     0.0000     0.0000     0.0000    17.0000     8.0000     8.0000    17.0000     0.0000     0.0000   142.0306   -75.9388     0.0000    -4.2998    -2.9995    -1.8994    -0.6005     0.4003     1.8994     2.7994     3.8002    31.3400    22.1100    13.8400     6.4800    -5.6200   -10.4100   -14.3900   -16.8000     1.0316     4.7000     4.800
     46     0.0000    -0.0000     4.0500    -0.1000      4.603     52.000  11001.000      5.000    99.4809   141.5559   -76.8882     0.4200    -1.0000    28.0480     0.0000     0.0000    19.7650    39.7299    -1.0000    -1.5000     0.0000     0.0000     0.0000     0.0000    17.0000     8.0000     8.0000    17.0000     0.0000     0.0000   142.0306   -75.9388     0.0000    -4.2998    -2.9995    -1.8994    -0.6005     0.4003     1.8994     2.7994     3.8002    31.3400    22.1100    13.8400     6.4800    -5.6200   -10.4100   -14.3900   -16.8000     1.0291     4.7000     4.800
     47    -0.0000    -0.0000     4.0400    -0.1000      4.739     49.000  11001.000      5.000    99.4809   141.5559   -76.8882     0.4200    -1.0000    28.0480     0.0000     0.0000    19.7125    39.6277    -1.0000    -1.5000     0.0000     0.0000     0.0000     0.0000    17.0000     8.0000     8.0000    17.0000     0.0000     0.0000   142.0306   -75.9388     0.0000    -4.2998    -2.9995    -1.8994    -0.6005     0.4003     1.8994     2.7994     3.8002    31.3400    22.1100    13.8400     6.4800    -5.6200   -10.4100   -14.3900   -16.8000     1.0265     4.7000     4.800
     48     0.0000    -0.0000     4.0300    -0.1000      4.802     60.000  11001.000      5.000    99.4809   141.5559   -76.8882     0.4200    -1.0000    28.0480     0.0000     0.0000    19.6575    39.5254    -1.0000    -1.5000     0.0000     0.0000     0.0000     0.0000    17.0000     8.0000     8.0000    17.0000     0.0000     0.0000   142.0306   -75.9388     0.0000    -4.2998    -2.9995    -1.8994    -0.6005     0.4003     1.8994     2.7994     3.8002    31.3400    22.1100    13.8400     6.4800    -5.6200   -10.4100   -14.3900   -16.8000     1.0240     4.7000     4.800
     49     0.0000    -0.0000     4.0200    -0.1000      4.689     64.000  11001.000      5.000    99.4809   141.5559   -76.8882     0.4200    -1.0000    28.0480     0.0000     0.0000    19.6050    39.4233    -1.0000    -1.5000     0.0000     0.0000     0.0000     0.0000    17.0000     8.0000     8.0000    17.0000     0.0000     0.0000   142.0306   -75.9388     0.0000    -4.2998    -2.9995    -1.8994    -0.6005     0.4003     1.8994     2.7994     3.8002    31.3400    22.1100    13.8400     6.4800    -5.6200   -10.4100   -14.3900   -16.8000     1.0214     4.7000     4.800
     50    -0.0000    -0.0000     4.0100    -0.1000      4.689     53.000  11001.000      5.000    99.4809   141.5559   -76.8882     0.4200    -1.0000    28.0480     0.0000     0.0000    19.5525    39.3212    -1.0000    -1.5000     0.0000     0.0000     0.0000     0.0000    17.0000     8.0000     8.0000    17.0000     0.0000     0.0000   142.0306   -75.9388     0.0000    -4.2998    -2.9995    -1.8994    -0.6005     0.4003     1.8994     2.7994     3.8002    31.3400    22.1100    13.8400     6.4800    -5.6200   -10.4100   -14.3900   -16.8000     1.0189     4.7000     4.800
     51    -0.0000    -0.0000     4.0000    -0.1000      4.661     53.000  11001.000      5.000    99.4809   141.5559   -76.8882     0.4200    -1.0000    28.0480     0.0000     0.0000    19.5000    39.2190    -1.0000    -1.5000     0.0000     0.0000     0.0000     0.0000    17.0000     8.0000     8.0000    17.0000     0.0000     0.0000   142.0306   -75.9388     0.0000    -4.2998    -2.9995    -1.8994    -0.6005     0.4003     1.8994     2.7994     3.8002    31.3400    22.1100    13.8400     6.4800    -5.6200   -10.4100   -14.3900   -16.8000     1.0163     4.7000     4.800
     52    -0.0000    -0.0000     3.9900    -0.1000      4.708     57.000  11001.000      5.000    99.4809   141.5559   -76.8882     0.4200    -1.0000    28.0480     0.0000     0.0000    19.4450    39.1170    -1.0000    -1.5000     0.0000     0.0000     0.0000     0.0000    17.0000     8.0000     8.0000    17.0000     0.0000     0.0000   142.0306   -75.9388     0.0000    -4.2998    -2.9995    -1.8994    -0.6005     0.4003     1.8994     2.7994     3.8002    31.3400    22.1100    13.8400     6.4800    -5.6200   -10.4100   -14.3900   -16.8000     1.0138     4.7000     4.800
     53    -0.0000    -0.0000     3.9800    -0.1000      4.655     54.000  11001.000      5.000    99.4809   141.5559   -76.8882     0.4200    -1.0000    28.0480     0.0000     0.0000    19.3925    39.0149    -1.0000    -1.5000     0.0000     0.0000     0.0000     0.0000    17.0000     8.0000     8.0000    17.0000     0.0000     0.0000   142.0306   -75.9388     0.0000    -4.2998    -2.9995    -1.8994    -0.6005     0.4003     1.8994     2.7994     3.8002    31.3400    22.1100    13.8400     6.4800    -5.6200   -10.4100   -14.3900   -16.8000     1.0113     4.7000     4.800
     54     0.0000    -0.0000     3.9700    -0.1000      4.745     59.000  11001.000      5.000    99.4809   141.5559   -76.8882     0.4200    -1.0000    28.0480     0.0000     0.0000    19.3375    38.9129    -1.0000    -1.5000     0.0000     0.0000     0.0000     0.0000    17.0000     8.0000     8.0000    17.0000     0.0000     0.0000   142.0306   -75.9388     0.0000    -4.2998    -2.9995    -1.8994    -0.6005     0.4003     1.8994     2.7994     3.8002    31.3400    22.1100    13.8400     6.4800    -5.6200   -10.4100   -14.3900   -16.8000     1.0087     4.7000     4.800
     55     0.0001    -0.0000     3.9600    -0.1000      4.677     65.000  11001.000      5.000    99.4809   141.5559   -76.8882     0.4200    -1.0000    28.0480     0.0000     0.0000    19.2800    38.8110    -1.0000    -1.5000     0.0000     0.0000     0.0000     0.0000    17.0000     8.0000     8.0000    17.0000     0.0000     0.0000   142.0306   -75.9388     0.0000    -4.2998    -2.9995    -1.8994    -0.6005     0.4003     1.8994     2.7994     3.8002    31.3400    22.1100    13.8400     6.4800    -5.6200   -10.4100   -14.3900   -16.8000     1.0062     4.7000     4.800
     56    -0.0000    -0.0000     3.9500    -0.1000      4.641     50.000  11001.000      5.000    99.4809   141.5559   -76.8882     0.4200    -1.0000    28.0480     0.0000     0.0000    19.2350    38.7090    -1.0000    -1.5000     0.0000     0.0000     0.0000     0.0000    17.0000     8.0000     8.0000    17.0000     0.0000     0.0000   142.0306   -75.9388     0.0000    -4.2998    -2.9995    -1.8994    -0.6005     0.4003     1.8994     2.7994     3.8002    31.3400    22.1100    13.8400     6.4800    -5.6200   -10.4100   -14.3900   -16.8000     1.0036     4.7000     4.800
     57    -0.0000    -0.0000     3.9400    -0.1000      4.725     43.000  11001.000      5.000    99.4809   141.5559   -76.8882     0.4200    -1.0000    28.0480     0.0000     0.0000    19.1800    38.6071    -1.0000    -1.5000     0.0000     0.0000     0.0000     0.0000    17.0000     8.0000     8.0000    17.0000     0.0000     0.0000   142.0306   -75.9388     0.0000    -4.2998    -2.9995    -1.8994    -0.6005     0.4003     1.8994     2.7994     3.8002    31.3400    22.1100    13.8400     6.4800    -5.6200   -10.4100   -14.3900   -16.8000     1.0011     4.7000     4.800
     58    -0.0000    -0.0000     3.9300    -0.1000      4.677     62.000  11001.000      5.000    99.4809   141.5559   -76.8882     0.4200    -1.0000    28.0480     0.0000     0.0000    19.1250    38.5052    -1.0000    -1.5000     0.0000     0.0000     0.0000     0.0000    17.0000     8.0000     8.0000    17.0000     0.0000     0.0000   142.0306   -75.9388     0.0000    -4.2998    -2.9995    -1.8994    -0.6005     0.4003     1.8994     2.7994     3.8002    31.3400    22.1100    13.8400     6.4800    -5.6200   -10.4100   -14.3900   -16.8000     0.9986     4.7000     4.800
     59     0.0000    -0.0000     3.9200    -0.1000      4.651     55.000  11001.000      5.000    99.4809   141.5559   -76.8882     0.4200    -1.0000    28.0480     0.0000     0.0000    19.0700    38.4034    -1.0000    -1.5000     0.0000     0.0000     0.0000     0.0000    17.0000     8.0000     8.0000    17.0000     0.0000     0.0000   142.0306   -75.9388     0.0000    -4.2998    -2.9995    -1.8994    -0.6005     0.4003     1.8994     2.7994     3.8002    31.3400    22.1100    13.8400     6.4800    -5.6200   -10.4100   -14.3900   -16.8000     0.9960     4.7000     4.800
     60    -0.0000    -0.0000     3.9100    -0.1000      4.674     53.000  11001.000      5.000    99.4809   141.5559   -76.8882     0.4200    -1.0000    28.0480     0.0000     0.0000    19.0200    38.3015    -1.0000    -1.5000     0.0000     0.0000     0.0000     0.0000    17.0000     8.0000     8.0000    17.0000     0.0000     0.0000   142.0306   -75.9388     0.0000    -4.2998    -2.9995    -1.8994    -0.6005     0.4003     1.8994     2.7994     3.8002    31.3400    22.1100    13.8400     6.4800    -5.6200   -10.4100   -14.3900   -16.8000     0.9935     4.7000     4.800
     61     0.0000    -0.0000     3.9000    -0.1000      4.733     47.000  11001.000      5.000    99.4809   141.5559   -76.8882     0.4200    -1.0000    28.0480     0.0000     0.0000    18.9625    38.1998    -1.0000    -1.5000     0.0000     0.0000     0.0000     0.0000    17.0000     8.0000     8.0000    17.0000     0.0000     0.0000   142.0306   -75.9388     0.0000    -4.2998    -2.9995    -1.8994    -0.6005     0.4003     1.8994     2.7994     3.8002    31.3400    22.1100    13.8400     6.4800    -5.6200   -10.4100   -14.3900   -16.8000     0.9909     4.7000     4.800
     62     0.0000    -0.0000     3.8900    -0.1000      4.639     53.000  11001.000      5.000    99.4809   141.5559   -76.8882     0.4200    -1.0000    28.0480     0.0000     0.0000    18.9100    38.0980    -1.0000    -1.5000     0.0000     0.0000     0.0000     0.0000    17.0000     8.0000     8.0000    17.0000     0.0000     0.0000   142.0306   -75.9388     0.0000    -4.2998    -2.9995    -1.8994    -0.6005     0.4003     1.8994     2.7994     3.8002    31.3400    22.1100    13.8400     6.4800    -5.6200   -10.4100   -14.3900   -16.8000     0.9884     4.7000     4.800
     63    -0.0000    -0.0000     3.8800    -0.1000      4.690     56.000  11001.000      5.000    99.4809   141.5559   -76.8882     0.4200    -1.0000    28.0480     0.0000     0.0000    18.8575    37.9963    -1.0000    -1.5000     0.0000     0.0000     0.0000     0.0000    17.0000     8.0000     8.0000    17.0000     0.0000     0.0000   142.0306   -75.9388     0.0000    -4.2998    -2.9995    -1.8994    -0.6005     0.4003     1.8994     2.7994     3.8002    31.3400    22.1100    13.8400     6.4800    -5.6200   -10.4100   -14.3900   -16.8000     0.9859     4.7000     4.800
     64    -0.0000    -0.0000     3.8700    -0.1000      4.710     54.000  11001.000      5.000    99.4809   141.5559   -76.8882     0.4200    -1.0000    28.0480     0.0000     0.0000    18.8050    37.8946    -1.0000    -1.5000     0.0000     0.0000     0.0000     0.0000    17.0000     8.0000     8.0000    17.0000     0.0000     0.0000   142.0306   -75.9388     0.0000    -4.2998    -2.9995    -1.8994    -0.6005     0.4003     1.8994     2.7994     3.8002    31.3400    22.1100    13.8400     6.4800    -5.6200   -10.4100   -14.3900   -16.8000     0.9833     4.7000     4.800
     65     0.0000    -0.0000     3.8600    -0.1000      4.701     65.000  11001.000      5.000    99.4809   141.5559   -76.8882     0.4200    -1.0000    28.0480     0.0000     0.0000    18.7500    37.7929    -1.0000    -1.5000     0.0000     0.0000     0.0000     0.0000    17.0000     8.0000     8.0000    17.0000     0.0000     0.0000   142.0306   -75.9388     0.0000    -4.2998    -2.9995    -1.8994    -0.6005     0.4003     1.8994     2.7994     3.8002    31.3400    22.1100    13.8400     6.4800    -5.6200   -10.4100   -14.3900   -16.8000     0.9808     4.7000     4.800
     66    -0.0000    -0.0000     3.8500    -0.1000      4.759     62.000  11001.000      5.000    99.4809   141.5559   -76.8882     0.4200    -1.0000    28.0480     0.0000     0.0000    18.6975    37.6913    -1.0000    -1.5000     0.0000     0.0000     0.0000     0.0000    17.0000     8.0000     8.0000    17.0000     0.0000     0.0000   142.0306   -75.9388     0.0000    -4.2998    -2.9995    -1.8994    -0.6005     0.4003     1.8994     2.7994     3.8002    31.3400    22.1100    13.8400     6.4800    -5.6200   -10.4100   -14.3900   -16.8000     0.9782     4.7000     4.800
     67    -0.0000    -0.0000     3.8400    -0.1000      4.643     35.000  11001.000      5.000    99.4809   141.5559   -76.8882     0.4200    -1.0000    28.0480     0.0000     0.0000    18.6450    37.5897    -1.0000    -1.5000     0.0000     0.0000     0.0000     0.0000    17.0000     8.0000     8.0000    17.0000     0.0000     0.0000   142.0306   -75.9388     0.0000    -4.2998    -2.9995    -1.8994    -0.6005     0.4003     1.8994     2.7994     3.8002    31.3400    22.1100    13.8400     6.4800    -5.6200   -10.4100   -14.3900   -16.8000     0.9757     4.7000     4.800
     68     0.0000    -0.0000     3.8300    -0.1000      4.691     53.000  11001.000      5.000    99.4809   141.5559   -76.8882     0.4200    -1.0000    28.0480     0.0000     0.0000    18.5900    37.4881    -1.0000    -1.5000     0.0000     0.0000     0.0000     0.0000    17.0000     8.0000     8.0000    17.0000     0.0000     0.0000   142.0306   -75.9388     0.0000    -4.2998    -2.9995    -1.8994    -0.6005     0.4003     1.8994     2.7994     3.8002    31.3400    22.1100    13.8400     6.4800    -5.6200   -10.4100   -14.3900   -16.8000     0.9732     4.7000     4.800
     69     0.0000    -0.0000     3.8200    -0.1000      4.789     61.000  11001.000      5.000    99.4809   141.5559   -76.8882     0.4200    -1.0000    28.0480     0.0000     0.0000    18.5350    37.3866    -1.0000    -1.5000     0.0000     0.0000     0.0000     0.0000    17.0000     8.0000     8.0000    17.0000     0.0000     0.0000   142.0306   -75.9388     0.0000    -4.2998    -2.9995    -1.8994    -0.6005     0.4003     1.8994     2.7994     3.8002    31.3400    22.1100    13.8400     6.4800    -5.6200   -10.4100   -14.3900   -16.8000     0.9706     4.7000     4.800
     70    -0.0000    -0.0000     3.8100    -0.1000      4.697     48.000  11001.000      5.000    99.4809   141.5559   -76.8882     0.4200    -1.0000    28.0480     0.0000     0.0000    18.4850    37.2850    -1.0000    -1.5000     0.0000     0.0000     0.0000     0.0000    17.0000     8.0000     8.0000    17.0000     0.0000     0.0000   142.0306   -75.9388     0.0000    -4.2998    -2.9995    -1.8994    -0.6005     0.4003     1.8994     2.7994     3.8002    31.3400    22.1100    13.8400     6.4800    -5.6200   -10.4100   -14.3900   -16.8000     0.9681     4.7000     4.800
     71     0.0000    -0.0000     3.8000    -0.1000      4.653     53.000  11001.000      5.000    99.4809   141.5559   -76.8882     0.4200    -1.0000    28.0480     0.0000     0.0000    18.4300    37.1836    -1.0000    -1.5000     0.0000     0.0000     0.0000     0.0000    17.0000     8.0000     8.0000    17.0000     0.0000     0.0000   142.0306   -75.9388     0.0000    -4.2998    -2.9995    -1.8994    -0.6005     0.4003     1.8994     2.7994     3.8002    31.3400    22.1100    13.8400     6.4800    -5.6200   -10.4100   -14.3900   -16.8000     0.9655     4.7000     4.800
     72    -0.0000    -0.0000     3.7900    -0.1000      4.667     61.000  11001.000      5.000    99.4809   141.5559   -76.8882     0.4200    -1.0000    28.0480     0.0000     0.0000    18.3800    37.0821    -1.0000    -1.5000     0.0000     0.0000     0.0000     0.0000    17.0000     8.0000     8.0000    17.0000     0.0000     0.0000   142.0306   -75.9388     0.0000    -4.2998    -2.9995    -1.8994    -0.6005     0.4003     1.8994     2.7994     3.8002    31.3400    22.1100    13.8400     6.4800    -5.6200   -10.4100   -14.3900   -16.8000     0.9630     4.7000     4.800
     73    -0.0000    -0.0000     3.7800    -0.1000      4.647     64.000  11001.000      5.000    99.4809   141.5559   -76.8882     0.4200    -1.0000    28.0480     0.0000     0.0000    18.3250    36.9807    -1.0000    -1.5000     0.0000     0.0000     0.0000     0.0000    17.0000     8.0000     8.0000    17.0000     0.0000     0.0000   142.0306   -75.9388     0.0000    -4.2998    -2.9995    -1.8994    -0.6005     0.4003     1.8994     2.7994     3.8002    31.3400    22.1100    13.8400     6.4800    -5.6200   -10.4100   -14.3900   -16.8000     0.9604     4.7000     4.800
     74     0.0000    -0.0000     3.7700    -0.1000      4.603     59.000  11001.000      5.000    99.4809   141.5559   -76.8882     0.4200    -1.0000    28.0480     0.0000     0.0000    18.2700    36.8793    -1.0000    -1.5000     0.0000     0.0000     0.0000     0.0000    17.0000     8.0000     8.0000    17.0000     0.0000     0.0000   142.0306   -75.9388     0.0000    -4.2998    -2.9995    -1.8994    -0.6005     0.4003     1.8994     2.7994     3.8002    31.3400    22.1100    13.8400     6.4800    -5.6200   -10.4100   -14.3900   -16.8000     0.9579     4.7000     4.800
     75    -0.0000    -0.0000     3.7600    -0.1000      4.656     49.000  11001.000      5.000    99.4809   141.5559   -76.8882     0.4200    -1.0000    28.0480     0.0000     0.0000    18.2175    36.7780    -1.0000    -1.5000     0.0000     0.0000     0.0000     0.0000    17.0000     8.0000     8.0000    17.0000     0.0000     0.0000   142.0306   -75.9388     0.0000    -4.2998    -2.9995    -1.8994    -0.6005     0.4003     1.8994     2.7994     3.8002    31.3400    22.1100    13.8400     6.4800    -5.6200   -10.4100   -14.3900   -16.8000     0.9554     4.7000     4.800
     76     0.0000    -0.0000     3.7500    -0.1000      4.671     51.000  11001.000      5.000    99.4809   141.5559   -76.8882     0.4200    -1.0000    28.0480     0.0000     0.0000    18.1625    36.6766    -1.0000    -1.5000     0.0000     0.0000     0.0000     0.0000    17.0000     8.0000     8.0000    17.0000     0.0000     0.0000   142.0306   -75.9388     0.0000    -4.2998    -2.9995    -1.8994    -0.6005     0.4003     1.8994     2.7994     3.8002    31.3400    22.1100    13.8400     6.4800    -5.6200   -10.4100   -14.3900   -16.8000     0.9528     4.7000     4.800
     77     0.0000    -0.0000     3.7400    -0.1000      4.659     53.000  11001.000      5.000    99.4809   141.5559   -76.8882     0.4200    -1.0000    28.0480     0.0000     0.0000    18.1100    36.5753    -1.0000    -1.5000     0.0000     0.0000     0.0000     0.0000    17.0000     8.0000     8.0000    17.0000     0.0000     0.0000   142.0306   -75.9388     0.0000    -4.2998    -2.9995    -1.8994    -0.6005     0.4003     1.8994     2.7994     3.8002    31.3400    22.1100    13.8400     6.4800    -5.6200   -10.4100   -14.3900   -16.8000     0.9503     4.7000     4.800
     78    -0.0000    -0.0000     3.7300    -0.1000      4.688     62.000  11001.000      5.000    99.4809   141.5559   -76.8882     0.4200    -1.0000    28.0480     0.0000     0.0000    18.0575    36.4740    -1.0000    -1.5000     0.0000     0.0000     0.0000     0.0000    17.0000     8.0000     8.0000    17.0000     0.0000     0.0000   142.0306   -75.9388     0.0000    -4.2998    -2.9995    -1.8994    -0.6005     0.4003     1.8994     2.7994     3.8002    31.3400    22.1100    13.8400     6.4800    -5.6200   -10.4100   -14.3900   -16.8000     0.9477     4.7000     4.800
     79    -0.0000    -0.0000     3.7200    -0.1000      4.710     51.000  11001.000      5.000    99.4809   141.5559   -76.8882     0.4200    -1.0000    28.0480     0.0000     0.0000    18.0050    36.3728    -1.0000    -1.5000     0.0000     0.0000     0.0000     0.0000    17.0000     8.0000     8.0000    17.0000     0.0000     0.0000   142.0306   -75.9388     0.0000    -4.2998    -2.9995    -1.8994    -0.6005     0.4003     1.8994     2.7994     3.8002    31.3400    22.1100    13.8400     6.4800    -5.6200   -10.4100   -14.3900   -16.8000     0.9452     4.7000     4.800
     80     0.0000    -0.0000     3.7100    -0.1000      4.724     55.000  11001.000      5.000    99.4809   141.5559   -76.8882     0.4200    -1.0000    28.0480     0.0000     0.0000    17.9500    36.2716    -1.0000    -1.5000     0.0000     0.0000     0.0000     0.0000    17.0000     8.0000     8.0000    17.0000     0.0000     0.0000   142.0306   -75.9388     0.0000    -4.2998    -2.9995    -1.8994    -0.6005     0.4003     1.8994     2.7994     3.8002    31.3400    22.1100    13.8400     6.4800    -5.6200   -10.4100   -14.3900   -16.8000     0.9427     4.7000     4.800
     81     0.0000    -0.0000     3.7000    -0.1000      4.733     60.000  11001.000      5.000    99.4809   141.5559   -76.8882     0.4200    -1.0000    28.0480     0.0000     0.0000    17.8950    36.1704    -1.0000    -1.5000     0.0000     0.0000     0.0000     0.0000    17.0000     8.0000     8.0000    17.0000     0.0000     0.0000   142.0306   -75.9388     0.0000    -4.2998    -2.9995    -1.8994    -0.6005     0.4003     1.8994     2.7994     3.8002    31.3400    22.1100    13.8400     6.4800    -5.6200   -10.4100   -14.3900   -16.8000     0.9401     4.7000     4.800
     82    -0.0000    -0.0000     3.6900    -0.1000      4.674     55.000  11001.000      5.000    99.4809   141.5559   -76.8882     0.4200    -1.0000    28.0480     0.0000     0.0000    17.8450    36.0693    -1.0000    -1.5000     0.0000     0.0000     0.0000     0.0000    17.0000     8.0000     8.0000    17.0000     0.0000     0.0000   142.0306   -75.9388     0.0000    -4.2998    -2.9995    -1.8994    -0.6005     0.4003     1.8994     2.7994     3.8002    31.3400    22.1100    13.8400     6.4800    -5.6200   -10.4100   -14.3900   -16.8000     0.9376     4.7000     4.800
     83     0.0000    -0.0000     3.6800    -0.1000      4.662     48.000  11001.000      5.000    99.4809   141.5559   -76.8882     0.4200    -1.0000    28.0480     0.0000     0.0000    17.7900    35.9682    -1.0000    -1.5000     0.0000     0.0000     0.0000     0.0000    17.0000     8.0000     8.0000    17.0000     0.0000     0.0000   142.0306   -75.9388     0.0000    -4.2998    -2.9995    -1.8994    -0.6005     0.4003     1.8994     2.7994     3.8002    31.3400    22.1100    13.8400     6.4800    -5.6200   -10.4100   -14.3900   -16.8000     0.9350     4.7000     4.800
     84    -0.0000    -0.0000     3.6700    -0.1000      4.705     50.000  11001.000      5.000    99.4809   141.5559   -76.8882     0.4200    -1.0000    28.0480     0.0000     0.0000    17.7375    35.8670    -1.0000    -1.5000     0.0000     0.0000     0.0000     0.0000    17.0000     8.0000     8.0000    17.0000     0.0000     0.0000   142.0306   -75.9388     0.0000    -4.2998    -2.9995    -1.8994    -0.6005     0.4003     1.8994     2.7994     3.8002    31.3400    22.1100    13.8400     6.4800    -5.6200   -10.4100   -14.3900   -16.8000     0.9325     4.7000     4.800
     85     0.0000    -0.0000     3.6600    -0.1000      4.703     55.000  11001.000      5.000    99.4809   141.5559   -76.8882     0.4200    -1.0000    28.0480     0.0000     0.0000    17.6825    35.7660    -1.0000    -1.5000     0.0000     0.0000     0.0000     0.0000    17.0000     8.0000     8.0000    17.0000     0.0000     0.0000   142.0306   -75.9388     0.0000    -4.2998    -2.9995    -1.8994    -0.6005     0.4003     1.8994     2.7994     3.8002    31.3400    22.1100    13.8400     6.4800    -5.6200   -10.4100   -14.3900   -16.8000     0.9300     4.7000     4.800
     86     0.0000    -0.0000     3.6500    -0.1000      4.688     66.000  11001.000      5.000    99.4809   141.5559   -76.8882     0.4200    -1.0000    28.0480     0.0000     0.0000    17.6300    35.6650    -1.0000    -1.5000     0.0000     0.0000     0.0000     0.0000    17.0000     8.0000     8.0000    17.0000     0.0000     0.0000   142.0306   -75.9388     0.0000    -4.2998    -2.9995    -1.8994    -0.6005     0.4003     1.8994     2.7994     3.8002    31.3400    22.1100    13.8400     6.4800    -5.6200   -10.4100   -14.3900   -16.8000     0.9274     4.7000     4.800
     87    -0.0000    -0.0000     3.6400    -0.1000      4.694     36.000  11001.000      5.000    99.4809   141.5559   -76.8882     0.4200    -1.0000    28.0480     0.0000     0.0000    17.5775    35.5639    -1.0000    -1.5000     0.0000     0.0000     0.0000     0.0000    17.0000     8.0000     8.0000    17.0000     0.0000     0.0000   142.0306   -75.9388     0.0000    -4.2998    -2.9995    -1.8994    -0.6005     0.4003     1.8994     2.7994     3.8002    31.3400    22.1100    13.8400     6.4800    -5.6200   -10.4100   -14.3900   -16.8000     0.9249     4.7000     4.800
     88    -0.0000    -0.0000     3.6300    -0.1000      4.688     64.000  11001.000      5.000    99.4809   141.5559   -76.8882     0.4200    -1.0000    28.0480     0.0000     0.0000    17.5250    35.4630    -1.0000    -1.5000     0.0000     0.0000     0.0000     0.0000    17.0000     8.0000     8.0000    17.0000     0.0000     0.0000   142.0306   -75.9388     0.0000    -4.2998    -2.9995    -1.8994    -0.6005     0.4003     1.8994     2.7994     3.8002    31.3400    22.1100    13.8400     6.4800    -5.6200   -10.4100   -14.3900   -16.8000     0.9223     4.7000     4.800
     89     0.0000    -0.0000     3.6200    -0.1000      4.629     50.000  11001.000      5.000    99.4809   141.5559   -76.8882     0.4200    -1.0000    28.0480     0.0000     0.0000    17.4700    35.3620    -1.0000    -1.5000     0.0000     0.0000     0.0000     0.0000    17.0000     8.0000     8.0000    17.0000     0.0000     0.0000   142.0306   -75.9388     0.0000    -4.2998    -2.9995    -1.8994    -0.6005     0.4003     1.8994     2.7994     3.8002    31.3400    22.1100    13.8400     6.4800    -5.6200   -10.4100   -14.3900   -16.8000     0.9198     4.7000     4.800
     90     0.0000    -0.0000     3.6100    -0.1000      4.659     54.000  11001.000      5.000    99.4809   141.5559   -76.8882     0.4200    -1.0000    28.0480     0.0000     0.0000    17.4150    35.2611    -1.0000    -1.5000     0.0000     0.0000     0.0000     0.0000    17.0000     8.0000     8.0000    17.0000     0.0000     0.0000   142.0306   -75.9388     0.0000    -4.2998    -2.9995    -1.8994    -0.6005     0.4003     1.8994     2.7994     3.8002    31.3400    22.1100    13.8400     6.4800    -5.6200   -10.4100   -14.3900   -16.8000     0.9173     4.7000     4.800
     91    -0.0000    -0.0000     3.6000    -0.1000      4.755     56.000  11001.000      5.000    99.4809   141.5559   -76.8882     0.4200    -1.0000    28.0480     0.0000     0.0000    17.3650    35.1602    -1.0000    -1.5000     0.0000     0.0000     0.0000     0.0000    17.0000     8.0000     8.0000    17.0000     0.0000     0.0000   142.0306   -75.9388     0.0000    -4.2998    -2.9995    -1.8994    -0.6005     0.4003     1.8994     2.7994     3.8002    31.3400    22.1100    13.8400     6.4800    -5.6200   -10.4100   -14.3900   -16.8000     0.9147     4.7000     4.800
     92     0.0000    -0.0000     3.5900    -0.1000      4.579     46.000  11001.000      5.000    99.4809   141.5559   -76.8882     0.4200    -1.0000    28.0480     0.0000     0.0000    17.3100    35.0593    -1.0000    -1.5000     0.0000     0.0000     0.0000     0.0000    17.0000     8.0000     8.0000    17.0000     0.0000     0.0000   142.0306   -75.9388     0.0000    -4.2998    -2.9995    -1.8994    -0.6005     0.4003     1.8994     2.7994     3.8002    31.3400    22.1100    13.8400     6.4800    -5.6200   -10.4100   -14.3900   -16.8000     0.9122     4.7000     4.800
     93     0.0000    -0.0000     3.5800    -0.1000      4.746     44.000  11001.000      5.000    99.4809   141.5559   -76.8882     0.4200    -1.0000    28.0480     0.0000     0.0000    17.2550    34.9585    -1.0000    -1.5000     0.0000     0.0000     0.0000     0.0000    17.0000     8.0000     8.0000    17.0000     0.0000     0.0000   142.0306   -75.9388     0.0000    -4.2998    -2.9995    -1.8994    -0.6005     0.4003     1.8994     2.7994     3.8002    31.3400    22.1100    13.8400     6.4800    -5.6200   -10.4100   -14.3900   -16.8000     0.9096     4.7000     4.800
     94    -0.0000    -0.0000     3.5700    -0.1000      4.697     49.000  11001.000      5.000    99.4809   141.5559   -76.8882     0.4200    -1.0000    28.0480     0.0000     0.0000    17.2050    34.8576    -1.0000    -1.5000     0.0000     0.0000     0.0000     0.0000    17.0000     8.0000     8.0000    17.0000     0.0000     0.0000   142.0306   -75.9388     0.0000    -4.2998    -2.9995    -1.8994    -0.6005     0.4003     1.8994     2.7994     3.8002    31.3400    22.1100    13.8400     6.4800    -5.6200   -10.4100   -14.3900   -16.8000     0.9071     4.7000     4.800
     95     0.0000    -0.0000     3.5600    -0.1000      4.655     47.000  11001.000      5.000    99.4809   141.5559   -76.8882     0.4200    -1.0000    28.0480     0.0000     0.0000    17.1500    34.7569    -1.0000    -1.5000     0.0000     0.0000     0.0000     0.0000    17.0000     8.0000     8.0000    17.0000     0.0000     0.0000   142.0306   -75.9388     0.0000    -4.2998    -2.9995    -1.8994    -0.6005     0.4003     1.8994     2.7994     3.8002    31.3400    22.1100    13.8400     6.4800    -5.6200   -10.4100   -14.3900   -16.8000     0.9046     4.7000     4.800
     96    -0.0000    -0.0000     3.5500    -0.1000      4.726     40.000  11001.000      5.000    99.4809   141.5559   -76.8882     0.4200    -1.0000    28.0480     0.0000     0.0000    17.0975    34.6561    -1.0000    -1.5000     0.0000     0.0000     0.0000     0.0000    17.0000     8.0000     8.0000    17.0000     0.0000     0.0000   142.0306   -75.9388     0.0000    -4.2998    -2.9995    -1.8994    -0.6005     0.4003     1.8994     2.7994     3.8002    31.3400    22.1100    13.8400     6.4800    -5.6200   -10.4100   -14.3900   -16.8000     0.9020     4.7000     4.800
     97     0.0000    -0.0000     3.5400    -0.1000      4.651     59.000  11001.000      5.000    99.4809   141.5559   -76.8882     0.4200    -1.0000    28.0480     0.0000     0.0000    17.0425    34.5554    -1.0000    -1.5000     0.0000     0.0000     0.0000     0.0000    17.0000     8.0000     8.0000    17.0000     0.0000     0.0000   142.0306   -75.9388     0.0000    -4.2998    -2.9995    -1.8994    -0.6005     0.4003     1.8994     2.7994     3.8002    31.3400    22.1100    13.8400     6.4800    -5.6200   -10.4100   -14.3900   -16.8000     0.8995     4.7000     4.800
     98    -0.0000    -0.0000     3.5300    -0.1000      4.691     48.000  11001.000      5.000    99.4809   141.5559   -76.8882     0.4200    -1.0000    28.0480     0.0000     0.0000    16.9900    34.4547    -1.0000    -1.5000     0.0000     0.0000     0.0000     0.0000    17.0000     8.0000     8.0000    17.0000     0.0000     0.0000   142.0306   -75.9388     0.0000    -4.2998    -2.9995    -1.8994    -0.6005     0.4003     1.8994     2.7994     3.8002    31.3400    22.1100    13.8400     6.4800    -5.6200   -10.4100   -14.3900   -16.8000     0.8969     4.7000     4.800
     99    -0.0000    -0.0000     3.5200    -0.1000      4.696     49.000  11001.000      5.000    99.4809   141.5559   -76.8882     0.4200    -1.0000    28.0480     0.0000     0.0000    16.9375    34.3540    -1.0000    -1.5000     0.0000     0.0000     0.0000     0.0000    17.0000     8.0000     8.0000    17.0000     0.0000     0.0000   142.0306   -75.9388     0.0000    -4.2998    -2.9995    -1.8994    -0.6005     0.4003     1.8994     2.7994     3.8002    31.3400    22.1100    13.8400     6.4800    -5.6200   -10.4100   -14.3900   -16.8000     0.8944     4.7000     4.800
    100    -0.0000    -0.0000     3.5100    -0.1000      4.648     41.000  11001.000      5.000    99.4809   141.5559   -76.8882     0.4200    -1.0000    28.0480     0.0000     0.0000    16.8850    34.2534    -1.0000    -1.5000     0.0000     0.0000     0.0000     0.0000    17.0000     8.0000     8.0000    17.0000     0.0000     0.0000   142.0306   -75.9388     0.0000    -4.2998    -2.9995    -1.8994    -0.6005     0.4003     1.8994     2.7994     3.8002    31.3400    22.1100    13.8400     6.4800    -5.6200   -10.4100   -14.3900   -16.8000     0.8918     4.7000     4.800
    101    -0.0000    -0.0000     3.5000    -0.1000      4.661     52.000  11001.000      5.000    99.4809   141.5559   -76.8882     0.4200    -1.0000    28.0480     0.0000     0.0000    16.8300    34.1527    -1.0000    -1.5000     0.0000     0.0000     0.0000     0.0000    17.0000     8.0000     8.0000    17.0000     0.0000     0.0000   142.0306   -75.9388     0.0000    -4.2998    -2.9995    -1.8994    -0.6005     0.4003     1.8994     2.7994     3.8002    31.3400    22.1100    13.8400     6.4800    -5.6200   -10.4100   -14.3900   -16.8000     0.8893     4.7000     4.800
# Sum of Counts = 16826
# Center of Mass = 4.125929+/-0.045005
# Full Width Half-Maximum = 0.370089+/-0.009830
# 7:42:41 AM  3/13/2025   scan completed.
