# scan = 180
# date = 3/12/2025
# time = 1:41:10 AM
# proposal = 35030
# experiment = CTAX Instrumental resolution benchmarking
# experiment_number = 445
# command = scan h 1 k 0 l 6 e -0.2 0.2 0.01 preset mcu 2
# builtin_command = scan h 1 k 0 l 6 e -0.2 0.2 0.01 preset mcu 2
# users = Tao Hong, Tao Hong, Bing Li
# local_contact = Tao Hong
# scan_title = (106) scans-hori-focusing
# monochromator = PG002
# analyzer = Pg002
# sense = -+-
# collimation = 48-40-40-120
# samplename = LaN
# sampletype = crystal
# samplemosaic = 30.000000
# latticeconstants = 5.058628,5.058628,24.728465,90.000000,90.000000,120.000000
# ubmatrix = -0.002928,0.001986,-0.040430,-0.228168,-0.119258,0.000500,-0.005924,0.194622,0.000719
# mode = 0
# plane_normal = 0.017452,-0.026173,0.999505
# ubconf = UB10Mar2025_114214AM.ini
# preset_type = normal 
# preset_channel = mcu
# preset_value = 2.000000
# def_x = e
# def_y = detector
# col_headers = 
#   Pt.          h          k          l          e       time   detector    monitor        mcu focal_length         m1         m2       marc     mtrans     mfocus   vti_temp  smpl_temp         s1         s2        sgl        sgu        bbb        bbl        bbr        bbt        bab        bal        bar        bat        stl        stu         a1         a2     afocus        qm1        qm2        qm3        qm4        qm5        qm6        qm7        qm8        xm1        xm2        xm3        xm4        xm5        xm6        xm7        xm8          q         ei         ef
      1     1.0000     0.0000     5.9998    -0.2000      1.867      3.000   4401.000      2.000   100.5558   141.0625   -77.8750     0.4200    -1.0000    27.8400     0.0000     0.0000     0.8700    88.0384    -1.0000    -1.5000     0.0000     0.0000     0.0000     0.0000    17.0000     8.0000     8.0000    17.0000     0.0000     0.0000   142.0306   -75.9388     0.0000    -4.2998    -2.9995    -1.8994    -0.6005     0.4003     1.8994     2.7994     3.8002    31.3400    22.1100    13.8400     6.4800    -5.6200   -10.4100   -14.3900   -16.8000     2.0931     4.6000     4.800
      2     1.0000     0.0000     5.9999    -0.1900      1.891      4.000   4401.000      2.000   100.4515   141.1127   -77.7746     0.4200    -1.0000    27.8600     0.0000     0.0000     0.8725    87.9796    -1.0000    -1.5000     0.0000     0.0000     0.0000     0.0000    17.0000     8.0000     8.0000    17.0000     0.0000     0.0000   142.0306   -75.9388     0.0000    -4.2998    -2.9995    -1.8994    -0.6005     0.4003     1.8994     2.7994     3.8002    31.3400    22.1100    13.8400     6.4800    -5.6200   -10.4100   -14.3900   -16.8000     2.0931     4.6100     4.800
      3     1.0000    -0.0000     6.0002    -0.1800      1.874      5.000   4401.000      2.000   100.3473   141.1627   -77.6746     0.4200    -1.0000    27.8800     0.0000     0.0000     0.8775    87.9209    -1.0000    -1.5000     0.0000     0.0000     0.0000     0.0000    17.0000     8.0000     8.0000    17.0000     0.0000     0.0000   142.0306   -75.9388     0.0000    -4.2998    -2.9995    -1.8994    -0.6005     0.4003     1.8994     2.7994     3.8002    31.3400    22.1100    13.8400     6.4800    -5.6200   -10.4100   -14.3900   -16.8000     2.0931     4.6200     4.800
      4     0.9999     0.0000     6.0004    -0.1700      1.875     13.000   4401.000      2.000   100.2226   141.2125   -77.5749     0.4200    -1.0000    27.9040     0.0000     0.0000     0.8825    87.8624    -1.0000    -1.5000     0.0000     0.0000     0.0000     0.0000    17.0000     8.0000     8.0000    17.0000     0.0000     0.0000   142.0306   -75.9388     0.0000    -4.2998    -2.9995    -1.8994    -0.6005     0.4003     1.8994     2.7994     3.8002    31.3400    22.1100    13.8400     6.4800    -5.6200   -10.4100   -14.3900   -16.8000     2.0931     4.6300     4.800
      5     1.0000     0.0000     5.9999    -0.1600      1.843      7.000   4401.000      2.000   100.1190   141.2622   -77.4757     0.4200    -1.0000    27.9240     0.0000     0.0000     0.8800    87.8039    -1.0000    -1.5000     0.0000     0.0000     0.0000     0.0000    17.0000     8.0000     8.0000    17.0000     0.0000     0.0000   142.0306   -75.9388     0.0000    -4.2998    -2.9995    -1.8994    -0.6005     0.4003     1.8994     2.7994     3.8002    31.3400    22.1100    13.8400     6.4800    -5.6200   -10.4100   -14.3900   -16.8000     2.0931     4.6400     4.800
      6     1.0000     0.0000     6.0000    -0.1500      1.889     10.000   4401.000      2.000   100.0155   141.3116   -77.3768     0.4200    -1.0000    27.9440     0.0000     0.0000     0.8825    87.7456    -1.0000    -1.5000     0.0000     0.0000     0.0000     0.0000    17.0000     8.0000     8.0000    17.0000     0.0000     0.0000   142.0306   -75.9388     0.0000    -4.2998    -2.9995    -1.8994    -0.6005     0.4003     1.8994     2.7994     3.8002    31.3400    22.1100    13.8400     6.4800    -5.6200   -10.4100   -14.3900   -16.8000     2.0931     4.6500     4.800
      7     1.0000    -0.0000     6.0000    -0.1400      1.893     12.000   4401.000      2.000    99.9123   141.3608   -77.2783     0.4200    -1.0000    27.9640     0.0000     0.0000     0.8850    87.6874    -1.0000    -1.5000     0.0000     0.0000     0.0000     0.0000    17.0000     8.0000     8.0000    17.0000     0.0000     0.0000   142.0306   -75.9388     0.0000    -4.2998    -2.9995    -1.8994    -0.6005     0.4003     1.8994     2.7994     3.8002    31.3400    22.1100    13.8400     6.4800    -5.6200   -10.4100   -14.3900   -16.8000     2.0931     4.6600     4.800
      8     1.0000     0.0000     6.0002    -0.1300      1.921     12.000   4401.000      2.000    99.8092   141.4099   -77.1802     0.4200    -1.0000    27.9840     0.0000     0.0000     0.8900    87.6293    -1.0000    -1.5000     0.0000     0.0000     0.0000     0.0000    17.0000     8.0000     8.0000    17.0000     0.0000     0.0000   142.0306   -75.9388     0.0000    -4.2998    -2.9995    -1.8994    -0.6005     0.4003     1.8994     2.7994     3.8002    31.3400    22.1100    13.8400     6.4800    -5.6200   -10.4100   -14.3900   -16.8000     2.0931     4.6700     4.800
      9     1.0000     0.0000     6.0000    -0.1200      1.882     15.000   4401.000      2.000    99.6859   141.4588   -77.0825     0.4200    -1.0000    28.0080     0.0000     0.0000     0.8900    87.5714    -1.0000    -1.5000     0.0000     0.0000     0.0000     0.0000    17.0000     8.0000     8.0000    17.0000     0.0000     0.0000   142.0306   -75.9388     0.0000    -4.2998    -2.9995    -1.8994    -0.6005     0.4003     1.8994     2.7994     3.8002    31.3400    22.1100    13.8400     6.4800    -5.6200   -10.4100   -14.3900   -16.8000     2.0931     4.6800     4.800
     10     1.0000     0.0000     6.0002    -0.1100      1.863     19.000   4401.000      2.000    99.5833   141.5074   -76.9852     0.4200    -1.0000    28.0280     0.0000     0.0000     0.8950    87.5135    -1.0000    -1.5000     0.0000     0.0000     0.0000     0.0000    17.0000     8.0000     8.0000    17.0000     0.0000     0.0000   142.0306   -75.9388     0.0000    -4.2998    -2.9995    -1.8994    -0.6005     0.4003     1.8994     2.7994     3.8002    31.3400    22.1100    13.8400     6.4800    -5.6200   -10.4100   -14.3900   -16.8000     2.0931     4.6900     4.800
     11     1.0000    -0.0000     6.0002    -0.1000      1.928     15.000   4401.000      2.000    99.4809   141.5559   -76.8882     0.4200    -1.0000    28.0480     0.0000     0.0000     0.8975    87.4558    -1.0000    -1.5000     0.0000     0.0000     0.0000     0.0000    17.0000     8.0000     8.0000    17.0000     0.0000     0.0000   142.0306   -75.9388     0.0000    -4.2998    -2.9995    -1.8994    -0.6005     0.4003     1.8994     2.7994     3.8002    31.3400    22.1100    13.8400     6.4800    -5.6200   -10.4100   -14.3900   -16.8000     2.0931     4.7000     4.800
     12     1.0000    -0.0000     6.0001    -0.0900      1.818     15.000   4401.000      2.000    99.3788   141.6042   -76.7916     0.4200    -1.0000    28.0680     0.0000     0.0000     0.9000    87.3982    -1.0000    -1.5000     0.0000     0.0000     0.0000     0.0000    17.0000     8.0000     8.0000    17.0000     0.0000     0.0000   142.0306   -75.9388     0.0000    -4.2998    -2.9995    -1.8994    -0.6005     0.4003     1.8994     2.7994     3.8002    31.3400    22.1100    13.8400     6.4800    -5.6200   -10.4100   -14.3900   -16.8000     2.0931     4.7100     4.800
     13     1.0000    -0.0000     5.9999    -0.0800      1.883     24.000   4401.000      2.000    99.2768   141.6523   -76.6954     0.4200    -1.0000    28.0880     0.0000     0.0000     0.9000    87.3407    -1.0000    -1.5000     0.0000     0.0000     0.0000     0.0000    17.0000     8.0000     8.0000    17.0000     0.0000     0.0000   142.0306   -75.9388     0.0000    -4.2998    -2.9995    -1.8994    -0.6005     0.4003     1.8994     2.7994     3.8002    31.3400    22.1100    13.8400     6.4800    -5.6200   -10.4100   -14.3900   -16.8000     2.0931     4.7200     4.800
     14     1.0000    -0.0000     6.0001    -0.0700      1.848     20.000   4401.000      2.000    99.1548   141.7002   -76.5995     0.4200    -1.0000    28.1120     0.0000     0.0000     0.9050    87.2833    -1.0000    -1.5000     0.0000     0.0000     0.0000     0.0000    17.0000     8.0000     8.0000    17.0000     0.0000     0.0000   142.0306   -75.9388     0.0000    -4.2998    -2.9995    -1.8994    -0.6005     0.4003     1.8994     2.7994     3.8002    31.3400    22.1100    13.8400     6.4800    -5.6200   -10.4100   -14.3900   -16.8000     2.0931     4.7300     4.800
     15     1.0000     0.0000     6.0000    -0.0600      1.894     41.000   4401.000      2.000    99.0533   141.7480   -76.5041     0.4200    -1.0000    28.1320     0.0000     0.0000     0.9075    87.2261    -1.0000    -1.5000     0.0000     0.0000     0.0000     0.0000    17.0000     8.0000     8.0000    17.0000     0.0000     0.0000   142.0306   -75.9388     0.0000    -4.2998    -2.9995    -1.8994    -0.6005     0.4003     1.8994     2.7994     3.8002    31.3400    22.1100    13.8400     6.4800    -5.6200   -10.4100   -14.3900   -16.8000     2.0931     4.7400     4.800
     16     1.0000     0.0000     6.0000    -0.0500      1.889     81.000   4401.000      2.000    98.9520   141.7955   -76.4090     0.4200    -1.0000    28.1520     0.0000     0.0000     0.9100    87.1689    -1.0000    -1.5000     0.0000     0.0000     0.0000     0.0000    17.0000     8.0000     8.0000    17.0000     0.0000     0.0000   142.0306   -75.9388     0.0000    -4.2998    -2.9995    -1.8994    -0.6005     0.4003     1.8994     2.7994     3.8002    31.3400    22.1100    13.8400     6.4800    -5.6200   -10.4100   -14.3900   -16.8000     2.0931     4.7500     4.800
     17     1.0000     0.0000     5.9999    -0.0400      1.867    164.000   4401.000      2.000    98.8510   141.8429   -76.3142     0.4200    -1.0000    28.1720     0.0000     0.0000     0.9125    87.1119    -1.0000    -1.5000     0.0000     0.0000     0.0000     0.0000    17.0000     8.0000     8.0000    17.0000     0.0000     0.0000   142.0306   -75.9388     0.0000    -4.2998    -2.9995    -1.8994    -0.6005     0.4003     1.8994     2.7994     3.8002    31.3400    22.1100    13.8400     6.4800    -5.6200   -10.4100   -14.3900   -16.8000     2.0931     4.7600     4.800
     18     1.0000     0.0000     6.0001    -0.0300      1.802    263.000   4401.000      2.000    98.7501   141.8901   -76.2198     0.4200    -1.0000    28.1920     0.0000     0.0000     0.9175    87.0550    -1.0000    -1.5000     0.0000     0.0000     0.0000     0.0000    17.0000     8.0000     8.0000    17.0000     0.0000     0.0000   142.0306   -75.9388     0.0000    -4.2998    -2.9995    -1.8994    -0.6005     0.4003     1.8994     2.7994     3.8002    31.3400    22.1100    13.8400     6.4800    -5.6200   -10.4100   -14.3900   -16.8000     2.0931     4.7700     4.800
     19     1.0000     0.0000     6.0001    -0.0200      1.894    424.000   4401.000      2.000    98.6495   141.9371   -76.1258     0.4200    -1.0000    28.2120     0.0000     0.0000     0.9200    86.9982    -1.0000    -1.5000     0.0000     0.0000     0.0000     0.0000    17.0000     8.0000     8.0000    17.0000     0.0000     0.0000   142.0306   -75.9388     0.0000    -4.2998    -2.9995    -1.8994    -0.6005     0.4003     1.8994     2.7994     3.8002    31.3400    22.1100    13.8400     6.4800    -5.6200   -10.4100   -14.3900   -16.8000     2.0931     4.7800     4.800
     20     1.0000    -0.0000     6.0000    -0.0100      1.881    532.000   4401.000      2.000    98.5490   141.9840   -76.0321     0.4200    -1.0000    28.2320     0.0000     0.0000     0.9225    86.9415    -1.0000    -1.5000     0.0000     0.0000     0.0000     0.0000    17.0000     8.0000     8.0000    17.0000     0.0000     0.0000   142.0306   -75.9388     0.0000    -4.2998    -2.9995    -1.8994    -0.6005     0.4003     1.8994     2.7994     3.8002    31.3400    22.1100    13.8400     6.4800    -5.6200   -10.4100   -14.3900   -16.8000     2.0931     4.7900     4.800
     21     1.0000     0.0000     5.9999     0.0000      1.846    655.000   4401.000      2.000    98.4288   142.0306   -75.9387     0.4200    -1.0000    28.2560     0.0000     0.0000     0.9250    86.8849    -1.0000    -1.5000     0.0000     0.0000     0.0000     0.0000    17.0000     8.0000     8.0000    17.0000     0.0000     0.0000   142.0306   -75.9388     0.0000    -4.2998    -2.9995    -1.8994    -0.6005     0.4003     1.8994     2.7994     3.8002    31.3400    22.1100    13.8400     6.4800    -5.6200   -10.4100   -14.3900   -16.8000     2.0931     4.8000     4.800
     22     1.0000     0.0000     6.0001     0.0100      1.869    680.000   4401.000      2.000    98.3288   142.0771   -75.8458     0.4200    -1.0000    28.2760     0.0000     0.0000     0.9300    86.8284    -1.0000    -1.5000     0.0000     0.0000     0.0000     0.0000    17.0000     8.0000     8.0000    17.0000     0.0000     0.0000   142.0306   -75.9388     0.0000    -4.2998    -2.9995    -1.8994    -0.6005     0.4003     1.8994     2.7994     3.8002    31.3400    22.1100    13.8400     6.4800    -5.6200   -10.4100   -14.3900   -16.8000     2.0931     4.8100     4.800
     23     1.0000     0.0000     6.0000     0.0200      1.850    595.000   4401.000      2.000    98.2290   142.1234   -75.7531     0.4200    -1.0000    28.2960     0.0000     0.0000     0.9325    86.7721    -1.0000    -1.5000     0.0000     0.0000     0.0000     0.0000    17.0000     8.0000     8.0000    17.0000     0.0000     0.0000   142.0306   -75.9388     0.0000    -4.2998    -2.9995    -1.8994    -0.6005     0.4003     1.8994     2.7994     3.8002    31.3400    22.1100    13.8400     6.4800    -5.6200   -10.4100   -14.3900   -16.8000     2.0931     4.8200     4.800
     24     1.0000     0.0000     5.9999     0.0300      1.927    483.000   4401.000      2.000    98.1294   142.1696   -75.6608     0.4200    -1.0000    28.3160     0.0000     0.0000     0.9350    86.7158    -1.0000    -1.5000     0.0000     0.0000     0.0000     0.0000    17.0000     8.0000     8.0000    17.0000     0.0000     0.0000   142.0306   -75.9388     0.0000    -4.2998    -2.9995    -1.8994    -0.6005     0.4003     1.8994     2.7994     3.8002    31.3400    22.1100    13.8400     6.4800    -5.6200   -10.4100   -14.3900   -16.8000     2.0931     4.8300     4.800
     25     1.0000    -0.0000     6.0001     0.0400      1.932    342.000   4401.000      2.000    98.0300   142.2156   -75.5689     0.4200    -1.0000    28.3360     0.0000     0.0000     0.9400    86.6597    -1.0000    -1.5000     0.0000     0.0000     0.0000     0.0000    17.0000     8.0000     8.0000    17.0000     0.0000     0.0000   142.0306   -75.9388     0.0000    -4.2998    -2.9995    -1.8994    -0.6005     0.4003     1.8994     2.7994     3.8002    31.3400    22.1100    13.8400     6.4800    -5.6200   -10.4100   -14.3900   -16.8000     2.0931     4.8400     4.800
     26     1.0000     0.0000     6.0000     0.0500      1.863    162.000   4401.000      2.000    97.9308   142.2614   -75.4773     0.4200    -1.0000    28.3560     0.0000     0.0000     0.9425    86.6037    -1.0000    -1.5000     0.0000     0.0000     0.0000     0.0000    17.0000     8.0000     8.0000    17.0000     0.0000     0.0000   142.0306   -75.9388     0.0000    -4.2998    -2.9995    -1.8994    -0.6005     0.4003     1.8994     2.7994     3.8002    31.3400    22.1100    13.8400     6.4800    -5.6200   -10.4100   -14.3900   -16.8000     2.0931     4.8500     4.800
     27     1.0000     0.0000     6.0001     0.0600      1.856    100.000   4401.000      2.000    97.8318   142.3070   -75.3860     0.4200    -1.0000    28.3760     0.0000     0.0000     0.9475    86.5478    -1.0000    -1.5000     0.0000     0.0000     0.0000     0.0000    17.0000     8.0000     8.0000    17.0000     0.0000     0.0000   142.0306   -75.9388     0.0000    -4.2998    -2.9995    -1.8994    -0.6005     0.4003     1.8994     2.7994     3.8002    31.3400    22.1100    13.8400     6.4800    -5.6200   -10.4100   -14.3900   -16.8000     2.0931     4.8600     4.800
     28     1.0000    -0.0000     5.9998     0.0700      1.916     57.000   4401.000      2.000    97.7330   142.3524   -75.2951     0.4200    -1.0000    28.3960     0.0000     0.0000     0.9475    86.4919    -1.0000    -1.5000     0.0000     0.0000     0.0000     0.0000    17.0000     8.0000     8.0000    17.0000     0.0000     0.0000   142.0306   -75.9388     0.0000    -4.2998    -2.9995    -1.8994    -0.6005     0.4003     1.8994     2.7994     3.8002    31.3400    22.1100    13.8400     6.4800    -5.6200   -10.4100   -14.3900   -16.8000     2.0931     4.8700     4.800
     29     1.0000    -0.0000     6.0002     0.0800      1.938     30.000   4401.000      2.000    97.6344   142.3978   -75.2045     0.4200    -1.0000    28.4160     0.0000     0.0000     0.9550    86.4362    -1.0000    -1.5000     0.0000     0.0000     0.0000     0.0000    17.0000     8.0000     8.0000    17.0000     0.0000     0.0000   142.0306   -75.9388     0.0000    -4.2998    -2.9995    -1.8994    -0.6005     0.4003     1.8994     2.7994     3.8002    31.3400    22.1100    13.8400     6.4800    -5.6200   -10.4100   -14.3900   -16.8000     2.0931     4.8800     4.800
     30     0.9999    -0.0000     6.0003     0.0900      1.936     11.000   4401.000      2.000    97.5360   142.4429   -75.1142     0.4200    -1.0000    28.4360     0.0000     0.0000     0.9600    86.3806    -1.0000    -1.5000     0.0000     0.0000     0.0000     0.0000    17.0000     8.0000     8.0000    17.0000     0.0000     0.0000   142.0306   -75.9388     0.0000    -4.2998    -2.9995    -1.8994    -0.6005     0.4003     1.8994     2.7994     3.8002    31.3400    22.1100    13.8400     6.4800    -5.6200   -10.4100   -14.3900   -16.8000     2.0931     4.8900     4.800
     31     1.0000     0.0000     5.9999     0.1000      1.968     12.000   4401.000      2.000    97.4378   142.4878   -75.0243     0.4200    -1.0000    28.4560     0.0000     0.0000     0.9600    86.3252    -1.0000    -1.5000     0.0000     0.0000     0.0000     0.0000    17.0000     8.0000     8.0000    17.0000     0.0000     0.0000   142.0306   -75.9388     0.0000    -4.2998    -2.9995    -1.8994    -0.6005     0.4003     1.8994     2.7994     3.8002    31.3400    22.1100    13.8400     6.4800    -5.6200   -10.4100   -14.3900   -16.8000     2.0931     4.9000     4.800
     32     1.0000    -0.0000     6.0001     0.1100      1.981     12.000   4401.000      2.000    97.3203   142.5326   -74.9347     0.4200    -1.0000    28.4800     0.0000     0.0000     0.9650    86.2698    -1.0000    -1.5000     0.0000     0.0000     0.0000     0.0000    17.0000     8.0000     8.0000    17.0000     0.0000     0.0000   142.0306   -75.9388     0.0000    -4.2998    -2.9995    -1.8994    -0.6005     0.4003     1.8994     2.7994     3.8002    31.3400    22.1100    13.8400     6.4800    -5.6200   -10.4100   -14.3900   -16.8000     2.0931     4.9100     4.800
     33     1.0000     0.0000     6.0002     0.1200      1.981      3.000   4401.000      2.000    97.2225   142.5773   -74.8455     0.4200    -1.0000    28.5000     0.0000     0.0000     0.9700    86.2145    -1.0000    -1.5000     0.0000     0.0000     0.0000     0.0000    17.0000     8.0000     8.0000    17.0000     0.0000     0.0000   142.0306   -75.9388     0.0000    -4.2998    -2.9995    -1.8994    -0.6005     0.4003     1.8994     2.7994     3.8002    31.3400    22.1100    13.8400     6.4800    -5.6200   -10.4100   -14.3900   -16.8000     2.0931     4.9200     4.800
     34     1.0000     0.0000     6.0000     0.1300      1.971      9.000   4401.000      2.000    97.1249   142.6218   -74.7565     0.4200    -1.0000    28.5200     0.0000     0.0000     0.9725    86.1593    -1.0000    -1.5000     0.0000     0.0000     0.0000     0.0000    17.0000     8.0000     8.0000    17.0000     0.0000     0.0000   142.0306   -75.9388     0.0000    -4.2998    -2.9995    -1.8994    -0.6005     0.4003     1.8994     2.7994     3.8002    31.3400    22.1100    13.8400     6.4800    -5.6200   -10.4100   -14.3900   -16.8000     2.0931     4.9300     4.800
     35     1.0000    -0.0000     5.9999     0.1400      2.073     17.000   4401.000      2.000    97.0276   142.6660   -74.6679     0.4200    -1.0000    28.5400     0.0000     0.0000     0.9750    86.1042    -1.0000    -1.5000     0.0000     0.0000     0.0000     0.0000    17.0000     8.0000     8.0000    17.0000     0.0000     0.0000   142.0306   -75.9388     0.0000    -4.2998    -2.9995    -1.8994    -0.6005     0.4003     1.8994     2.7994     3.8002    31.3400    22.1100    13.8400     6.4800    -5.6200   -10.4100   -14.3900   -16.8000     2.0931     4.9400     4.800
     36     1.0000    -0.0000     6.0002     0.1500      2.043      4.000   4401.000      2.000    96.9304   142.7102   -74.5796     0.4200    -1.0000    28.5600     0.0000     0.0000     0.9825    86.0493    -1.0000    -1.5000     0.0000     0.0000     0.0000     0.0000    17.0000     8.0000     8.0000    17.0000     0.0000     0.0000   142.0306   -75.9388     0.0000    -4.2998    -2.9995    -1.8994    -0.6005     0.4003     1.8994     2.7994     3.8002    31.3400    22.1100    13.8400     6.4800    -5.6200   -10.4100   -14.3900   -16.8000     2.0931     4.9500     4.800
     37     1.0000     0.0000     6.0001     0.1600      2.105      2.000   4401.000      2.000    96.8334   142.7542   -74.4916     0.4200    -1.0000    28.5800     0.0000     0.0000     0.9850    85.9944    -1.0000    -1.5000     0.0000     0.0000     0.0000     0.0000    17.0000     8.0000     8.0000    17.0000     0.0000     0.0000   142.0306   -75.9388     0.0000    -4.2998    -2.9995    -1.8994    -0.6005     0.4003     1.8994     2.7994     3.8002    31.3400    22.1100    13.8400     6.4800    -5.6200   -10.4100   -14.3900   -16.8000     2.0931     4.9600     4.800
     38     1.0000    -0.0000     6.0002     0.1700      2.040      4.000   4401.000      2.000    96.7366   142.7980   -74.4039     0.4200    -1.0000    28.6000     0.0000     0.0000     0.9900    85.9396    -1.0000    -1.5000     0.0000     0.0000     0.0000     0.0000    17.0000     8.0000     8.0000    17.0000     0.0000     0.0000   142.0306   -75.9388     0.0000    -4.2998    -2.9995    -1.8994    -0.6005     0.4003     1.8994     2.7994     3.8002    31.3400    22.1100    13.8400     6.4800    -5.6200   -10.4100   -14.3900   -16.8000     2.0931     4.9700     4.800
     39     1.0000     0.0000     6.0000     0.1800      2.017      7.000   4401.000      2.000    96.6400   142.8417   -74.3166     0.4200    -1.0000    28.6200     0.0000     0.0000     0.9925    85.8850    -1.0000    -1.5000     0.0000     0.0000     0.0000     0.0000    17.0000     8.0000     8.0000    17.0000     0.0000     0.0000   142.0306   -75.9388     0.0000    -4.2998    -2.9995    -1.8994    -0.6005     0.4003     1.8994     2.7994     3.8002    31.3400    22.1100    13.8400     6.4800    -5.6200   -10.4100   -14.3900   -16.8000     2.0931     4.9800     4.800
     40     1.0000     0.0000     5.9999     0.1900      2.084      1.000   4401.000      2.000    96.5436   142.8852   -74.2295     0.4200    -1.0000    28.6400     0.0000     0.0000     0.9950    85.8304    -1.0000    -1.5000     0.0000     0.0000     0.0000     0.0000    17.0000     8.0000     8.0000    17.0000     0.0000     0.0000   142.0306   -75.9388     0.0000    -4.2998    -2.9995    -1.8994    -0.6005     0.4003     1.8994     2.7994     3.8002    31.3400    22.1100    13.8400     6.4800    -5.6200   -10.4100   -14.3900   -16.8000     2.0931     4.9900     4.800
     41     1.0000     0.0000     6.0002     0.2000      2.085      2.000   4401.000      2.000    96.4474   142.9286   -74.1428     0.4200    -1.0000    28.6600     0.0000     0.0000     1.0025    85.7760    -1.0000    -1.5000     0.0000     0.0000     0.0000     0.0000    17.0000     8.0000     8.0000    17.0000     0.0000     0.0000   142.0306   -75.9388     0.0000    -4.2998    -2.9995    -1.8994    -0.6005     0.4003     1.8994     2.7994     3.8002    31.3400    22.1100    13.8400     6.4800    -5.6200   -10.4100   -14.3900   -16.8000     2.0931     5.0000     4.800
# Sum of Counts = 4867
# Center of Mass = 0.004742+/-0.000574
# Full Width Half-Maximum = 0.078942+/-0.001719
# 1:46:39 AM  3/12/2025   scan completed.
