# scan = 261
# date = 3/13/2025
# time = 6:58:08 AM
# proposal = 35030
# experiment = CTAX Instrumental resolution benchmarking
# experiment_number = 445
# command = scan h 0 k 0 l 4.5 3.5 0.01 e -0.2 preset mcu 5
# builtin_command = scan h 0 k 0 l 4.5 3.5 0.01 e -0.2 preset mcu 5
# users = Tao Hong, Tao Hong, Bing Li
# local_contact = Tao Hong
# scan_title = (00L) scan at E=-0.2 meV and hori-focusing
# monochromator = PG002
# analyzer = Pg002
# sense = -+-
# collimation = 48-40-40-120
# samplename = LaN
# sampletype = crystal
# samplemosaic = 30.000000
# latticeconstants = 5.058628,5.058628,24.728465,90.000000,90.000000,120.000000
# ubmatrix = -0.002928,0.001986,-0.040430,-0.228168,-0.119258,0.000500,-0.005924,0.194622,0.000719
# mode = 0
# plane_normal = 0.017452,-0.026173,0.999505
# ubconf = UB10Mar2025_114214AM.ini
# preset_type = normal 
# preset_channel = mcu
# preset_value = 5.000000
# def_x = l
# def_y = detector
# col_headers = 
#   Pt.          h          k          l          e       time   detector    monitor        mcu focal_length         m1         m2       marc     mtrans     mfocus   vti_temp  smpl_temp         s1         s2        sgl        sgu        bbb        bbl        bbr        bbt        bab        bal        bar        bat        stl        stu         a1         a2     afocus        qm1        qm2        qm3        qm4        qm5        qm6        qm7        qm8        xm1        xm2        xm3        xm4        xm5        xm6        xm7        xm8          q         ei         ef
      1     0.0000    -0.0000     4.5000    -0.2000      4.683     11.000  11001.000      5.000   100.5558   141.0625   -77.8750     0.4200    -1.0000    27.8400     0.0000     0.0000    21.5500    44.6044    -1.0000    -1.5000     0.0000     0.0000     0.0000     0.0000    17.0000     8.0000     8.0000    17.0000     0.0000     0.0000   142.0306   -75.9388     0.0000    -4.2998    -2.9995    -1.8994    -0.6005     0.4003     1.8994     2.7994     3.8002    31.3400    22.1100    13.8400     6.4800    -5.6200   -10.4100   -14.3900   -16.8000     1.1434     4.6000     4.800
      2    -0.0000    -0.0000     4.4900    -0.2000      4.774     26.000  11001.000      5.000   100.5558   141.0625   -77.8750     0.4200    -1.0000    27.8400     0.0000     0.0000    21.4975    44.5000    -1.0000    -1.5000     0.0000     0.0000     0.0000     0.0000    17.0000     8.0000     8.0000    17.0000     0.0000     0.0000   142.0306   -75.9388     0.0000    -4.2998    -2.9995    -1.8994    -0.6005     0.4003     1.8994     2.7994     3.8002    31.3400    22.1100    13.8400     6.4800    -5.6200   -10.4100   -14.3900   -16.8000     1.1409     4.6000     4.800
      3    -0.0000    -0.0000     4.4800    -0.2000      4.666     17.000  11001.000      5.000   100.5558   141.0625   -77.8750     0.4200    -1.0000    27.8400     0.0000     0.0000    21.4400    44.3955    -1.0000    -1.5000     0.0000     0.0000     0.0000     0.0000    17.0000     8.0000     8.0000    17.0000     0.0000     0.0000   142.0306   -75.9388     0.0000    -4.2998    -2.9995    -1.8994    -0.6005     0.4003     1.8994     2.7994     3.8002    31.3400    22.1100    13.8400     6.4800    -5.6200   -10.4100   -14.3900   -16.8000     1.1383     4.6000     4.800
      4    -0.0000    -0.0000     4.4700    -0.2000      4.657     23.000  11001.000      5.000   100.5558   141.0625   -77.8750     0.4200    -1.0000    27.8400     0.0000     0.0000    21.3850    44.2910    -1.0000    -1.5000     0.0000     0.0000     0.0000     0.0000    17.0000     8.0000     8.0000    17.0000     0.0000     0.0000   142.0306   -75.9388     0.0000    -4.2998    -2.9995    -1.8994    -0.6005     0.4003     1.8994     2.7994     3.8002    31.3400    22.1100    13.8400     6.4800    -5.6200   -10.4100   -14.3900   -16.8000     1.1358     4.6000     4.800
      5     0.0000    -0.0000     4.4600    -0.2000      4.664     23.000  11001.000      5.000   100.5558   141.0625   -77.8750     0.4200    -1.0000    27.8400     0.0000     0.0000    21.3250    44.1866    -1.0000    -1.5000     0.0000     0.0000     0.0000     0.0000    17.0000     8.0000     8.0000    17.0000     0.0000     0.0000   142.0306   -75.9388     0.0000    -4.2998    -2.9995    -1.8994    -0.6005     0.4003     1.8994     2.7994     3.8002    31.3400    22.1100    13.8400     6.4800    -5.6200   -10.4100   -14.3900   -16.8000     1.1332     4.6000     4.800
      6     0.0000    -0.0000     4.4500    -0.2000      4.736     27.000  11001.000      5.000   100.5558   141.0625   -77.8750     0.4200    -1.0000    27.8400     0.0000     0.0000    21.2700    44.0823    -1.0000    -1.5000     0.0000     0.0000     0.0000     0.0000    17.0000     8.0000     8.0000    17.0000     0.0000     0.0000   142.0306   -75.9388     0.0000    -4.2998    -2.9995    -1.8994    -0.6005     0.4003     1.8994     2.7994     3.8002    31.3400    22.1100    13.8400     6.4800    -5.6200   -10.4100   -14.3900   -16.8000     1.1307     4.6000     4.800
      7    -0.0000    -0.0000     4.4400    -0.2000      4.691     30.000  11001.000      5.000   100.5558   141.0625   -77.8750     0.4200    -1.0000    27.8400     0.0000     0.0000    21.2150    43.9780    -1.0000    -1.5000     0.0000     0.0000     0.0000     0.0000    17.0000     8.0000     8.0000    17.0000     0.0000     0.0000   142.0306   -75.9388     0.0000    -4.2998    -2.9995    -1.8994    -0.6005     0.4003     1.8994     2.7994     3.8002    31.3400    22.1100    13.8400     6.4800    -5.6200   -10.4100   -14.3900   -16.8000     1.1281     4.6000     4.800
      8    -0.0000    -0.0000     4.4300    -0.2000      4.699     18.000  11001.000      5.000   100.5558   141.0625   -77.8750     0.4200    -1.0000    27.8400     0.0000     0.0000    21.1600    43.8737    -1.0000    -1.5000     0.0000     0.0000     0.0000     0.0000    17.0000     8.0000     8.0000    17.0000     0.0000     0.0000   142.0306   -75.9388     0.0000    -4.2998    -2.9995    -1.8994    -0.6005     0.4003     1.8994     2.7994     3.8002    31.3400    22.1100    13.8400     6.4800    -5.6200   -10.4100   -14.3900   -16.8000     1.1256     4.6000     4.800
      9     0.0000    -0.0000     4.4200    -0.2000      4.724     21.000  11001.000      5.000   100.5558   141.0625   -77.8750     0.4200    -1.0000    27.8400     0.0000     0.0000    21.1025    43.7694    -1.0000    -1.5000     0.0000     0.0000     0.0000     0.0000    17.0000     8.0000     8.0000    17.0000     0.0000     0.0000   142.0306   -75.9388     0.0000    -4.2998    -2.9995    -1.8994    -0.6005     0.4003     1.8994     2.7994     3.8002    31.3400    22.1100    13.8400     6.4800    -5.6200   -10.4100   -14.3900   -16.8000     1.1231     4.6000     4.800
     10    -0.0000    -0.0000     4.4100    -0.2000      4.729     30.000  11001.000      5.000   100.5558   141.0625   -77.8750     0.4200    -1.0000    27.8400     0.0000     0.0000    21.0475    43.6652    -1.0000    -1.5000     0.0000     0.0000     0.0000     0.0000    17.0000     8.0000     8.0000    17.0000     0.0000     0.0000   142.0306   -75.9388     0.0000    -4.2998    -2.9995    -1.8994    -0.6005     0.4003     1.8994     2.7994     3.8002    31.3400    22.1100    13.8400     6.4800    -5.6200   -10.4100   -14.3900   -16.8000     1.1205     4.6000     4.800
     11     0.0000    -0.0000     4.4000    -0.2000      4.651     36.000  11001.000      5.000   100.5558   141.0625   -77.8750     0.4200    -1.0000    27.8400     0.0000     0.0000    20.9900    43.5610    -1.0000    -1.5000     0.0000     0.0000     0.0000     0.0000    17.0000     8.0000     8.0000    17.0000     0.0000     0.0000   142.0306   -75.9388     0.0000    -4.2998    -2.9995    -1.8994    -0.6005     0.4003     1.8994     2.7994     3.8002    31.3400    22.1100    13.8400     6.4800    -5.6200   -10.4100   -14.3900   -16.8000     1.1180     4.6000     4.800
     12    -0.0000    -0.0000     4.3900    -0.2000      4.772    120.000  11001.000      5.000   100.5558   141.0625   -77.8750     0.4200    -1.0000    27.8400     0.0000     0.0000    20.9350    43.4569    -1.0000    -1.5000     0.0000     0.0000     0.0000     0.0000    17.0000     8.0000     8.0000    17.0000     0.0000     0.0000   142.0306   -75.9388     0.0000    -4.2998    -2.9995    -1.8994    -0.6005     0.4003     1.8994     2.7994     3.8002    31.3400    22.1100    13.8400     6.4800    -5.6200   -10.4100   -14.3900   -16.8000     1.1154     4.6000     4.800
     13     0.0000    -0.0000     4.3800    -0.2000      4.723    337.000  11001.000      5.000   100.5558   141.0625   -77.8750     0.4200    -1.0000    27.8400     0.0000     0.0000    20.8750    43.3528    -1.0000    -1.5000     0.0000     0.0000     0.0000     0.0000    17.0000     8.0000     8.0000    17.0000     0.0000     0.0000   142.0306   -75.9388     0.0000    -4.2998    -2.9995    -1.8994    -0.6005     0.4003     1.8994     2.7994     3.8002    31.3400    22.1100    13.8400     6.4800    -5.6200   -10.4100   -14.3900   -16.8000     1.1129     4.6000     4.800
     14    -0.0000    -0.0000     4.3700    -0.2000      4.735    604.000  11001.000      5.000   100.5558   141.0625   -77.8750     0.4200    -1.0000    27.8400     0.0000     0.0000    20.8250    43.2488    -1.0000    -1.5000     0.0000     0.0000     0.0000     0.0000    17.0000     8.0000     8.0000    17.0000     0.0000     0.0000   142.0306   -75.9388     0.0000    -4.2998    -2.9995    -1.8994    -0.6005     0.4003     1.8994     2.7994     3.8002    31.3400    22.1100    13.8400     6.4800    -5.6200   -10.4100   -14.3900   -16.8000     1.1104     4.6000     4.800
     15     0.0000    -0.0000     4.3600    -0.2000      4.647   1088.000  11001.000      5.000   100.5558   141.0625   -77.8750     0.4200    -1.0000    27.8400     0.0000     0.0000    20.7650    43.1448    -1.0000    -1.5000     0.0000     0.0000     0.0000     0.0000    17.0000     8.0000     8.0000    17.0000     0.0000     0.0000   142.0306   -75.9388     0.0000    -4.2998    -2.9995    -1.8994    -0.6005     0.4003     1.8994     2.7994     3.8002    31.3400    22.1100    13.8400     6.4800    -5.6200   -10.4100   -14.3900   -16.8000     1.1078     4.6000     4.800
     16    -0.0000    -0.0000     4.3500    -0.2000      4.742   1736.000  11001.000      5.000   100.5558   141.0625   -77.8750     0.4200    -1.0000    27.8400     0.0000     0.0000    20.7100    43.0408    -1.0000    -1.5000     0.0000     0.0000     0.0000     0.0000    17.0000     8.0000     8.0000    17.0000     0.0000     0.0000   142.0306   -75.9388     0.0000    -4.2998    -2.9995    -1.8994    -0.6005     0.4003     1.8994     2.7994     3.8002    31.3400    22.1100    13.8400     6.4800    -5.6200   -10.4100   -14.3900   -16.8000     1.1053     4.6000     4.800
     17    -0.0000    -0.0000     4.3400    -0.2000      4.692   2305.000  11001.000      5.000   100.5558   141.0625   -77.8750     0.4200    -1.0000    27.8400     0.0000     0.0000    20.6550    42.9368    -1.0000    -1.5000     0.0000     0.0000     0.0000     0.0000    17.0000     8.0000     8.0000    17.0000     0.0000     0.0000   142.0306   -75.9388     0.0000    -4.2998    -2.9995    -1.8994    -0.6005     0.4003     1.8994     2.7994     3.8002    31.3400    22.1100    13.8400     6.4800    -5.6200   -10.4100   -14.3900   -16.8000     1.1027     4.6000     4.800
     18     0.0000    -0.0000     4.3300    -0.2000      4.716   2428.000  11001.000      5.000   100.5558   141.0625   -77.8750     0.4200    -1.0000    27.8400     0.0000     0.0000    20.5950    42.8329    -1.0000    -1.5000     0.0000     0.0000     0.0000     0.0000    17.0000     8.0000     8.0000    17.0000     0.0000     0.0000   142.0306   -75.9388     0.0000    -4.2998    -2.9995    -1.8994    -0.6005     0.4003     1.8994     2.7994     3.8002    31.3400    22.1100    13.8400     6.4800    -5.6200   -10.4100   -14.3900   -16.8000     1.1002     4.6000     4.800
     19    -0.0000    -0.0000     4.3200    -0.2000      4.759   2291.000  11001.000      5.000   100.5558   141.0625   -77.8750     0.4200    -1.0000    27.8400     0.0000     0.0000    20.5425    42.7290    -1.0000    -1.5000     0.0000     0.0000     0.0000     0.0000    17.0000     8.0000     8.0000    17.0000     0.0000     0.0000   142.0306   -75.9388     0.0000    -4.2998    -2.9995    -1.8994    -0.6005     0.4003     1.8994     2.7994     3.8002    31.3400    22.1100    13.8400     6.4800    -5.6200   -10.4100   -14.3900   -16.8000     1.0977     4.6000     4.800
     20     0.0000    -0.0000     4.3100    -0.2000      4.691   1664.000  11001.000      5.000   100.5558   141.0625   -77.8750     0.4200    -1.0000    27.8400     0.0000     0.0000    20.4850    42.6252    -1.0000    -1.5000     0.0000     0.0000     0.0000     0.0000    17.0000     8.0000     8.0000    17.0000     0.0000     0.0000   142.0306   -75.9388     0.0000    -4.2998    -2.9995    -1.8994    -0.6005     0.4003     1.8994     2.7994     3.8002    31.3400    22.1100    13.8400     6.4800    -5.6200   -10.4100   -14.3900   -16.8000     1.0951     4.6000     4.800
     21    -0.0000    -0.0000     4.3000    -0.2000      4.608   1007.000  11001.000      5.000   100.5558   141.0625   -77.8750     0.4200    -1.0000    27.8400     0.0000     0.0000    20.4300    42.5214    -1.0000    -1.5000     0.0000     0.0000     0.0000     0.0000    17.0000     8.0000     8.0000    17.0000     0.0000     0.0000   142.0306   -75.9388     0.0000    -4.2998    -2.9995    -1.8994    -0.6005     0.4003     1.8994     2.7994     3.8002    31.3400    22.1100    13.8400     6.4800    -5.6200   -10.4100   -14.3900   -16.8000     1.0926     4.6000     4.800
     22    -0.0000    -0.0000     4.2900    -0.2000      4.703    458.000  11001.000      5.000   100.5558   141.0625   -77.8750     0.4200    -1.0000    27.8400     0.0000     0.0000    20.3750    42.4176    -1.0000    -1.5000     0.0000     0.0000     0.0000     0.0000    17.0000     8.0000     8.0000    17.0000     0.0000     0.0000   142.0306   -75.9388     0.0000    -4.2998    -2.9995    -1.8994    -0.6005     0.4003     1.8994     2.7994     3.8002    31.3400    22.1100    13.8400     6.4800    -5.6200   -10.4100   -14.3900   -16.8000     1.0900     4.6000     4.800
     23    -0.0000    -0.0000     4.2800    -0.2000      4.695    191.000  11001.000      5.000   100.5558   141.0625   -77.8750     0.4200    -1.0000    27.8400     0.0000     0.0000    20.3175    42.3139    -1.0000    -1.5000     0.0000     0.0000     0.0000     0.0000    17.0000     8.0000     8.0000    17.0000     0.0000     0.0000   142.0306   -75.9388     0.0000    -4.2998    -2.9995    -1.8994    -0.6005     0.4003     1.8994     2.7994     3.8002    31.3400    22.1100    13.8400     6.4800    -5.6200   -10.4100   -14.3900   -16.8000     1.0875     4.6000     4.800
     24    -0.0000    -0.0000     4.2700    -0.2000      4.815     77.000  11001.000      5.000   100.5558   141.0625   -77.8750     0.4200    -1.0000    27.8400     0.0000     0.0000    20.2625    42.2102    -1.0000    -1.5000     0.0000     0.0000     0.0000     0.0000    17.0000     8.0000     8.0000    17.0000     0.0000     0.0000   142.0306   -75.9388     0.0000    -4.2998    -2.9995    -1.8994    -0.6005     0.4003     1.8994     2.7994     3.8002    31.3400    22.1100    13.8400     6.4800    -5.6200   -10.4100   -14.3900   -16.8000     1.0850     4.6000     4.800
     25     0.0000    -0.0000     4.2600    -0.2000      4.786     45.000  11001.000      5.000   100.5558   141.0625   -77.8750     0.4200    -1.0000    27.8400     0.0000     0.0000    20.2050    42.1066    -1.0000    -1.5000     0.0000     0.0000     0.0000     0.0000    17.0000     8.0000     8.0000    17.0000     0.0000     0.0000   142.0306   -75.9388     0.0000    -4.2998    -2.9995    -1.8994    -0.6005     0.4003     1.8994     2.7994     3.8002    31.3400    22.1100    13.8400     6.4800    -5.6200   -10.4100   -14.3900   -16.8000     1.0824     4.6000     4.800
     26     0.0000    -0.0000     4.2500    -0.2000      4.706     40.000  11001.000      5.000   100.5558   141.0625   -77.8750     0.4200    -1.0000    27.8400     0.0000     0.0000    20.1475    42.0030    -1.0000    -1.5000     0.0000     0.0000     0.0000     0.0000    17.0000     8.0000     8.0000    17.0000     0.0000     0.0000   142.0306   -75.9388     0.0000    -4.2998    -2.9995    -1.8994    -0.6005     0.4003     1.8994     2.7994     3.8002    31.3400    22.1100    13.8400     6.4800    -5.6200   -10.4100   -14.3900   -16.8000     1.0799     4.6000     4.800
     27     0.0000    -0.0000     4.2400    -0.2000      4.652     25.000  11001.000      5.000   100.5558   141.0625   -77.8750     0.4200    -1.0000    27.8400     0.0000     0.0000    20.0925    41.8994    -1.0000    -1.5000     0.0000     0.0000     0.0000     0.0000    17.0000     8.0000     8.0000    17.0000     0.0000     0.0000   142.0306   -75.9388     0.0000    -4.2998    -2.9995    -1.8994    -0.6005     0.4003     1.8994     2.7994     3.8002    31.3400    22.1100    13.8400     6.4800    -5.6200   -10.4100   -14.3900   -16.8000     1.0773     4.6000     4.800
     28    -0.0000    -0.0000     4.2300    -0.2000      4.717     20.000  11001.000      5.000   100.5558   141.0625   -77.8750     0.4200    -1.0000    27.8400     0.0000     0.0000    20.0375    41.7958    -1.0000    -1.5000     0.0000     0.0000     0.0000     0.0000    17.0000     8.0000     8.0000    17.0000     0.0000     0.0000   142.0306   -75.9388     0.0000    -4.2998    -2.9995    -1.8994    -0.6005     0.4003     1.8994     2.7994     3.8002    31.3400    22.1100    13.8400     6.4800    -5.6200   -10.4100   -14.3900   -16.8000     1.0748     4.6000     4.800
     29     0.0000    -0.0000     4.2200    -0.2000      4.729     32.000  11001.000      5.000   100.5558   141.0625   -77.8750     0.4200    -1.0000    27.8400     0.0000     0.0000    19.9800    41.6923    -1.0000    -1.5000     0.0000     0.0000     0.0000     0.0000    17.0000     8.0000     8.0000    17.0000     0.0000     0.0000   142.0306   -75.9388     0.0000    -4.2998    -2.9995    -1.8994    -0.6005     0.4003     1.8994     2.7994     3.8002    31.3400    22.1100    13.8400     6.4800    -5.6200   -10.4100   -14.3900   -16.8000     1.0722     4.6000     4.800
     30    -0.0000    -0.0000     4.2100    -0.2000      4.725     28.000  11001.000      5.000   100.5558   141.0625   -77.8750     0.4200    -1.0000    27.8400     0.0000     0.0000    19.9250    41.5888    -1.0000    -1.5000     0.0000     0.0000     0.0000     0.0000    17.0000     8.0000     8.0000    17.0000     0.0000     0.0000   142.0306   -75.9388     0.0000    -4.2998    -2.9995    -1.8994    -0.6005     0.4003     1.8994     2.7994     3.8002    31.3400    22.1100    13.8400     6.4800    -5.6200   -10.4100   -14.3900   -16.8000     1.0697     4.6000     4.800
     31    -0.0000    -0.0000     4.2000    -0.2000      4.714     28.000  11001.000      5.000   100.5558   141.0625   -77.8750     0.4200    -1.0000    27.8400     0.0000     0.0000    19.8700    41.4854    -1.0000    -1.5000     0.0000     0.0000     0.0000     0.0000    17.0000     8.0000     8.0000    17.0000     0.0000     0.0000   142.0306   -75.9388     0.0000    -4.2998    -2.9995    -1.8994    -0.6005     0.4003     1.8994     2.7994     3.8002    31.3400    22.1100    13.8400     6.4800    -5.6200   -10.4100   -14.3900   -16.8000     1.0672     4.6000     4.800
     32    -0.0000    -0.0000     4.1900    -0.2000      4.677     23.000  11001.000      5.000   100.5558   141.0625   -77.8750     0.4200    -1.0000    27.8400     0.0000     0.0000    19.8125    41.3820    -1.0000    -1.5000     0.0000     0.0000     0.0000     0.0000    17.0000     8.0000     8.0000    17.0000     0.0000     0.0000   142.0306   -75.9388     0.0000    -4.2998    -2.9995    -1.8994    -0.6005     0.4003     1.8994     2.7994     3.8002    31.3400    22.1100    13.8400     6.4800    -5.6200   -10.4100   -14.3900   -16.8000     1.0646     4.6000     4.800
     33     0.0000    -0.0000     4.1800    -0.2000      4.760     24.000  11001.000      5.000   100.5558   141.0625   -77.8750     0.4200    -1.0000    27.8400     0.0000     0.0000    19.7550    41.2786    -1.0000    -1.5000     0.0000     0.0000     0.0000     0.0000    17.0000     8.0000     8.0000    17.0000     0.0000     0.0000   142.0306   -75.9388     0.0000    -4.2998    -2.9995    -1.8994    -0.6005     0.4003     1.8994     2.7994     3.8002    31.3400    22.1100    13.8400     6.4800    -5.6200   -10.4100   -14.3900   -16.8000     1.0621     4.6000     4.800
     34     0.0000    -0.0000     4.1700    -0.2000      4.624     31.000  11001.000      5.000   100.5558   141.0625   -77.8750     0.4200    -1.0000    27.8400     0.0000     0.0000    19.7000    41.1753    -1.0000    -1.5000     0.0000     0.0000     0.0000     0.0000    17.0000     8.0000     8.0000    17.0000     0.0000     0.0000   142.0306   -75.9388     0.0000    -4.2998    -2.9995    -1.8994    -0.6005     0.4003     1.8994     2.7994     3.8002    31.3400    22.1100    13.8400     6.4800    -5.6200   -10.4100   -14.3900   -16.8000     1.0595     4.6000     4.800
     35    -0.0000    -0.0000     4.1600    -0.2000      4.778     17.000  11001.000      5.000   100.5558   141.0625   -77.8750     0.4200    -1.0000    27.8400     0.0000     0.0000    19.6450    41.0720    -1.0000    -1.5000     0.0000     0.0000     0.0000     0.0000    17.0000     8.0000     8.0000    17.0000     0.0000     0.0000   142.0306   -75.9388     0.0000    -4.2998    -2.9995    -1.8994    -0.6005     0.4003     1.8994     2.7994     3.8002    31.3400    22.1100    13.8400     6.4800    -5.6200   -10.4100   -14.3900   -16.8000     1.0570     4.6000     4.800
     36     0.0000    -0.0000     4.1500    -0.2000      4.714     22.000  11001.000      5.000   100.5558   141.0625   -77.8750     0.4200    -1.0000    27.8400     0.0000     0.0000    19.5875    40.9688    -1.0000    -1.5000     0.0000     0.0000     0.0000     0.0000    17.0000     8.0000     8.0000    17.0000     0.0000     0.0000   142.0306   -75.9388     0.0000    -4.2998    -2.9995    -1.8994    -0.6005     0.4003     1.8994     2.7994     3.8002    31.3400    22.1100    13.8400     6.4800    -5.6200   -10.4100   -14.3900   -16.8000     1.0545     4.6000     4.800
     37    -0.0000    -0.0000     4.1400    -0.2000      4.750     20.000  11001.000      5.000   100.5558   141.0625   -77.8750     0.4200    -1.0000    27.8400     0.0000     0.0000    19.5325    40.8655    -1.0000    -1.5000     0.0000     0.0000     0.0000     0.0000    17.0000     8.0000     8.0000    17.0000     0.0000     0.0000   142.0306   -75.9388     0.0000    -4.2998    -2.9995    -1.8994    -0.6005     0.4003     1.8994     2.7994     3.8002    31.3400    22.1100    13.8400     6.4800    -5.6200   -10.4100   -14.3900   -16.8000     1.0519     4.6000     4.800
     38     0.0000    -0.0000     4.1300    -0.2000      4.664     15.000  11001.000      5.000   100.5558   141.0625   -77.8750     0.4200    -1.0000    27.8400     0.0000     0.0000    19.4750    40.7623    -1.0000    -1.5000     0.0000     0.0000     0.0000     0.0000    17.0000     8.0000     8.0000    17.0000     0.0000     0.0000   142.0306   -75.9388     0.0000    -4.2998    -2.9995    -1.8994    -0.6005     0.4003     1.8994     2.7994     3.8002    31.3400    22.1100    13.8400     6.4800    -5.6200   -10.4100   -14.3900   -16.8000     1.0494     4.6000     4.800
     39    -0.0000    -0.0000     4.1200    -0.2000      4.723     19.000  11001.000      5.000   100.5558   141.0625   -77.8750     0.4200    -1.0000    27.8400     0.0000     0.0000    19.4200    40.6592    -1.0000    -1.5000     0.0000     0.0000     0.0000     0.0000    17.0000     8.0000     8.0000    17.0000     0.0000     0.0000   142.0306   -75.9388     0.0000    -4.2998    -2.9995    -1.8994    -0.6005     0.4003     1.8994     2.7994     3.8002    31.3400    22.1100    13.8400     6.4800    -5.6200   -10.4100   -14.3900   -16.8000     1.0468     4.6000     4.800
     40    -0.0000    -0.0000     4.1100    -0.2000      4.783     19.000  11001.000      5.000   100.5558   141.0625   -77.8750     0.4200    -1.0000    27.8400     0.0000     0.0000    19.3650    40.5560    -1.0000    -1.5000     0.0000     0.0000     0.0000     0.0000    17.0000     8.0000     8.0000    17.0000     0.0000     0.0000   142.0306   -75.9388     0.0000    -4.2998    -2.9995    -1.8994    -0.6005     0.4003     1.8994     2.7994     3.8002    31.3400    22.1100    13.8400     6.4800    -5.6200   -10.4100   -14.3900   -16.8000     1.0443     4.6000     4.800
     41    -0.0000    -0.0000     4.1000    -0.2000      4.639     21.000  11001.000      5.000   100.5558   141.0625   -77.8750     0.4200    -1.0000    27.8400     0.0000     0.0000    19.3075    40.4529    -1.0000    -1.5000     0.0000     0.0000     0.0000     0.0000    17.0000     8.0000     8.0000    17.0000     0.0000     0.0000   142.0306   -75.9388     0.0000    -4.2998    -2.9995    -1.8994    -0.6005     0.4003     1.8994     2.7994     3.8002    31.3400    22.1100    13.8400     6.4800    -5.6200   -10.4100   -14.3900   -16.8000     1.0418     4.6000     4.800
     42    -0.0000    -0.0000     4.0900    -0.2000      4.771     30.000  11001.000      5.000   100.5558   141.0625   -77.8750     0.4200    -1.0000    27.8400     0.0000     0.0000    19.2525    40.3499    -1.0000    -1.5000     0.0000     0.0000     0.0000     0.0000    17.0000     8.0000     8.0000    17.0000     0.0000     0.0000   142.0306   -75.9388     0.0000    -4.2998    -2.9995    -1.8994    -0.6005     0.4003     1.8994     2.7994     3.8002    31.3400    22.1100    13.8400     6.4800    -5.6200   -10.4100   -14.3900   -16.8000     1.0392     4.6000     4.800
     43     0.0000    -0.0000     4.0800    -0.2000      4.755     18.000  11001.000      5.000   100.5558   141.0625   -77.8750     0.4200    -1.0000    27.8400     0.0000     0.0000    19.1950    40.2468    -1.0000    -1.5000     0.0000     0.0000     0.0000     0.0000    17.0000     8.0000     8.0000    17.0000     0.0000     0.0000   142.0306   -75.9388     0.0000    -4.2998    -2.9995    -1.8994    -0.6005     0.4003     1.8994     2.7994     3.8002    31.3400    22.1100    13.8400     6.4800    -5.6200   -10.4100   -14.3900   -16.8000     1.0367     4.6000     4.800
     44    -0.0000    -0.0000     4.0700    -0.2000      4.766     22.000  11001.000      5.000   100.5558   141.0625   -77.8750     0.4200    -1.0000    27.8400     0.0000     0.0000    19.1400    40.1438    -1.0000    -1.5000     0.0000     0.0000     0.0000     0.0000    17.0000     8.0000     8.0000    17.0000     0.0000     0.0000   142.0306   -75.9388     0.0000    -4.2998    -2.9995    -1.8994    -0.6005     0.4003     1.8994     2.7994     3.8002    31.3400    22.1100    13.8400     6.4800    -5.6200   -10.4100   -14.3900   -16.8000     1.0341     4.6000     4.800
     45     0.0000    -0.0000     4.0600    -0.2000      4.751     21.000  11001.000      5.000   100.5558   141.0625   -77.8750     0.4200    -1.0000    27.8400     0.0000     0.0000    19.0825    40.0409    -1.0000    -1.5000     0.0000     0.0000     0.0000     0.0000    17.0000     8.0000     8.0000    17.0000     0.0000     0.0000   142.0306   -75.9388     0.0000    -4.2998    -2.9995    -1.8994    -0.6005     0.4003     1.8994     2.7994     3.8002    31.3400    22.1100    13.8400     6.4800    -5.6200   -10.4100   -14.3900   -16.8000     1.0316     4.6000     4.800
     46     0.0000    -0.0000     4.0500    -0.2000      4.733     20.000  11001.000      5.000   100.5558   141.0625   -77.8750     0.4200    -1.0000    27.8400     0.0000     0.0000    19.0250    39.9380    -1.0000    -1.5000     0.0000     0.0000     0.0000     0.0000    17.0000     8.0000     8.0000    17.0000     0.0000     0.0000   142.0306   -75.9388     0.0000    -4.2998    -2.9995    -1.8994    -0.6005     0.4003     1.8994     2.7994     3.8002    31.3400    22.1100    13.8400     6.4800    -5.6200   -10.4100   -14.3900   -16.8000     1.0291     4.6000     4.800
     47    -0.0000    -0.0000     4.0400    -0.2000      4.773     17.000  11001.000      5.000   100.5558   141.0625   -77.8750     0.4200    -1.0000    27.8400     0.0000     0.0000    18.9725    39.8351    -1.0000    -1.5000     0.0000     0.0000     0.0000     0.0000    17.0000     8.0000     8.0000    17.0000     0.0000     0.0000   142.0306   -75.9388     0.0000    -4.2998    -2.9995    -1.8994    -0.6005     0.4003     1.8994     2.7994     3.8002    31.3400    22.1100    13.8400     6.4800    -5.6200   -10.4100   -14.3900   -16.8000     1.0265     4.6000     4.800
     48     0.0000    -0.0000     4.0300    -0.2000      4.666     29.000  11001.000      5.000   100.5558   141.0625   -77.8750     0.4200    -1.0000    27.8400     0.0000     0.0000    18.9125    39.7322    -1.0000    -1.5000     0.0000     0.0000     0.0000     0.0000    17.0000     8.0000     8.0000    17.0000     0.0000     0.0000   142.0306   -75.9388     0.0000    -4.2998    -2.9995    -1.8994    -0.6005     0.4003     1.8994     2.7994     3.8002    31.3400    22.1100    13.8400     6.4800    -5.6200   -10.4100   -14.3900   -16.8000     1.0240     4.6000     4.800
     49    -0.0000    -0.0000     4.0200    -0.2000      4.706     17.000  11001.000      5.000   100.5558   141.0625   -77.8750     0.4200    -1.0000    27.8400     0.0000     0.0000    18.8600    39.6294    -1.0000    -1.5000     0.0000     0.0000     0.0000     0.0000    17.0000     8.0000     8.0000    17.0000     0.0000     0.0000   142.0306   -75.9388     0.0000    -4.2998    -2.9995    -1.8994    -0.6005     0.4003     1.8994     2.7994     3.8002    31.3400    22.1100    13.8400     6.4800    -5.6200   -10.4100   -14.3900   -16.8000     1.0214     4.6000     4.800
     50    -0.0000    -0.0000     4.0100    -0.2000      4.749     15.000  11001.000      5.000   100.5558   141.0625   -77.8750     0.4200    -1.0000    27.8400     0.0000     0.0000    18.8025    39.5266    -1.0000    -1.5000     0.0000     0.0000     0.0000     0.0000    17.0000     8.0000     8.0000    17.0000     0.0000     0.0000   142.0306   -75.9388     0.0000    -4.2998    -2.9995    -1.8994    -0.6005     0.4003     1.8994     2.7994     3.8002    31.3400    22.1100    13.8400     6.4800    -5.6200   -10.4100   -14.3900   -16.8000     1.0189     4.6000     4.800
     51     0.0000    -0.0000     4.0000    -0.2000      4.717     21.000  11001.000      5.000   100.5558   141.0625   -77.8750     0.4200    -1.0000    27.8400     0.0000     0.0000    18.7450    39.4238    -1.0000    -1.5000     0.0000     0.0000     0.0000     0.0000    17.0000     8.0000     8.0000    17.0000     0.0000     0.0000   142.0306   -75.9388     0.0000    -4.2998    -2.9995    -1.8994    -0.6005     0.4003     1.8994     2.7994     3.8002    31.3400    22.1100    13.8400     6.4800    -5.6200   -10.4100   -14.3900   -16.8000     1.0163     4.6000     4.800
     52    -0.0000    -0.0000     3.9900    -0.2000      4.714     25.000  11001.000      5.000   100.5558   141.0625   -77.8750     0.4200    -1.0000    27.8400     0.0000     0.0000    18.6900    39.3211    -1.0000    -1.5000     0.0000     0.0000     0.0000     0.0000    17.0000     8.0000     8.0000    17.0000     0.0000     0.0000   142.0306   -75.9388     0.0000    -4.2998    -2.9995    -1.8994    -0.6005     0.4003     1.8994     2.7994     3.8002    31.3400    22.1100    13.8400     6.4800    -5.6200   -10.4100   -14.3900   -16.8000     1.0138     4.6000     4.800
     53    -0.0000    -0.0000     3.9800    -0.2000      4.705     15.000  11001.000      5.000   100.5558   141.0625   -77.8750     0.4200    -1.0000    27.8400     0.0000     0.0000    18.6350    39.2184    -1.0000    -1.5000     0.0000     0.0000     0.0000     0.0000    17.0000     8.0000     8.0000    17.0000     0.0000     0.0000   142.0306   -75.9388     0.0000    -4.2998    -2.9995    -1.8994    -0.6005     0.4003     1.8994     2.7994     3.8002    31.3400    22.1100    13.8400     6.4800    -5.6200   -10.4100   -14.3900   -16.8000     1.0113     4.6000     4.800
     54     0.0000    -0.0000     3.9700    -0.2000      4.693     21.000  11001.000      5.000   100.5558   141.0625   -77.8750     0.4200    -1.0000    27.8400     0.0000     0.0000    18.5750    39.1158    -1.0000    -1.5000     0.0000     0.0000     0.0000     0.0000    17.0000     8.0000     8.0000    17.0000     0.0000     0.0000   142.0306   -75.9388     0.0000    -4.2998    -2.9995    -1.8994    -0.6005     0.4003     1.8994     2.7994     3.8002    31.3400    22.1100    13.8400     6.4800    -5.6200   -10.4100   -14.3900   -16.8000     1.0087     4.6000     4.800
     55    -0.0000    -0.0000     3.9600    -0.2000      4.635     18.000  11001.000      5.000   100.5558   141.0625   -77.8750     0.4200    -1.0000    27.8400     0.0000     0.0000    18.5225    39.0131    -1.0000    -1.5000     0.0000     0.0000     0.0000     0.0000    17.0000     8.0000     8.0000    17.0000     0.0000     0.0000   142.0306   -75.9388     0.0000    -4.2998    -2.9995    -1.8994    -0.6005     0.4003     1.8994     2.7994     3.8002    31.3400    22.1100    13.8400     6.4800    -5.6200   -10.4100   -14.3900   -16.8000     1.0062     4.6000     4.800
     56     0.0000    -0.0000     3.9500    -0.2000      4.698     34.000  11001.000      5.000   100.5558   141.0625   -77.8750     0.4200    -1.0000    27.8400     0.0000     0.0000    18.4650    38.9105    -1.0000    -1.5000     0.0000     0.0000     0.0000     0.0000    17.0000     8.0000     8.0000    17.0000     0.0000     0.0000   142.0306   -75.9388     0.0000    -4.2998    -2.9995    -1.8994    -0.6005     0.4003     1.8994     2.7994     3.8002    31.3400    22.1100    13.8400     6.4800    -5.6200   -10.4100   -14.3900   -16.8000     1.0036     4.6000     4.800
     57    -0.0000    -0.0000     3.9400    -0.2000      4.794     27.000  11001.000      5.000   100.5558   141.0625   -77.8750     0.4200    -1.0000    27.8400     0.0000     0.0000    18.4100    38.8080    -1.0000    -1.5000     0.0000     0.0000     0.0000     0.0000    17.0000     8.0000     8.0000    17.0000     0.0000     0.0000   142.0306   -75.9388     0.0000    -4.2998    -2.9995    -1.8994    -0.6005     0.4003     1.8994     2.7994     3.8002    31.3400    22.1100    13.8400     6.4800    -5.6200   -10.4100   -14.3900   -16.8000     1.0011     4.6000     4.800
     58     0.0000    -0.0000     3.9300    -0.2000      4.747     15.000  11001.000      5.000   100.5558   141.0625   -77.8750     0.4200    -1.0000    27.8400     0.0000     0.0000    18.3525    38.7054    -1.0000    -1.5000     0.0000     0.0000     0.0000     0.0000    17.0000     8.0000     8.0000    17.0000     0.0000     0.0000   142.0306   -75.9388     0.0000    -4.2998    -2.9995    -1.8994    -0.6005     0.4003     1.8994     2.7994     3.8002    31.3400    22.1100    13.8400     6.4800    -5.6200   -10.4100   -14.3900   -16.8000     0.9986     4.6000     4.800
     59    -0.0000    -0.0000     3.9200    -0.2000      4.720     23.000  11001.000      5.000   100.5558   141.0625   -77.8750     0.4200    -1.0000    27.8400     0.0000     0.0000    18.2975    38.6029    -1.0000    -1.5000     0.0000     0.0000     0.0000     0.0000    17.0000     8.0000     8.0000    17.0000     0.0000     0.0000   142.0306   -75.9388     0.0000    -4.2998    -2.9995    -1.8994    -0.6005     0.4003     1.8994     2.7994     3.8002    31.3400    22.1100    13.8400     6.4800    -5.6200   -10.4100   -14.3900   -16.8000     0.9960     4.6000     4.800
     60     0.0000    -0.0000     3.9100    -0.2000      4.753     25.000  11001.000      5.000   100.5558   141.0625   -77.8750     0.4200    -1.0000    27.8400     0.0000     0.0000    18.2400    38.5004    -1.0000    -1.5000     0.0000     0.0000     0.0000     0.0000    17.0000     8.0000     8.0000    17.0000     0.0000     0.0000   142.0306   -75.9388     0.0000    -4.2998    -2.9995    -1.8994    -0.6005     0.4003     1.8994     2.7994     3.8002    31.3400    22.1100    13.8400     6.4800    -5.6200   -10.4100   -14.3900   -16.8000     0.9935     4.6000     4.800
     61    -0.0000    -0.0000     3.9000    -0.2000      4.663     21.000  11001.000      5.000   100.5558   141.0625   -77.8750     0.4200    -1.0000    27.8400     0.0000     0.0000    18.1850    38.3980    -1.0000    -1.5000     0.0000     0.0000     0.0000     0.0000    17.0000     8.0000     8.0000    17.0000     0.0000     0.0000   142.0306   -75.9388     0.0000    -4.2998    -2.9995    -1.8994    -0.6005     0.4003     1.8994     2.7994     3.8002    31.3400    22.1100    13.8400     6.4800    -5.6200   -10.4100   -14.3900   -16.8000     0.9909     4.6000     4.800
     62     0.0000    -0.0000     3.8900    -0.2000      4.664     25.000  11001.000      5.000   100.5558   141.0625   -77.8750     0.4200    -1.0000    27.8400     0.0000     0.0000    18.1250    38.2956    -1.0000    -1.5000     0.0000     0.0000     0.0000     0.0000    17.0000     8.0000     8.0000    17.0000     0.0000     0.0000   142.0306   -75.9388     0.0000    -4.2998    -2.9995    -1.8994    -0.6005     0.4003     1.8994     2.7994     3.8002    31.3400    22.1100    13.8400     6.4800    -5.6200   -10.4100   -14.3900   -16.8000     0.9884     4.6000     4.800
     63    -0.0000    -0.0000     3.8800    -0.2000      4.730     21.000  11001.000      5.000   100.5558   141.0625   -77.8750     0.4200    -1.0000    27.8400     0.0000     0.0000    18.0725    38.1932    -1.0000    -1.5000     0.0000     0.0000     0.0000     0.0000    17.0000     8.0000     8.0000    17.0000     0.0000     0.0000   142.0306   -75.9388     0.0000    -4.2998    -2.9995    -1.8994    -0.6005     0.4003     1.8994     2.7994     3.8002    31.3400    22.1100    13.8400     6.4800    -5.6200   -10.4100   -14.3900   -16.8000     0.9859     4.6000     4.800
     64     0.0000    -0.0000     3.8700    -0.2000      4.709     20.000  11001.000      5.000   100.5558   141.0625   -77.8750     0.4200    -1.0000    27.8400     0.0000     0.0000    18.0150    38.0909    -1.0000    -1.5000     0.0000     0.0000     0.0000     0.0000    17.0000     8.0000     8.0000    17.0000     0.0000     0.0000   142.0306   -75.9388     0.0000    -4.2998    -2.9995    -1.8994    -0.6005     0.4003     1.8994     2.7994     3.8002    31.3400    22.1100    13.8400     6.4800    -5.6200   -10.4100   -14.3900   -16.8000     0.9833     4.6000     4.800
     65    -0.0000    -0.0000     3.8600    -0.2000      4.760     25.000  11001.000      5.000   100.5558   141.0625   -77.8750     0.4200    -1.0000    27.8400     0.0000     0.0000    17.9600    37.9886    -1.0000    -1.5000     0.0000     0.0000     0.0000     0.0000    17.0000     8.0000     8.0000    17.0000     0.0000     0.0000   142.0306   -75.9388     0.0000    -4.2998    -2.9995    -1.8994    -0.6005     0.4003     1.8994     2.7994     3.8002    31.3400    22.1100    13.8400     6.4800    -5.6200   -10.4100   -14.3900   -16.8000     0.9808     4.6000     4.800
     66     0.0000    -0.0000     3.8500    -0.2000      4.753     17.000  11001.000      5.000   100.5558   141.0625   -77.8750     0.4200    -1.0000    27.8400     0.0000     0.0000    17.9000    37.8863    -1.0000    -1.5000     0.0000     0.0000     0.0000     0.0000    17.0000     8.0000     8.0000    17.0000     0.0000     0.0000   142.0306   -75.9388     0.0000    -4.2998    -2.9995    -1.8994    -0.6005     0.4003     1.8994     2.7994     3.8002    31.3400    22.1100    13.8400     6.4800    -5.6200   -10.4100   -14.3900   -16.8000     0.9782     4.6000     4.800
     67    -0.0000    -0.0000     3.8400    -0.2000      4.785     28.000  11001.000      5.000   100.5558   141.0625   -77.8750     0.4200    -1.0000    27.8400     0.0000     0.0000    17.8475    37.7840    -1.0000    -1.5000     0.0000     0.0000     0.0000     0.0000    17.0000     8.0000     8.0000    17.0000     0.0000     0.0000   142.0306   -75.9388     0.0000    -4.2998    -2.9995    -1.8994    -0.6005     0.4003     1.8994     2.7994     3.8002    31.3400    22.1100    13.8400     6.4800    -5.6200   -10.4100   -14.3900   -16.8000     0.9757     4.6000     4.800
     68     0.0000    -0.0000     3.8300    -0.2000      4.709     21.000  11001.000      5.000   100.5558   141.0625   -77.8750     0.4200    -1.0000    27.8400     0.0000     0.0000    17.7900    37.6818    -1.0000    -1.5000     0.0000     0.0000     0.0000     0.0000    17.0000     8.0000     8.0000    17.0000     0.0000     0.0000   142.0306   -75.9388     0.0000    -4.2998    -2.9995    -1.8994    -0.6005     0.4003     1.8994     2.7994     3.8002    31.3400    22.1100    13.8400     6.4800    -5.6200   -10.4100   -14.3900   -16.8000     0.9732     4.6000     4.800
     69    -0.0000    -0.0000     3.8200    -0.2000      4.702     21.000  11001.000      5.000   100.5558   141.0625   -77.8750     0.4200    -1.0000    27.8400     0.0000     0.0000    17.7350    37.5796    -1.0000    -1.5000     0.0000     0.0000     0.0000     0.0000    17.0000     8.0000     8.0000    17.0000     0.0000     0.0000   142.0306   -75.9388     0.0000    -4.2998    -2.9995    -1.8994    -0.6005     0.4003     1.8994     2.7994     3.8002    31.3400    22.1100    13.8400     6.4800    -5.6200   -10.4100   -14.3900   -16.8000     0.9706     4.6000     4.800
     70     0.0000    -0.0000     3.8100    -0.2000      4.728     18.000  11001.000      5.000   100.5558   141.0625   -77.8750     0.4200    -1.0000    27.8400     0.0000     0.0000    17.6750    37.4775    -1.0000    -1.5000     0.0000     0.0000     0.0000     0.0000    17.0000     8.0000     8.0000    17.0000     0.0000     0.0000   142.0306   -75.9388     0.0000    -4.2998    -2.9995    -1.8994    -0.6005     0.4003     1.8994     2.7994     3.8002    31.3400    22.1100    13.8400     6.4800    -5.6200   -10.4100   -14.3900   -16.8000     0.9681     4.6000     4.800
     71    -0.0000    -0.0000     3.8000    -0.2000      4.702     15.000  11001.000      5.000   100.5558   141.0625   -77.8750     0.4200    -1.0000    27.8400     0.0000     0.0000    17.6225    37.3754    -1.0000    -1.5000     0.0000     0.0000     0.0000     0.0000    17.0000     8.0000     8.0000    17.0000     0.0000     0.0000   142.0306   -75.9388     0.0000    -4.2998    -2.9995    -1.8994    -0.6005     0.4003     1.8994     2.7994     3.8002    31.3400    22.1100    13.8400     6.4800    -5.6200   -10.4100   -14.3900   -16.8000     0.9655     4.6000     4.800
     72    -0.0000    -0.0000     3.7900    -0.2000      4.710     16.000  11001.000      5.000   100.5558   141.0625   -77.8750     0.4200    -1.0000    27.8400     0.0000     0.0000    17.5650    37.2733    -1.0000    -1.5000     0.0000     0.0000     0.0000     0.0000    17.0000     8.0000     8.0000    17.0000     0.0000     0.0000   142.0306   -75.9388     0.0000    -4.2998    -2.9995    -1.8994    -0.6005     0.4003     1.8994     2.7994     3.8002    31.3400    22.1100    13.8400     6.4800    -5.6200   -10.4100   -14.3900   -16.8000     0.9630     4.6000     4.800
     73     0.0000    -0.0000     3.7800    -0.2000      4.788     22.000  11001.000      5.000   100.5558   141.0625   -77.8750     0.4200    -1.0000    27.8400     0.0000     0.0000    17.5075    37.1712    -1.0000    -1.5000     0.0000     0.0000     0.0000     0.0000    17.0000     8.0000     8.0000    17.0000     0.0000     0.0000   142.0306   -75.9388     0.0000    -4.2998    -2.9995    -1.8994    -0.6005     0.4003     1.8994     2.7994     3.8002    31.3400    22.1100    13.8400     6.4800    -5.6200   -10.4100   -14.3900   -16.8000     0.9604     4.6000     4.800
     74    -0.0000    -0.0000     3.7700    -0.2000      4.727     16.000  11001.000      5.000   100.5558   141.0625   -77.8750     0.4200    -1.0000    27.8400     0.0000     0.0000    17.4525    37.0692    -1.0000    -1.5000     0.0000     0.0000     0.0000     0.0000    17.0000     8.0000     8.0000    17.0000     0.0000     0.0000   142.0306   -75.9388     0.0000    -4.2998    -2.9995    -1.8994    -0.6005     0.4003     1.8994     2.7994     3.8002    31.3400    22.1100    13.8400     6.4800    -5.6200   -10.4100   -14.3900   -16.8000     0.9579     4.6000     4.800
     75     0.0000    -0.0000     3.7600    -0.2000      4.711     27.000  11001.000      5.000   100.5558   141.0625   -77.8750     0.4200    -1.0000    27.8400     0.0000     0.0000    17.3950    36.9672    -1.0000    -1.5000     0.0000     0.0000     0.0000     0.0000    17.0000     8.0000     8.0000    17.0000     0.0000     0.0000   142.0306   -75.9388     0.0000    -4.2998    -2.9995    -1.8994    -0.6005     0.4003     1.8994     2.7994     3.8002    31.3400    22.1100    13.8400     6.4800    -5.6200   -10.4100   -14.3900   -16.8000     0.9554     4.6000     4.800
     76    -0.0000    -0.0000     3.7500    -0.2000      4.721     19.000  11001.000      5.000   100.5558   141.0625   -77.8750     0.4200    -1.0000    27.8400     0.0000     0.0000    17.3400    36.8652    -1.0000    -1.5000     0.0000     0.0000     0.0000     0.0000    17.0000     8.0000     8.0000    17.0000     0.0000     0.0000   142.0306   -75.9388     0.0000    -4.2998    -2.9995    -1.8994    -0.6005     0.4003     1.8994     2.7994     3.8002    31.3400    22.1100    13.8400     6.4800    -5.6200   -10.4100   -14.3900   -16.8000     0.9528     4.6000     4.800
     77     0.0000    -0.0000     3.7400    -0.2000      4.734     22.000  11001.000      5.000   100.5558   141.0625   -77.8750     0.4200    -1.0000    27.8400     0.0000     0.0000    17.2825    36.7632    -1.0000    -1.5000     0.0000     0.0000     0.0000     0.0000    17.0000     8.0000     8.0000    17.0000     0.0000     0.0000   142.0306   -75.9388     0.0000    -4.2998    -2.9995    -1.8994    -0.6005     0.4003     1.8994     2.7994     3.8002    31.3400    22.1100    13.8400     6.4800    -5.6200   -10.4100   -14.3900   -16.8000     0.9503     4.6000     4.800
     78    -0.0000    -0.0000     3.7300    -0.2000      4.702     16.000  11001.000      5.000   100.5558   141.0625   -77.8750     0.4200    -1.0000    27.8400     0.0000     0.0000    17.2275    36.6613    -1.0000    -1.5000     0.0000     0.0000     0.0000     0.0000    17.0000     8.0000     8.0000    17.0000     0.0000     0.0000   142.0306   -75.9388     0.0000    -4.2998    -2.9995    -1.8994    -0.6005     0.4003     1.8994     2.7994     3.8002    31.3400    22.1100    13.8400     6.4800    -5.6200   -10.4100   -14.3900   -16.8000     0.9477     4.6000     4.800
     79    -0.0000    -0.0000     3.7200    -0.2000      4.606     18.000  11001.000      5.000   100.5558   141.0625   -77.8750     0.4200    -1.0000    27.8400     0.0000     0.0000    17.1700    36.5594    -1.0000    -1.5000     0.0000     0.0000     0.0000     0.0000    17.0000     8.0000     8.0000    17.0000     0.0000     0.0000   142.0306   -75.9388     0.0000    -4.2998    -2.9995    -1.8994    -0.6005     0.4003     1.8994     2.7994     3.8002    31.3400    22.1100    13.8400     6.4800    -5.6200   -10.4100   -14.3900   -16.8000     0.9452     4.6000     4.800
     80    -0.0000    -0.0000     3.7100    -0.2000      4.688     13.000  11001.000      5.000   100.5558   141.0625   -77.8750     0.4200    -1.0000    27.8400     0.0000     0.0000    17.1150    36.4576    -1.0000    -1.5000     0.0000     0.0000     0.0000     0.0000    17.0000     8.0000     8.0000    17.0000     0.0000     0.0000   142.0306   -75.9388     0.0000    -4.2998    -2.9995    -1.8994    -0.6005     0.4003     1.8994     2.7994     3.8002    31.3400    22.1100    13.8400     6.4800    -5.6200   -10.4100   -14.3900   -16.8000     0.9427     4.6000     4.800
     81     0.0000    -0.0000     3.7000    -0.2000      4.718     17.000  11001.000      5.000   100.5558   141.0625   -77.8750     0.4200    -1.0000    27.8400     0.0000     0.0000    17.0550    36.3558    -1.0000    -1.5000     0.0000     0.0000     0.0000     0.0000    17.0000     8.0000     8.0000    17.0000     0.0000     0.0000   142.0306   -75.9388     0.0000    -4.2998    -2.9995    -1.8994    -0.6005     0.4003     1.8994     2.7994     3.8002    31.3400    22.1100    13.8400     6.4800    -5.6200   -10.4100   -14.3900   -16.8000     0.9401     4.6000     4.800
     82    -0.0000    -0.0000     3.6900    -0.2000      4.730     26.000  11001.000      5.000   100.5558   141.0625   -77.8750     0.4200    -1.0000    27.8400     0.0000     0.0000    17.0025    36.2540    -1.0000    -1.5000     0.0000     0.0000     0.0000     0.0000    17.0000     8.0000     8.0000    17.0000     0.0000     0.0000   142.0306   -75.9388     0.0000    -4.2998    -2.9995    -1.8994    -0.6005     0.4003     1.8994     2.7994     3.8002    31.3400    22.1100    13.8400     6.4800    -5.6200   -10.4100   -14.3900   -16.8000     0.9376     4.6000     4.800
     83     0.0000    -0.0000     3.6800    -0.2000      4.722     13.000  11001.000      5.000   100.5558   141.0625   -77.8750     0.4200    -1.0000    27.8400     0.0000     0.0000    16.9425    36.1522    -1.0000    -1.5000     0.0000     0.0000     0.0000     0.0000    17.0000     8.0000     8.0000    17.0000     0.0000     0.0000   142.0306   -75.9388     0.0000    -4.2998    -2.9995    -1.8994    -0.6005     0.4003     1.8994     2.7994     3.8002    31.3400    22.1100    13.8400     6.4800    -5.6200   -10.4100   -14.3900   -16.8000     0.9350     4.6000     4.800
     84     0.0000    -0.0000     3.6700    -0.2000      4.728     26.000  11001.000      5.000   100.5558   141.0625   -77.8750     0.4200    -1.0000    27.8400     0.0000     0.0000    16.8875    36.0504    -1.0000    -1.5000     0.0000     0.0000     0.0000     0.0000    17.0000     8.0000     8.0000    17.0000     0.0000     0.0000   142.0306   -75.9388     0.0000    -4.2998    -2.9995    -1.8994    -0.6005     0.4003     1.8994     2.7994     3.8002    31.3400    22.1100    13.8400     6.4800    -5.6200   -10.4100   -14.3900   -16.8000     0.9325     4.6000     4.800
     85     0.0000    -0.0000     3.6600    -0.2000      4.769     21.000  11001.000      5.000   100.5558   141.0625   -77.8750     0.4200    -1.0000    27.8400     0.0000     0.0000    16.8300    35.9487    -1.0000    -1.5000     0.0000     0.0000     0.0000     0.0000    17.0000     8.0000     8.0000    17.0000     0.0000     0.0000   142.0306   -75.9388     0.0000    -4.2998    -2.9995    -1.8994    -0.6005     0.4003     1.8994     2.7994     3.8002    31.3400    22.1100    13.8400     6.4800    -5.6200   -10.4100   -14.3900   -16.8000     0.9300     4.6000     4.800
     86    -0.0000    -0.0000     3.6500    -0.2000      4.781     21.000  11001.000      5.000   100.5558   141.0625   -77.8750     0.4200    -1.0000    27.8400     0.0000     0.0000    16.7750    35.8470    -1.0000    -1.5000     0.0000     0.0000     0.0000     0.0000    17.0000     8.0000     8.0000    17.0000     0.0000     0.0000   142.0306   -75.9388     0.0000    -4.2998    -2.9995    -1.8994    -0.6005     0.4003     1.8994     2.7994     3.8002    31.3400    22.1100    13.8400     6.4800    -5.6200   -10.4100   -14.3900   -16.8000     0.9274     4.6000     4.800
     87    -0.0000    -0.0000     3.6400    -0.2000      4.704     16.000  11001.000      5.000   100.5558   141.0625   -77.8750     0.4200    -1.0000    27.8400     0.0000     0.0000    16.7200    35.7454    -1.0000    -1.5000     0.0000     0.0000     0.0000     0.0000    17.0000     8.0000     8.0000    17.0000     0.0000     0.0000   142.0306   -75.9388     0.0000    -4.2998    -2.9995    -1.8994    -0.6005     0.4003     1.8994     2.7994     3.8002    31.3400    22.1100    13.8400     6.4800    -5.6200   -10.4100   -14.3900   -16.8000     0.9249     4.6000     4.800
     88     0.0000    -0.0000     3.6300    -0.2000      4.709     19.000  11001.000      5.000   100.5558   141.0625   -77.8750     0.4200    -1.0000    27.8400     0.0000     0.0000    16.6600    35.6438    -1.0000    -1.5000     0.0000     0.0000     0.0000     0.0000    17.0000     8.0000     8.0000    17.0000     0.0000     0.0000   142.0306   -75.9388     0.0000    -4.2998    -2.9995    -1.8994    -0.6005     0.4003     1.8994     2.7994     3.8002    31.3400    22.1100    13.8400     6.4800    -5.6200   -10.4100   -14.3900   -16.8000     0.9223     4.6000     4.800
     89    -0.0000    -0.0000     3.6200    -0.2000      4.720     15.000  11001.000      5.000   100.5558   141.0625   -77.8750     0.4200    -1.0000    27.8400     0.0000     0.0000    16.6050    35.5422    -1.0000    -1.5000     0.0000     0.0000     0.0000     0.0000    17.0000     8.0000     8.0000    17.0000     0.0000     0.0000   142.0306   -75.9388     0.0000    -4.2998    -2.9995    -1.8994    -0.6005     0.4003     1.8994     2.7994     3.8002    31.3400    22.1100    13.8400     6.4800    -5.6200   -10.4100   -14.3900   -16.8000     0.9198     4.6000     4.800
     90     0.0000    -0.0000     3.6100    -0.2000      4.755     22.000  11001.000      5.000   100.5558   141.0625   -77.8750     0.4200    -1.0000    27.8400     0.0000     0.0000    16.5475    35.4406    -1.0000    -1.5000     0.0000     0.0000     0.0000     0.0000    17.0000     8.0000     8.0000    17.0000     0.0000     0.0000   142.0306   -75.9388     0.0000    -4.2998    -2.9995    -1.8994    -0.6005     0.4003     1.8994     2.7994     3.8002    31.3400    22.1100    13.8400     6.4800    -5.6200   -10.4100   -14.3900   -16.8000     0.9173     4.6000     4.800
     91    -0.0000    -0.0000     3.6000    -0.2000      4.651     25.000  11001.000      5.000   100.5558   141.0625   -77.8750     0.4200    -1.0000    27.8400     0.0000     0.0000    16.4925    35.3391    -1.0000    -1.5000     0.0000     0.0000     0.0000     0.0000    17.0000     8.0000     8.0000    17.0000     0.0000     0.0000   142.0306   -75.9388     0.0000    -4.2998    -2.9995    -1.8994    -0.6005     0.4003     1.8994     2.7994     3.8002    31.3400    22.1100    13.8400     6.4800    -5.6200   -10.4100   -14.3900   -16.8000     0.9147     4.6000     4.800
     92     0.0000    -0.0000     3.5900    -0.2000      4.698     18.000  11001.000      5.000   100.5558   141.0625   -77.8750     0.4200    -1.0000    27.8400     0.0000     0.0000    16.4350    35.2376    -1.0000    -1.5000     0.0000     0.0000     0.0000     0.0000    17.0000     8.0000     8.0000    17.0000     0.0000     0.0000   142.0306   -75.9388     0.0000    -4.2998    -2.9995    -1.8994    -0.6005     0.4003     1.8994     2.7994     3.8002    31.3400    22.1100    13.8400     6.4800    -5.6200   -10.4100   -14.3900   -16.8000     0.9122     4.6000     4.800
     93    -0.0000    -0.0000     3.5800    -0.2000      4.755     10.000  11001.000      5.000   100.5558   141.0625   -77.8750     0.4200    -1.0000    27.8400     0.0000     0.0000    16.3800    35.1361    -1.0000    -1.5000     0.0000     0.0000     0.0000     0.0000    17.0000     8.0000     8.0000    17.0000     0.0000     0.0000   142.0306   -75.9388     0.0000    -4.2998    -2.9995    -1.8994    -0.6005     0.4003     1.8994     2.7994     3.8002    31.3400    22.1100    13.8400     6.4800    -5.6200   -10.4100   -14.3900   -16.8000     0.9096     4.6000     4.800
     94    -0.0000    -0.0000     3.5700    -0.2000      4.660     23.000  11001.000      5.000   100.5558   141.0625   -77.8750     0.4200    -1.0000    27.8400     0.0000     0.0000    16.3225    35.0346    -1.0000    -1.5000     0.0000     0.0000     0.0000     0.0000    17.0000     8.0000     8.0000    17.0000     0.0000     0.0000   142.0306   -75.9388     0.0000    -4.2998    -2.9995    -1.8994    -0.6005     0.4003     1.8994     2.7994     3.8002    31.3400    22.1100    13.8400     6.4800    -5.6200   -10.4100   -14.3900   -16.8000     0.9071     4.6000     4.800
     95     0.0000    -0.0000     3.5600    -0.2000      4.726     27.000  11001.000      5.000   100.5558   141.0625   -77.8750     0.4200    -1.0000    27.8400     0.0000     0.0000    16.2625    34.9332    -1.0000    -1.5000     0.0000     0.0000     0.0000     0.0000    17.0000     8.0000     8.0000    17.0000     0.0000     0.0000   142.0306   -75.9388     0.0000    -4.2998    -2.9995    -1.8994    -0.6005     0.4003     1.8994     2.7994     3.8002    31.3400    22.1100    13.8400     6.4800    -5.6200   -10.4100   -14.3900   -16.8000     0.9045     4.6000     4.800
     96    -0.0000    -0.0000     3.5500    -0.2000      4.749     21.000  11001.000      5.000   100.5558   141.0625   -77.8750     0.4200    -1.0000    27.8400     0.0000     0.0000    16.2100    34.8318    -1.0000    -1.5000     0.0000     0.0000     0.0000     0.0000    17.0000     8.0000     8.0000    17.0000     0.0000     0.0000   142.0306   -75.9388     0.0000    -4.2998    -2.9995    -1.8994    -0.6005     0.4003     1.8994     2.7994     3.8002    31.3400    22.1100    13.8400     6.4800    -5.6200   -10.4100   -14.3900   -16.8000     0.9020     4.6000     4.800
     97    -0.0000    -0.0000     3.5400    -0.2000      4.729     17.000  11001.000      5.000   100.5558   141.0625   -77.8750     0.4200    -1.0000    27.8400     0.0000     0.0000    16.1525    34.7304    -1.0000    -1.5000     0.0000     0.0000     0.0000     0.0000    17.0000     8.0000     8.0000    17.0000     0.0000     0.0000   142.0306   -75.9388     0.0000    -4.2998    -2.9995    -1.8994    -0.6005     0.4003     1.8994     2.7994     3.8002    31.3400    22.1100    13.8400     6.4800    -5.6200   -10.4100   -14.3900   -16.8000     0.8995     4.6000     4.800
     98    -0.0000    -0.0000     3.5300    -0.2000      4.808     18.000  11001.000      5.000   100.5558   141.0625   -77.8750     0.4200    -1.0000    27.8400     0.0000     0.0000    16.0950    34.6291    -1.0000    -1.5000     0.0000     0.0000     0.0000     0.0000    17.0000     8.0000     8.0000    17.0000     0.0000     0.0000   142.0306   -75.9388     0.0000    -4.2998    -2.9995    -1.8994    -0.6005     0.4003     1.8994     2.7994     3.8002    31.3400    22.1100    13.8400     6.4800    -5.6200   -10.4100   -14.3900   -16.8000     0.8969     4.6000     4.800
     99     0.0000    -0.0000     3.5200    -0.2000      4.682     17.000  11001.000      5.000   100.5558   141.0625   -77.8750     0.4200    -1.0000    27.8400     0.0000     0.0000    16.0375    34.5278    -1.0000    -1.5000     0.0000     0.0000     0.0000     0.0000    17.0000     8.0000     8.0000    17.0000     0.0000     0.0000   142.0306   -75.9388     0.0000    -4.2998    -2.9995    -1.8994    -0.6005     0.4003     1.8994     2.7994     3.8002    31.3400    22.1100    13.8400     6.4800    -5.6200   -10.4100   -14.3900   -16.8000     0.8944     4.6000     4.800
    100    -0.0000    -0.0000     3.5100    -0.2000      4.784     14.000  11001.000      5.000   100.5558   141.0625   -77.8750     0.4200    -1.0000    27.8400     0.0000     0.0000    15.9825    34.4265    -1.0000    -1.5000     0.0000     0.0000     0.0000     0.0000    17.0000     8.0000     8.0000    17.0000     0.0000     0.0000   142.0306   -75.9388     0.0000    -4.2998    -2.9995    -1.8994    -0.6005     0.4003     1.8994     2.7994     3.8002    31.3400    22.1100    13.8400     6.4800    -5.6200   -10.4100   -14.3900   -16.8000     0.8918     4.6000     4.800
    101     0.0000    -0.0000     3.5000    -0.2000      4.710     17.000  11001.000      5.000   100.5558   141.0625   -77.8750     0.4200    -1.0000    27.8400     0.0000     0.0000    15.9225    34.3252    -1.0000    -1.5000     0.0000     0.0000     0.0000     0.0000    17.0000     8.0000     8.0000    17.0000     0.0000     0.0000   142.0306   -75.9388     0.0000    -4.2998    -2.9995    -1.8994    -0.6005     0.4003     1.8994     2.7994     3.8002    31.3400    22.1100    13.8400     6.4800    -5.6200   -10.4100   -14.3900   -16.8000     0.8893     4.6000     4.800
# Sum of Counts = 16214
# Center of Mass = 4.290025+/-0.047661
# Full Width Half-Maximum = 0.300227+/-0.010345
# 7:13:28 AM  3/13/2025   scan completed.
