# scan = 23
# date = 3/10/2025
# time = 12:20:25 PM
# proposal = 35030
# experiment = CTAX Instrumental resolution benchmarking
# experiment_number = 445
# command = scan h 0 k 0 l 4 e -0.2 0.2 0.01 preset mcu 2
# builtin_command = scan h 0 k 0 l 4 e -0.2 0.2 0.01 preset mcu 2
# users = Tao Hong, Tao Hong, Bing Li
# local_contact = Tao Hong
# scan_title = (004) scans
# monochromator = PG002
# analyzer = Pg002
# sense = -+-
# collimation = 48-40-40-120
# samplename = LaN
# sampletype = crystal
# samplemosaic = 30.000000
# latticeconstants = 5.058628,5.058628,24.728465,90.000000,90.000000,120.000000
# ubmatrix = -0.002928,0.001986,-0.040430,-0.228168,-0.119258,0.000500,-0.005924,0.194622,0.000719
# mode = 0
# plane_normal = 0.017452,-0.026173,0.999505
# ubconf = UB10Mar2025_114214AM.ini
# preset_type = normal 
# preset_channel = mcu
# preset_value = 2.000000
# def_x = e
# def_y = detector
# col_headers = 
#   Pt.          h          k          l          e       time   detector    monitor        mcu focal_length         m1         m2       marc     mtrans     mfocus   vti_temp  smpl_temp         s1         s2        sgl        sgu        bbb        bbl        bbr        bbt        bab        bal        bar        bat        stl        stu         a1         a2     afocus        qm1        qm2        qm3        qm4        qm5        qm6        qm7        qm8        xm1        xm2        xm3        xm4        xm5        xm6        xm7        xm8          q         ei         ef
# Mon, Mar 10, 2025 [12:20:37 PM] : SPICE Error in Common.lvlib:Common_Commands.lvlib:drive_motors.vi.
# m2 hit lower controller software limit 
      2     0.0106     0.0000     4.0197    -0.0900      0.000      0.000      0.000      0.000   100.4515   141.1127   -76.7918     0.4200    -1.0000    27.8600     0.0000     0.0000    18.8250    39.4036    -1.0000    -1.5000     0.0000     0.0000     0.0000     0.0000    17.0000     8.0000     8.0000    17.0000     0.0000     0.0000   142.0306   -75.9388     0.0000     0.0000     0.0000     0.0000     0.0000     0.0000     0.0000     0.0000     0.0000     0.0000     0.0000     0.0000     0.0000     0.0000     0.0000     0.0000     0.0000     1.0215     4.7100     4.800
# Sum of Counts = 0
# Center of Mass = NaN+/-NaN
# Full Width Half-Maximum = NaN+/-NaN
# 12:20:49 PM  3/10/2025   scan stopped!!
