# scan = 219
# date = 3/12/2025
# time = 2:35:45 PM
# proposal = 35030
# experiment = CTAX Instrumental resolution benchmarking
# experiment_number = 445
# command = scan h 1 k 0 l 7.5 6.5 0.01 e -0.2 preset mcu 5
# builtin_command = scan h 1 k 0 l 7.5 6.5 0.01 e -0.2 preset mcu 5
# users = Tao Hong, Tao Hong, Bing Li
# local_contact = Tao Hong
# scan_title = (10L) scan at E=-0.2 meV and hori-focusing
# monochromator = PG002
# analyzer = Pg002
# sense = -+-
# collimation = 48-40-40-120
# samplename = LaN
# sampletype = crystal
# samplemosaic = 30.000000
# latticeconstants = 5.058628,5.058628,24.728465,90.000000,90.000000,120.000000
# ubmatrix = -0.002928,0.001986,-0.040430,-0.228168,-0.119258,0.000500,-0.005924,0.194622,0.000719
# mode = 0
# plane_normal = 0.017452,-0.026173,0.999505
# ubconf = UB10Mar2025_114214AM.ini
# preset_type = normal 
# preset_channel = mcu
# preset_value = 5.000000
# def_x = l
# def_y = detector
# col_headers = 
#   Pt.          h          k          l          e       time   detector    monitor        mcu focal_length         m1         m2       marc     mtrans     mfocus   vti_temp  smpl_temp         s1         s2        sgl        sgu        bbb        bbl        bbr        bbt        bab        bal        bar        bat        stl        stu         a1         a2     afocus        qm1        qm2        qm3        qm4        qm5        qm6        qm7        qm8        xm1        xm2        xm3        xm4        xm5        xm6        xm7        xm8          q         ei         ef
      1     1.0000    -0.0000     7.5000    -0.2000      4.691     24.000  11001.000      5.000   100.5558   141.0625   -77.8750     0.4200    -1.0000    27.8400     0.0000     0.0000    15.6575   104.7159    -1.0000    -1.5000     0.0000     0.0000     0.0000     0.0000    17.0000     8.0000     8.0000    17.0000     0.0000     0.0000   142.0306   -75.9388     0.0000    -4.2998    -2.9995    -1.8994    -0.6005     0.4003     1.8994     2.7994     3.8002    31.3400    22.1100    13.8400     6.4800    -5.6200   -10.4100   -14.3900   -16.8000     2.3851     4.6000     4.800
      2     1.0000    -0.0000     7.4899    -0.2000      4.819     26.000  11001.000      5.000   100.5558   141.0625   -77.8750     0.4200    -1.0000    27.8400     0.0000     0.0000    15.5550   104.5895    -1.0000    -1.5000     0.0000     0.0000     0.0000     0.0000    17.0000     8.0000     8.0000    17.0000     0.0000     0.0000   142.0306   -75.9388     0.0000    -4.2998    -2.9995    -1.8994    -0.6005     0.4003     1.8994     2.7994     3.8002    31.3400    22.1100    13.8400     6.4800    -5.6200   -10.4100   -14.3900   -16.8000     2.3830     4.6000     4.800
      3     0.9999    -0.0000     7.4802    -0.2000      4.789     20.000  11001.000      5.000   100.5558   141.0625   -77.8750     0.4200    -1.0000    27.8400     0.0000     0.0000    15.4575   104.4634    -1.0000    -1.5000     0.0000     0.0000     0.0000     0.0000    17.0000     8.0000     8.0000    17.0000     0.0000     0.0000   142.0306   -75.9388     0.0000    -4.2998    -2.9995    -1.8994    -0.6005     0.4003     1.8994     2.7994     3.8002    31.3400    22.1100    13.8400     6.4800    -5.6200   -10.4100   -14.3900   -16.8000     2.3810     4.6000     4.800
      4     1.0000    -0.0000     7.4701    -0.2000      4.742     11.000  11001.000      5.000   100.5558   141.0625   -77.8750     0.4200    -1.0000    27.8400     0.0000     0.0000    15.3550   104.3375    -1.0000    -1.5000     0.0000     0.0000     0.0000     0.0000    17.0000     8.0000     8.0000    17.0000     0.0000     0.0000   142.0306   -75.9388     0.0000    -4.2998    -2.9995    -1.8994    -0.6005     0.4003     1.8994     2.7994     3.8002    31.3400    22.1100    13.8400     6.4800    -5.6200   -10.4100   -14.3900   -16.8000     2.3790     4.6000     4.800
      5     1.0000    -0.0000     7.4599    -0.2000      4.697     16.000  11001.000      5.000   100.5558   141.0625   -77.8750     0.4200    -1.0000    27.8400     0.0000     0.0000    15.2525   104.2118    -1.0000    -1.5000     0.0000     0.0000     0.0000     0.0000    17.0000     8.0000     8.0000    17.0000     0.0000     0.0000   142.0306   -75.9388     0.0000    -4.2998    -2.9995    -1.8994    -0.6005     0.4003     1.8994     2.7994     3.8002    31.3400    22.1100    13.8400     6.4800    -5.6200   -10.4100   -14.3900   -16.8000     2.3769     4.6000     4.800
      6     0.9999    -0.0000     7.4502    -0.2000      4.760     17.000  11001.000      5.000   100.5558   141.0625   -77.8750     0.4200    -1.0000    27.8400     0.0000     0.0000    15.1550   104.0864    -1.0000    -1.5000     0.0000     0.0000     0.0000     0.0000    17.0000     8.0000     8.0000    17.0000     0.0000     0.0000   142.0306   -75.9388     0.0000    -4.2998    -2.9995    -1.8994    -0.6005     0.4003     1.8994     2.7994     3.8002    31.3400    22.1100    13.8400     6.4800    -5.6200   -10.4100   -14.3900   -16.8000     2.3749     4.6000     4.800
      7     1.0000    -0.0000     7.4398    -0.2000      4.786     21.000  11001.000      5.000   100.5558   141.0625   -77.8750     0.4200    -1.0000    27.8400     0.0000     0.0000    15.0500   103.9612    -1.0000    -1.5000     0.0000     0.0000     0.0000     0.0000    17.0000     8.0000     8.0000    17.0000     0.0000     0.0000   142.0306   -75.9388     0.0000    -4.2998    -2.9995    -1.8994    -0.6005     0.4003     1.8994     2.7994     3.8002    31.3400    22.1100    13.8400     6.4800    -5.6200   -10.4100   -14.3900   -16.8000     2.3729     4.6000     4.800
      8     1.0000    -0.0000     7.4301    -0.2000      4.724     20.000  11001.000      5.000   100.5558   141.0625   -77.8750     0.4200    -1.0000    27.8400     0.0000     0.0000    14.9525   103.8363    -1.0000    -1.5000     0.0000     0.0000     0.0000     0.0000    17.0000     8.0000     8.0000    17.0000     0.0000     0.0000   142.0306   -75.9388     0.0000    -4.2998    -2.9995    -1.8994    -0.6005     0.4003     1.8994     2.7994     3.8002    31.3400    22.1100    13.8400     6.4800    -5.6200   -10.4100   -14.3900   -16.8000     2.3709     4.6000     4.800
      9     1.0000    -0.0000     7.4199    -0.2000      4.750     19.000  11001.000      5.000   100.5558   141.0625   -77.8750     0.4200    -1.0000    27.8400     0.0000     0.0000    14.8500   103.7116    -1.0000    -1.5000     0.0000     0.0000     0.0000     0.0000    17.0000     8.0000     8.0000    17.0000     0.0000     0.0000   142.0306   -75.9388     0.0000    -4.2998    -2.9995    -1.8994    -0.6005     0.4003     1.8994     2.7994     3.8002    31.3400    22.1100    13.8400     6.4800    -5.6200   -10.4100   -14.3900   -16.8000     2.3688     4.6000     4.800
     10     1.0000    -0.0000     7.4100    -0.2000      4.699     18.000  11001.000      5.000   100.5558   141.0625   -77.8750     0.4200    -1.0000    27.8400     0.0000     0.0000    14.7500   103.5872    -1.0000    -1.5000     0.0000     0.0000     0.0000     0.0000    17.0000     8.0000     8.0000    17.0000     0.0000     0.0000   142.0306   -75.9388     0.0000    -4.2998    -2.9995    -1.8994    -0.6005     0.4003     1.8994     2.7994     3.8002    31.3400    22.1100    13.8400     6.4800    -5.6200   -10.4100   -14.3900   -16.8000     2.3668     4.6000     4.800
     11     1.0000    -0.0000     7.4000    -0.2000      4.655     25.000  11001.000      5.000   100.5558   141.0625   -77.8750     0.4200    -1.0000    27.8400     0.0000     0.0000    14.6500   103.4629    -1.0000    -1.5000     0.0000     0.0000     0.0000     0.0000    17.0000     8.0000     8.0000    17.0000     0.0000     0.0000   142.0306   -75.9388     0.0000    -4.2998    -2.9995    -1.8994    -0.6005     0.4003     1.8994     2.7994     3.8002    31.3400    22.1100    13.8400     6.4800    -5.6200   -10.4100   -14.3900   -16.8000     2.3648     4.6000     4.800
     12     1.0000    -0.0000     7.3901    -0.2000      4.729     17.000  11001.000      5.000   100.5558   141.0625   -77.8750     0.4200    -1.0000    27.8400     0.0000     0.0000    14.5500   103.3389    -1.0000    -1.5000     0.0000     0.0000     0.0000     0.0000    17.0000     8.0000     8.0000    17.0000     0.0000     0.0000   142.0306   -75.9388     0.0000    -4.2998    -2.9995    -1.8994    -0.6005     0.4003     1.8994     2.7994     3.8002    31.3400    22.1100    13.8400     6.4800    -5.6200   -10.4100   -14.3900   -16.8000     2.3628     4.6000     4.800
     13     1.0000    -0.0000     7.3801    -0.2000      4.764     14.000  11001.000      5.000   100.5558   141.0625   -77.8750     0.4200    -1.0000    27.8400     0.0000     0.0000    14.4500   103.2151    -1.0000    -1.5000     0.0000     0.0000     0.0000     0.0000    17.0000     8.0000     8.0000    17.0000     0.0000     0.0000   142.0306   -75.9388     0.0000    -4.2998    -2.9995    -1.8994    -0.6005     0.4003     1.8994     2.7994     3.8002    31.3400    22.1100    13.8400     6.4800    -5.6200   -10.4100   -14.3900   -16.8000     2.3608     4.6000     4.800
     14     1.0000    -0.0000     7.3699    -0.2000      4.792     27.000  11001.000      5.000   100.5558   141.0625   -77.8750     0.4200    -1.0000    27.8400     0.0000     0.0000    14.3475   103.0916    -1.0000    -1.5000     0.0000     0.0000     0.0000     0.0000    17.0000     8.0000     8.0000    17.0000     0.0000     0.0000   142.0306   -75.9388     0.0000    -4.2998    -2.9995    -1.8994    -0.6005     0.4003     1.8994     2.7994     3.8002    31.3400    22.1100    13.8400     6.4800    -5.6200   -10.4100   -14.3900   -16.8000     2.3588     4.6000     4.800
     15     1.0000    -0.0000     7.3602    -0.2000      4.647     20.000  11001.000      5.000   100.5558   141.0625   -77.8750     0.4200    -1.0000    27.8400     0.0000     0.0000    14.2500   102.9683    -1.0000    -1.5000     0.0000     0.0000     0.0000     0.0000    17.0000     8.0000     8.0000    17.0000     0.0000     0.0000   142.0306   -75.9388     0.0000    -4.2998    -2.9995    -1.8994    -0.6005     0.4003     1.8994     2.7994     3.8002    31.3400    22.1100    13.8400     6.4800    -5.6200   -10.4100   -14.3900   -16.8000     2.3567     4.6000     4.800
     16     1.0000    -0.0000     7.3502    -0.2000      4.798     21.000  11001.000      5.000   100.5558   141.0625   -77.8750     0.4200    -1.0000    27.8400     0.0000     0.0000    14.1500   102.8452    -1.0000    -1.5000     0.0000     0.0000     0.0000     0.0000    17.0000     8.0000     8.0000    17.0000     0.0000     0.0000   142.0306   -75.9388     0.0000    -4.2998    -2.9995    -1.8994    -0.6005     0.4003     1.8994     2.7994     3.8002    31.3400    22.1100    13.8400     6.4800    -5.6200   -10.4100   -14.3900   -16.8000     2.3547     4.6000     4.800
     17     1.0000    -0.0000     7.3400    -0.2000      4.722     19.000  11001.000      5.000   100.5558   141.0625   -77.8750     0.4200    -1.0000    27.8400     0.0000     0.0000    14.0475   102.7224    -1.0000    -1.5000     0.0000     0.0000     0.0000     0.0000    17.0000     8.0000     8.0000    17.0000     0.0000     0.0000   142.0306   -75.9388     0.0000    -4.2998    -2.9995    -1.8994    -0.6005     0.4003     1.8994     2.7994     3.8002    31.3400    22.1100    13.8400     6.4800    -5.6200   -10.4100   -14.3900   -16.8000     2.3527     4.6000     4.800
     18     1.0000    -0.0000     7.3300    -0.2000      4.779     17.000  11001.000      5.000   100.5558   141.0625   -77.8750     0.4200    -1.0000    27.8400     0.0000     0.0000    13.9475   102.5997    -1.0000    -1.5000     0.0000     0.0000     0.0000     0.0000    17.0000     8.0000     8.0000    17.0000     0.0000     0.0000   142.0306   -75.9388     0.0000    -4.2998    -2.9995    -1.8994    -0.6005     0.4003     1.8994     2.7994     3.8002    31.3400    22.1100    13.8400     6.4800    -5.6200   -10.4100   -14.3900   -16.8000     2.3507     4.6000     4.800
     19     1.0000    -0.0000     7.3200    -0.2000      4.757     24.000  11001.000      5.000   100.5558   141.0625   -77.8750     0.4200    -1.0000    27.8400     0.0000     0.0000    13.8475   102.4773    -1.0000    -1.5000     0.0000     0.0000     0.0000     0.0000    17.0000     8.0000     8.0000    17.0000     0.0000     0.0000   142.0306   -75.9388     0.0000    -4.2998    -2.9995    -1.8994    -0.6005     0.4003     1.8994     2.7994     3.8002    31.3400    22.1100    13.8400     6.4800    -5.6200   -10.4100   -14.3900   -16.8000     2.3487     4.6000     4.800
     20     0.9999    -0.0000     7.3102    -0.2000      4.739     18.000  11001.000      5.000   100.5558   141.0625   -77.8750     0.4200    -1.0000    27.8400     0.0000     0.0000    13.7500   102.3551    -1.0000    -1.5000     0.0000     0.0000     0.0000     0.0000    17.0000     8.0000     8.0000    17.0000     0.0000     0.0000   142.0306   -75.9388     0.0000    -4.2998    -2.9995    -1.8994    -0.6005     0.4003     1.8994     2.7994     3.8002    31.3400    22.1100    13.8400     6.4800    -5.6200   -10.4100   -14.3900   -16.8000     2.3467     4.6000     4.800
     21     1.0000    -0.0000     7.3000    -0.2000      4.733     27.000  11001.000      5.000   100.5558   141.0625   -77.8750     0.4200    -1.0000    27.8400     0.0000     0.0000    13.6475   102.2332    -1.0000    -1.5000     0.0000     0.0000     0.0000     0.0000    17.0000     8.0000     8.0000    17.0000     0.0000     0.0000   142.0306   -75.9388     0.0000    -4.2998    -2.9995    -1.8994    -0.6005     0.4003     1.8994     2.7994     3.8002    31.3400    22.1100    13.8400     6.4800    -5.6200   -10.4100   -14.3900   -16.8000     2.3447     4.6000     4.800
     22     1.0000    -0.0000     7.2900    -0.2000      4.760     13.000  11001.000      5.000   100.5558   141.0625   -77.8750     0.4200    -1.0000    27.8400     0.0000     0.0000    13.5475   102.1114    -1.0000    -1.5000     0.0000     0.0000     0.0000     0.0000    17.0000     8.0000     8.0000    17.0000     0.0000     0.0000   142.0306   -75.9388     0.0000    -4.2998    -2.9995    -1.8994    -0.6005     0.4003     1.8994     2.7994     3.8002    31.3400    22.1100    13.8400     6.4800    -5.6200   -10.4100   -14.3900   -16.8000     2.3426     4.6000     4.800
     23     1.0000    -0.0000     7.2800    -0.2000      4.753     15.000  11001.000      5.000   100.5558   141.0625   -77.8750     0.4200    -1.0000    27.8400     0.0000     0.0000    13.4475   101.9899    -1.0000    -1.5000     0.0000     0.0000     0.0000     0.0000    17.0000     8.0000     8.0000    17.0000     0.0000     0.0000   142.0306   -75.9388     0.0000    -4.2998    -2.9995    -1.8994    -0.6005     0.4003     1.8994     2.7994     3.8002    31.3400    22.1100    13.8400     6.4800    -5.6200   -10.4100   -14.3900   -16.8000     2.3406     4.6000     4.800
     24     1.0000    -0.0000     7.2700    -0.2000      4.752     16.000  11001.000      5.000   100.5558   141.0625   -77.8750     0.4200    -1.0000    27.8400     0.0000     0.0000    13.3475   101.8686    -1.0000    -1.5000     0.0000     0.0000     0.0000     0.0000    17.0000     8.0000     8.0000    17.0000     0.0000     0.0000   142.0306   -75.9388     0.0000    -4.2998    -2.9995    -1.8994    -0.6005     0.4003     1.8994     2.7994     3.8002    31.3400    22.1100    13.8400     6.4800    -5.6200   -10.4100   -14.3900   -16.8000     2.3386     4.6000     4.800
     25     1.0000    -0.0000     7.2602    -0.2000      4.662     23.000  11001.000      5.000   100.5558   141.0625   -77.8750     0.4200    -1.0000    27.8400     0.0000     0.0000    13.2500   101.7476    -1.0000    -1.5000     0.0000     0.0000     0.0000     0.0000    17.0000     8.0000     8.0000    17.0000     0.0000     0.0000   142.0306   -75.9388     0.0000    -4.2998    -2.9995    -1.8994    -0.6005     0.4003     1.8994     2.7994     3.8002    31.3400    22.1100    13.8400     6.4800    -5.6200   -10.4100   -14.3900   -16.8000     2.3366     4.6000     4.800
     26     1.0000    -0.0000     7.2499    -0.2000      4.752     20.000  11001.000      5.000   100.5558   141.0625   -77.8750     0.4200    -1.0000    27.8400     0.0000     0.0000    13.1475   101.6267    -1.0000    -1.5000     0.0000     0.0000     0.0000     0.0000    17.0000     8.0000     8.0000    17.0000     0.0000     0.0000   142.0306   -75.9388     0.0000    -4.2998    -2.9995    -1.8994    -0.6005     0.4003     1.8994     2.7994     3.8002    31.3400    22.1100    13.8400     6.4800    -5.6200   -10.4100   -14.3900   -16.8000     2.3346     4.6000     4.800
     27     1.0001    -0.0000     7.2396    -0.2000      4.718     29.000  11001.000      5.000   100.5558   141.0625   -77.8750     0.4200    -1.0000    27.8400     0.0000     0.0000    13.0450   101.5061    -1.0000    -1.5000     0.0000     0.0000     0.0000     0.0000    17.0000     8.0000     8.0000    17.0000     0.0000     0.0000   142.0306   -75.9388     0.0000    -4.2998    -2.9995    -1.8994    -0.6005     0.4003     1.8994     2.7994     3.8002    31.3400    22.1100    13.8400     6.4800    -5.6200   -10.4100   -14.3900   -16.8000     2.3326     4.6000     4.800
     28     1.0000    -0.0000     7.2301    -0.2000      4.722     17.000  11001.000      5.000   100.5558   141.0625   -77.8750     0.4200    -1.0000    27.8400     0.0000     0.0000    12.9500   101.3857    -1.0000    -1.5000     0.0000     0.0000     0.0000     0.0000    17.0000     8.0000     8.0000    17.0000     0.0000     0.0000   142.0306   -75.9388     0.0000    -4.2998    -2.9995    -1.8994    -0.6005     0.4003     1.8994     2.7994     3.8002    31.3400    22.1100    13.8400     6.4800    -5.6200   -10.4100   -14.3900   -16.8000     2.3306     4.6000     4.800
     29     1.0000    -0.0000     7.2201    -0.2000      4.731     28.000  11001.000      5.000   100.5558   141.0625   -77.8750     0.4200    -1.0000    27.8400     0.0000     0.0000    12.8500   101.2655    -1.0000    -1.5000     0.0000     0.0000     0.0000     0.0000    17.0000     8.0000     8.0000    17.0000     0.0000     0.0000   142.0306   -75.9388     0.0000    -4.2998    -2.9995    -1.8994    -0.6005     0.4003     1.8994     2.7994     3.8002    31.3400    22.1100    13.8400     6.4800    -5.6200   -10.4100   -14.3900   -16.8000     2.3286     4.6000     4.800
     30     1.0000    -0.0000     7.2100    -0.2000      4.687     41.000  11001.000      5.000   100.5558   141.0625   -77.8750     0.4200    -1.0000    27.8400     0.0000     0.0000    12.7500   101.1455    -1.0000    -1.5000     0.0000     0.0000     0.0000     0.0000    17.0000     8.0000     8.0000    17.0000     0.0000     0.0000   142.0306   -75.9388     0.0000    -4.2998    -2.9995    -1.8994    -0.6005     0.4003     1.8994     2.7994     3.8002    31.3400    22.1100    13.8400     6.4800    -5.6200   -10.4100   -14.3900   -16.8000     2.3266     4.6000     4.800
     31     1.0000    -0.0000     7.2000    -0.2000      4.739     46.000  11001.000      5.000   100.5558   141.0625   -77.8750     0.4200    -1.0000    27.8400     0.0000     0.0000    12.6500   101.0258    -1.0000    -1.5000     0.0000     0.0000     0.0000     0.0000    17.0000     8.0000     8.0000    17.0000     0.0000     0.0000   142.0306   -75.9388     0.0000    -4.2998    -2.9995    -1.8994    -0.6005     0.4003     1.8994     2.7994     3.8002    31.3400    22.1100    13.8400     6.4800    -5.6200   -10.4100   -14.3900   -16.8000     2.3246     4.6000     4.800
     32     1.0000    -0.0000     7.1899    -0.2000      4.698     98.000  11001.000      5.000   100.5558   141.0625   -77.8750     0.4200    -1.0000    27.8400     0.0000     0.0000    12.5500   100.9062    -1.0000    -1.5000     0.0000     0.0000     0.0000     0.0000    17.0000     8.0000     8.0000    17.0000     0.0000     0.0000   142.0306   -75.9388     0.0000    -4.2998    -2.9995    -1.8994    -0.6005     0.4003     1.8994     2.7994     3.8002    31.3400    22.1100    13.8400     6.4800    -5.6200   -10.4100   -14.3900   -16.8000     2.3226     4.6000     4.800
     33     1.0000    -0.0000     7.1799    -0.2000      4.715    279.000  11001.000      5.000   100.5558   141.0625   -77.8750     0.4200    -1.0000    27.8400     0.0000     0.0000    12.4500   100.7869    -1.0000    -1.5000     0.0000     0.0000     0.0000     0.0000    17.0000     8.0000     8.0000    17.0000     0.0000     0.0000   142.0306   -75.9388     0.0000    -4.2998    -2.9995    -1.8994    -0.6005     0.4003     1.8994     2.7994     3.8002    31.3400    22.1100    13.8400     6.4800    -5.6200   -10.4100   -14.3900   -16.8000     2.3206     4.6000     4.800
     34     1.0000    -0.0000     7.1701    -0.2000      4.816    450.000  11001.000      5.000   100.5558   141.0625   -77.8750     0.4200    -1.0000    27.8400     0.0000     0.0000    12.3525   100.6678    -1.0000    -1.5000     0.0000     0.0000     0.0000     0.0000    17.0000     8.0000     8.0000    17.0000     0.0000     0.0000   142.0306   -75.9388     0.0000    -4.2998    -2.9995    -1.8994    -0.6005     0.4003     1.8994     2.7994     3.8002    31.3400    22.1100    13.8400     6.4800    -5.6200   -10.4100   -14.3900   -16.8000     2.3186     4.6000     4.800
     35     0.9999    -0.0000     7.1603    -0.2000      4.744   1084.000  11001.000      5.000   100.5558   141.0625   -77.8750     0.4200    -1.0000    27.8400     0.0000     0.0000    12.2550   100.5488    -1.0000    -1.5000     0.0000     0.0000     0.0000     0.0000    17.0000     8.0000     8.0000    17.0000     0.0000     0.0000   142.0306   -75.9388     0.0000    -4.2998    -2.9995    -1.8994    -0.6005     0.4003     1.8994     2.7994     3.8002    31.3400    22.1100    13.8400     6.4800    -5.6200   -10.4100   -14.3900   -16.8000     2.3166     4.6000     4.800
     36     1.0000    -0.0000     7.1500    -0.2000      4.735   1263.000  11001.000      5.000   100.5558   141.0625   -77.8750     0.4200    -1.0000    27.8400     0.0000     0.0000    12.1525   100.4302    -1.0000    -1.5000     0.0000     0.0000     0.0000     0.0000    17.0000     8.0000     8.0000    17.0000     0.0000     0.0000   142.0306   -75.9388     0.0000    -4.2998    -2.9995    -1.8994    -0.6005     0.4003     1.8994     2.7994     3.8002    31.3400    22.1100    13.8400     6.4800    -5.6200   -10.4100   -14.3900   -16.8000     2.3146     4.6000     4.800
     37     1.0000    -0.0000     7.1401    -0.2000      4.806   2110.000  11001.000      5.000   100.5558   141.0625   -77.8750     0.4200    -1.0000    27.8400     0.0000     0.0000    12.0550   100.3117    -1.0000    -1.5000     0.0000     0.0000     0.0000     0.0000    17.0000     8.0000     8.0000    17.0000     0.0000     0.0000   142.0306   -75.9388     0.0000    -4.2998    -2.9995    -1.8994    -0.6005     0.4003     1.8994     2.7994     3.8002    31.3400    22.1100    13.8400     6.4800    -5.6200   -10.4100   -14.3900   -16.8000     2.3126     4.6000     4.800
     38     1.0000    -0.0000     7.1298    -0.2000      4.748   1586.000  11001.000      5.000   100.5558   141.0625   -77.8750     0.4200    -1.0000    27.8400     0.0000     0.0000    11.9525   100.1934    -1.0000    -1.5000     0.0000     0.0000     0.0000     0.0000    17.0000     8.0000     8.0000    17.0000     0.0000     0.0000   142.0306   -75.9388     0.0000    -4.2998    -2.9995    -1.8994    -0.6005     0.4003     1.8994     2.7994     3.8002    31.3400    22.1100    13.8400     6.4800    -5.6200   -10.4100   -14.3900   -16.8000     2.3106     4.6000     4.800
     39     1.0000    -0.0000     7.1200    -0.2000      4.758   1548.000  11001.000      5.000   100.5558   141.0625   -77.8750     0.4200    -1.0000    27.8400     0.0000     0.0000    11.8550   100.0753    -1.0000    -1.5000     0.0000     0.0000     0.0000     0.0000    17.0000     8.0000     8.0000    17.0000     0.0000     0.0000   142.0306   -75.9388     0.0000    -4.2998    -2.9995    -1.8994    -0.6005     0.4003     1.8994     2.7994     3.8002    31.3400    22.1100    13.8400     6.4800    -5.6200   -10.4100   -14.3900   -16.8000     2.3086     4.6000     4.800
     40     1.0000    -0.0000     7.1099    -0.2000      4.782   1092.000  11001.000      5.000   100.5558   141.0625   -77.8750     0.4200    -1.0000    27.8400     0.0000     0.0000    11.7550    99.9575    -1.0000    -1.5000     0.0000     0.0000     0.0000     0.0000    17.0000     8.0000     8.0000    17.0000     0.0000     0.0000   142.0306   -75.9388     0.0000    -4.2998    -2.9995    -1.8994    -0.6005     0.4003     1.8994     2.7994     3.8002    31.3400    22.1100    13.8400     6.4800    -5.6200   -10.4100   -14.3900   -16.8000     2.3067     4.6000     4.800
     41     0.9999    -0.0000     7.1003    -0.2000      4.711    798.000  11001.000      5.000   100.5558   141.0625   -77.8750     0.4200    -1.0000    27.8400     0.0000     0.0000    11.6600    99.8398    -1.0000    -1.5000     0.0000     0.0000     0.0000     0.0000    17.0000     8.0000     8.0000    17.0000     0.0000     0.0000   142.0306   -75.9388     0.0000    -4.2998    -2.9995    -1.8994    -0.6005     0.4003     1.8994     2.7994     3.8002    31.3400    22.1100    13.8400     6.4800    -5.6200   -10.4100   -14.3900   -16.8000     2.3047     4.6000     4.800
     42     1.0001    -0.0000     7.0897    -0.2000      4.706    569.000  11001.000      5.000   100.5558   141.0625   -77.8750     0.4200    -1.0000    27.8400     0.0000     0.0000    11.5550    99.7224    -1.0000    -1.5000     0.0000     0.0000     0.0000     0.0000    17.0000     8.0000     8.0000    17.0000     0.0000     0.0000   142.0306   -75.9388     0.0000    -4.2998    -2.9995    -1.8994    -0.6005     0.4003     1.8994     2.7994     3.8002    31.3400    22.1100    13.8400     6.4800    -5.6200   -10.4100   -14.3900   -16.8000     2.3027     4.6000     4.800
     43     1.0000    -0.0000     7.0801    -0.2000      4.807    178.000  11001.000      5.000   100.5558   141.0625   -77.8750     0.4200    -1.0000    27.8400     0.0000     0.0000    11.4600    99.6052    -1.0000    -1.5000     0.0000     0.0000     0.0000     0.0000    17.0000     8.0000     8.0000    17.0000     0.0000     0.0000   142.0306   -75.9388     0.0000    -4.2998    -2.9995    -1.8994    -0.6005     0.4003     1.8994     2.7994     3.8002    31.3400    22.1100    13.8400     6.4800    -5.6200   -10.4100   -14.3900   -16.8000     2.3007     4.6000     4.800
     44     1.0000    -0.0000     7.0701    -0.2000      4.798     92.000  11001.000      5.000   100.5558   141.0625   -77.8750     0.4200    -1.0000    27.8400     0.0000     0.0000    11.3600    99.4881    -1.0000    -1.5000     0.0000     0.0000     0.0000     0.0000    17.0000     8.0000     8.0000    17.0000     0.0000     0.0000   142.0306   -75.9388     0.0000    -4.2998    -2.9995    -1.8994    -0.6005     0.4003     1.8994     2.7994     3.8002    31.3400    22.1100    13.8400     6.4800    -5.6200   -10.4100   -14.3900   -16.8000     2.2987     4.6000     4.800
     45     1.0000    -0.0000     7.0600    -0.2000      4.681     81.000  11001.000      5.000   100.5558   141.0625   -77.8750     0.4200    -1.0000    27.8400     0.0000     0.0000    11.2600    99.3713    -1.0000    -1.5000     0.0000     0.0000     0.0000     0.0000    17.0000     8.0000     8.0000    17.0000     0.0000     0.0000   142.0306   -75.9388     0.0000    -4.2998    -2.9995    -1.8994    -0.6005     0.4003     1.8994     2.7994     3.8002    31.3400    22.1100    13.8400     6.4800    -5.6200   -10.4100   -14.3900   -16.8000     2.2967     4.6000     4.800
     46     1.0000    -0.0000     7.0499    -0.2000      4.688     58.000  11001.000      5.000   100.5558   141.0625   -77.8750     0.4200    -1.0000    27.8400     0.0000     0.0000    11.1600    99.2547    -1.0000    -1.5000     0.0000     0.0000     0.0000     0.0000    17.0000     8.0000     8.0000    17.0000     0.0000     0.0000   142.0306   -75.9388     0.0000    -4.2998    -2.9995    -1.8994    -0.6005     0.4003     1.8994     2.7994     3.8002    31.3400    22.1100    13.8400     6.4800    -5.6200   -10.4100   -14.3900   -16.8000     2.2947     4.6000     4.800
     47     0.9999    -0.0000     7.0402    -0.2000      4.771     50.000  11001.000      5.000   100.5558   141.0625   -77.8750     0.4200    -1.0000    27.8400     0.0000     0.0000    11.0650    99.1383    -1.0000    -1.5000     0.0000     0.0000     0.0000     0.0000    17.0000     8.0000     8.0000    17.0000     0.0000     0.0000   142.0306   -75.9388     0.0000    -4.2998    -2.9995    -1.8994    -0.6005     0.4003     1.8994     2.7994     3.8002    31.3400    22.1100    13.8400     6.4800    -5.6200   -10.4100   -14.3900   -16.8000     2.2928     4.6000     4.800
     48     1.0000    -0.0000     7.0299    -0.2000      4.793     66.000  11001.000      5.000   100.5558   141.0625   -77.8750     0.4200    -1.0000    27.8400     0.0000     0.0000    10.9625    99.0221    -1.0000    -1.5000     0.0000     0.0000     0.0000     0.0000    17.0000     8.0000     8.0000    17.0000     0.0000     0.0000   142.0306   -75.9388     0.0000    -4.2998    -2.9995    -1.8994    -0.6005     0.4003     1.8994     2.7994     3.8002    31.3400    22.1100    13.8400     6.4800    -5.6200   -10.4100   -14.3900   -16.8000     2.2908     4.6000     4.800
     49     1.0000    -0.0000     7.0200    -0.2000      4.718     73.000  11001.000      5.000   100.5558   141.0625   -77.8750     0.4200    -1.0000    27.8400     0.0000     0.0000    10.8650    98.9060    -1.0000    -1.5000     0.0000     0.0000     0.0000     0.0000    17.0000     8.0000     8.0000    17.0000     0.0000     0.0000   142.0306   -75.9388     0.0000    -4.2998    -2.9995    -1.8994    -0.6005     0.4003     1.8994     2.7994     3.8002    31.3400    22.1100    13.8400     6.4800    -5.6200   -10.4100   -14.3900   -16.8000     2.2888     4.6000     4.800
     50     1.0000    -0.0000     7.0099    -0.2000      4.724     70.000  11001.000      5.000   100.5558   141.0625   -77.8750     0.4200    -1.0000    27.8400     0.0000     0.0000    10.7650    98.7902    -1.0000    -1.5000     0.0000     0.0000     0.0000     0.0000    17.0000     8.0000     8.0000    17.0000     0.0000     0.0000   142.0306   -75.9388     0.0000    -4.2998    -2.9995    -1.8994    -0.6005     0.4003     1.8994     2.7994     3.8002    31.3400    22.1100    13.8400     6.4800    -5.6200   -10.4100   -14.3900   -16.8000     2.2868     4.6000     4.800
     51     1.0000    -0.0000     7.0001    -0.2000      4.716     46.000  11001.000      5.000   100.5558   141.0625   -77.8750     0.4200    -1.0000    27.8400     0.0000     0.0000    10.6675    98.6746    -1.0000    -1.5000     0.0000     0.0000     0.0000     0.0000    17.0000     8.0000     8.0000    17.0000     0.0000     0.0000   142.0306   -75.9388     0.0000    -4.2998    -2.9995    -1.8994    -0.6005     0.4003     1.8994     2.7994     3.8002    31.3400    22.1100    13.8400     6.4800    -5.6200   -10.4100   -14.3900   -16.8000     2.2848     4.6000     4.800
     52     1.0000    -0.0000     6.9902    -0.2000      4.710     42.000  11001.000      5.000   100.5558   141.0625   -77.8750     0.4200    -1.0000    27.8400     0.0000     0.0000    10.5700    98.5592    -1.0000    -1.5000     0.0000     0.0000     0.0000     0.0000    17.0000     8.0000     8.0000    17.0000     0.0000     0.0000   142.0306   -75.9388     0.0000    -4.2998    -2.9995    -1.8994    -0.6005     0.4003     1.8994     2.7994     3.8002    31.3400    22.1100    13.8400     6.4800    -5.6200   -10.4100   -14.3900   -16.8000     2.2829     4.6000     4.800
     53     1.0000    -0.0000     6.9801    -0.2000      4.711     43.000  11001.000      5.000   100.5558   141.0625   -77.8750     0.4200    -1.0000    27.8400     0.0000     0.0000    10.4700    98.4440    -1.0000    -1.5000     0.0000     0.0000     0.0000     0.0000    17.0000     8.0000     8.0000    17.0000     0.0000     0.0000   142.0306   -75.9388     0.0000    -4.2998    -2.9995    -1.8994    -0.6005     0.4003     1.8994     2.7994     3.8002    31.3400    22.1100    13.8400     6.4800    -5.6200   -10.4100   -14.3900   -16.8000     2.2809     4.6000     4.800
     54     1.0000    -0.0000     6.9699    -0.2000      4.696     40.000  11001.000      5.000   100.5558   141.0625   -77.8750     0.4200    -1.0000    27.8400     0.0000     0.0000    10.3700    98.3290    -1.0000    -1.5000     0.0000     0.0000     0.0000     0.0000    17.0000     8.0000     8.0000    17.0000     0.0000     0.0000   142.0306   -75.9388     0.0000    -4.2998    -2.9995    -1.8994    -0.6005     0.4003     1.8994     2.7994     3.8002    31.3400    22.1100    13.8400     6.4800    -5.6200   -10.4100   -14.3900   -16.8000     2.2789     4.6000     4.800
     55     1.0000    -0.0000     6.9601    -0.2000      4.726     36.000  11001.000      5.000   100.5558   141.0625   -77.8750     0.4200    -1.0000    27.8400     0.0000     0.0000    10.2725    98.2142    -1.0000    -1.5000     0.0000     0.0000     0.0000     0.0000    17.0000     8.0000     8.0000    17.0000     0.0000     0.0000   142.0306   -75.9388     0.0000    -4.2998    -2.9995    -1.8994    -0.6005     0.4003     1.8994     2.7994     3.8002    31.3400    22.1100    13.8400     6.4800    -5.6200   -10.4100   -14.3900   -16.8000     2.2769     4.6000     4.800
     56     1.0000    -0.0000     6.9499    -0.2000      4.770     32.000  11001.000      5.000   100.5558   141.0625   -77.8750     0.4200    -1.0000    27.8400     0.0000     0.0000    10.1725    98.0996    -1.0000    -1.5000     0.0000     0.0000     0.0000     0.0000    17.0000     8.0000     8.0000    17.0000     0.0000     0.0000   142.0306   -75.9388     0.0000    -4.2998    -2.9995    -1.8994    -0.6005     0.4003     1.8994     2.7994     3.8002    31.3400    22.1100    13.8400     6.4800    -5.6200   -10.4100   -14.3900   -16.8000     2.2750     4.6000     4.800
     57     1.0000    -0.0000     6.9400    -0.2000      4.714     31.000  11001.000      5.000   100.5558   141.0625   -77.8750     0.4200    -1.0000    27.8400     0.0000     0.0000    10.0750    97.9852    -1.0000    -1.5000     0.0000     0.0000     0.0000     0.0000    17.0000     8.0000     8.0000    17.0000     0.0000     0.0000   142.0306   -75.9388     0.0000    -4.2998    -2.9995    -1.8994    -0.6005     0.4003     1.8994     2.7994     3.8002    31.3400    22.1100    13.8400     6.4800    -5.6200   -10.4100   -14.3900   -16.8000     2.2730     4.6000     4.800
     58     1.0000    -0.0000     6.9299    -0.2000      4.707     21.000  11001.000      5.000   100.5558   141.0625   -77.8750     0.4200    -1.0000    27.8400     0.0000     0.0000     9.9750    97.8710    -1.0000    -1.5000     0.0000     0.0000     0.0000     0.0000    17.0000     8.0000     8.0000    17.0000     0.0000     0.0000   142.0306   -75.9388     0.0000    -4.2998    -2.9995    -1.8994    -0.6005     0.4003     1.8994     2.7994     3.8002    31.3400    22.1100    13.8400     6.4800    -5.6200   -10.4100   -14.3900   -16.8000     2.2710     4.6000     4.800
     59     1.0000    -0.0000     6.9200    -0.2000      4.725     26.000  11001.000      5.000   100.5558   141.0625   -77.8750     0.4200    -1.0000    27.8400     0.0000     0.0000     9.8775    97.7570    -1.0000    -1.5000     0.0000     0.0000     0.0000     0.0000    17.0000     8.0000     8.0000    17.0000     0.0000     0.0000   142.0306   -75.9388     0.0000    -4.2998    -2.9995    -1.8994    -0.6005     0.4003     1.8994     2.7994     3.8002    31.3400    22.1100    13.8400     6.4800    -5.6200   -10.4100   -14.3900   -16.8000     2.2690     4.6000     4.800
     60     1.0000    -0.0000     6.9101    -0.2000      4.748     11.000  11001.000      5.000   100.5558   141.0625   -77.8750     0.4200    -1.0000    27.8400     0.0000     0.0000     9.7800    97.6432    -1.0000    -1.5000     0.0000     0.0000     0.0000     0.0000    17.0000     8.0000     8.0000    17.0000     0.0000     0.0000   142.0306   -75.9388     0.0000    -4.2998    -2.9995    -1.8994    -0.6005     0.4003     1.8994     2.7994     3.8002    31.3400    22.1100    13.8400     6.4800    -5.6200   -10.4100   -14.3900   -16.8000     2.2671     4.6000     4.800
     61     1.0000    -0.0000     6.9000    -0.2000      4.696     20.000  11001.000      5.000   100.5558   141.0625   -77.8750     0.4200    -1.0000    27.8400     0.0000     0.0000     9.6800    97.5295    -1.0000    -1.5000     0.0000     0.0000     0.0000     0.0000    17.0000     8.0000     8.0000    17.0000     0.0000     0.0000   142.0306   -75.9388     0.0000    -4.2998    -2.9995    -1.8994    -0.6005     0.4003     1.8994     2.7994     3.8002    31.3400    22.1100    13.8400     6.4800    -5.6200   -10.4100   -14.3900   -16.8000     2.2651     4.6000     4.800
     62     1.0000    -0.0000     6.8901    -0.2000      4.758     18.000  11001.000      5.000   100.5558   141.0625   -77.8750     0.4200    -1.0000    27.8400     0.0000     0.0000     9.5825    97.4161    -1.0000    -1.5000     0.0000     0.0000     0.0000     0.0000    17.0000     8.0000     8.0000    17.0000     0.0000     0.0000   142.0306   -75.9388     0.0000    -4.2998    -2.9995    -1.8994    -0.6005     0.4003     1.8994     2.7994     3.8002    31.3400    22.1100    13.8400     6.4800    -5.6200   -10.4100   -14.3900   -16.8000     2.2631     4.6000     4.800
     63     1.0000    -0.0000     6.8799    -0.2000      4.688     17.000  11001.000      5.000   100.5558   141.0625   -77.8750     0.4200    -1.0000    27.8400     0.0000     0.0000     9.4825    97.3028    -1.0000    -1.5000     0.0000     0.0000     0.0000     0.0000    17.0000     8.0000     8.0000    17.0000     0.0000     0.0000   142.0306   -75.9388     0.0000    -4.2998    -2.9995    -1.8994    -0.6005     0.4003     1.8994     2.7994     3.8002    31.3400    22.1100    13.8400     6.4800    -5.6200   -10.4100   -14.3900   -16.8000     2.2612     4.6000     4.800
     64     1.0000    -0.0000     6.8700    -0.2000      4.730     15.000  11001.000      5.000   100.5558   141.0625   -77.8750     0.4200    -1.0000    27.8400     0.0000     0.0000     9.3850    97.1898    -1.0000    -1.5000     0.0000     0.0000     0.0000     0.0000    17.0000     8.0000     8.0000    17.0000     0.0000     0.0000   142.0306   -75.9388     0.0000    -4.2998    -2.9995    -1.8994    -0.6005     0.4003     1.8994     2.7994     3.8002    31.3400    22.1100    13.8400     6.4800    -5.6200   -10.4100   -14.3900   -16.8000     2.2592     4.6000     4.800
     65     1.0000    -0.0000     6.8601    -0.2000      4.771     24.000  11001.000      5.000   100.5558   141.0625   -77.8750     0.4200    -1.0000    27.8400     0.0000     0.0000     9.2875    97.0769    -1.0000    -1.5000     0.0000     0.0000     0.0000     0.0000    17.0000     8.0000     8.0000    17.0000     0.0000     0.0000   142.0306   -75.9388     0.0000    -4.2998    -2.9995    -1.8994    -0.6005     0.4003     1.8994     2.7994     3.8002    31.3400    22.1100    13.8400     6.4800    -5.6200   -10.4100   -14.3900   -16.8000     2.2572     4.6000     4.800
     66     1.0000    -0.0000     6.8500    -0.2000      4.683     16.000  11001.000      5.000   100.5558   141.0625   -77.8750     0.4200    -1.0000    27.8400     0.0000     0.0000     9.1875    96.9643    -1.0000    -1.5000     0.0000     0.0000     0.0000     0.0000    17.0000     8.0000     8.0000    17.0000     0.0000     0.0000   142.0306   -75.9388     0.0000    -4.2998    -2.9995    -1.8994    -0.6005     0.4003     1.8994     2.7994     3.8002    31.3400    22.1100    13.8400     6.4800    -5.6200   -10.4100   -14.3900   -16.8000     2.2553     4.6000     4.800
     67     1.0000    -0.0000     6.8398    -0.2000      4.804     24.000  11001.000      5.000   100.5558   141.0625   -77.8750     0.4200    -1.0000    27.8400     0.0000     0.0000     9.0875    96.8518    -1.0000    -1.5000     0.0000     0.0000     0.0000     0.0000    17.0000     8.0000     8.0000    17.0000     0.0000     0.0000   142.0306   -75.9388     0.0000    -4.2998    -2.9995    -1.8994    -0.6005     0.4003     1.8994     2.7994     3.8002    31.3400    22.1100    13.8400     6.4800    -5.6200   -10.4100   -14.3900   -16.8000     2.2533     4.6000     4.800
     68     1.0000    -0.0000     6.8301    -0.2000      4.781     22.000  11001.000      5.000   100.5558   141.0625   -77.8750     0.4200    -1.0000    27.8400     0.0000     0.0000     8.9925    96.7395    -1.0000    -1.5000     0.0000     0.0000     0.0000     0.0000    17.0000     8.0000     8.0000    17.0000     0.0000     0.0000   142.0306   -75.9388     0.0000    -4.2998    -2.9995    -1.8994    -0.6005     0.4003     1.8994     2.7994     3.8002    31.3400    22.1100    13.8400     6.4800    -5.6200   -10.4100   -14.3900   -16.8000     2.2514     4.6000     4.800
     69     1.0000    -0.0000     6.8200    -0.2000      4.778     18.000  11001.000      5.000   100.5558   141.0625   -77.8750     0.4200    -1.0000    27.8400     0.0000     0.0000     8.8925    96.6274    -1.0000    -1.5000     0.0000     0.0000     0.0000     0.0000    17.0000     8.0000     8.0000    17.0000     0.0000     0.0000   142.0306   -75.9388     0.0000    -4.2998    -2.9995    -1.8994    -0.6005     0.4003     1.8994     2.7994     3.8002    31.3400    22.1100    13.8400     6.4800    -5.6200   -10.4100   -14.3900   -16.8000     2.2494     4.6000     4.800
     70     1.0000    -0.0000     6.8100    -0.2000      4.739      8.000  11001.000      5.000   100.5558   141.0625   -77.8750     0.4200    -1.0000    27.8400     0.0000     0.0000     8.7950    96.5155    -1.0000    -1.5000     0.0000     0.0000     0.0000     0.0000    17.0000     8.0000     8.0000    17.0000     0.0000     0.0000   142.0306   -75.9388     0.0000    -4.2998    -2.9995    -1.8994    -0.6005     0.4003     1.8994     2.7994     3.8002    31.3400    22.1100    13.8400     6.4800    -5.6200   -10.4100   -14.3900   -16.8000     2.2475     4.6000     4.800
     71     1.0000    -0.0000     6.7999    -0.2000      4.752     10.000  11001.000      5.000   100.5558   141.0625   -77.8750     0.4200    -1.0000    27.8400     0.0000     0.0000     8.6950    96.4038    -1.0000    -1.5000     0.0000     0.0000     0.0000     0.0000    17.0000     8.0000     8.0000    17.0000     0.0000     0.0000   142.0306   -75.9388     0.0000    -4.2998    -2.9995    -1.8994    -0.6005     0.4003     1.8994     2.7994     3.8002    31.3400    22.1100    13.8400     6.4800    -5.6200   -10.4100   -14.3900   -16.8000     2.2455     4.6000     4.800
     72     1.0000    -0.0000     6.7900    -0.2000      4.683      9.000  11001.000      5.000   100.5558   141.0625   -77.8750     0.4200    -1.0000    27.8400     0.0000     0.0000     8.5975    96.2923    -1.0000    -1.5000     0.0000     0.0000     0.0000     0.0000    17.0000     8.0000     8.0000    17.0000     0.0000     0.0000   142.0306   -75.9388     0.0000    -4.2998    -2.9995    -1.8994    -0.6005     0.4003     1.8994     2.7994     3.8002    31.3400    22.1100    13.8400     6.4800    -5.6200   -10.4100   -14.3900   -16.8000     2.2435     4.6000     4.800
     73     0.9999    -0.0000     6.7803    -0.2000      4.682     17.000  11001.000      5.000   100.5558   141.0625   -77.8750     0.4200    -1.0000    27.8400     0.0000     0.0000     8.5025    96.1810    -1.0000    -1.5000     0.0000     0.0000     0.0000     0.0000    17.0000     8.0000     8.0000    17.0000     0.0000     0.0000   142.0306   -75.9388     0.0000    -4.2998    -2.9995    -1.8994    -0.6005     0.4003     1.8994     2.7994     3.8002    31.3400    22.1100    13.8400     6.4800    -5.6200   -10.4100   -14.3900   -16.8000     2.2416     4.6000     4.800
     74     1.0000    -0.0000     6.7699    -0.2000      4.737     14.000  11001.000      5.000   100.5558   141.0625   -77.8750     0.4200    -1.0000    27.8400     0.0000     0.0000     8.4000    96.0698    -1.0000    -1.5000     0.0000     0.0000     0.0000     0.0000    17.0000     8.0000     8.0000    17.0000     0.0000     0.0000   142.0306   -75.9388     0.0000    -4.2998    -2.9995    -1.8994    -0.6005     0.4003     1.8994     2.7994     3.8002    31.3400    22.1100    13.8400     6.4800    -5.6200   -10.4100   -14.3900   -16.8000     2.2396     4.6000     4.800
     75     1.0000    -0.0000     6.7599    -0.2000      4.705      9.000  11001.000      5.000   100.5558   141.0625   -77.8750     0.4200    -1.0000    27.8400     0.0000     0.0000     8.3025    95.9588    -1.0000    -1.5000     0.0000     0.0000     0.0000     0.0000    17.0000     8.0000     8.0000    17.0000     0.0000     0.0000   142.0306   -75.9388     0.0000    -4.2998    -2.9995    -1.8994    -0.6005     0.4003     1.8994     2.7994     3.8002    31.3400    22.1100    13.8400     6.4800    -5.6200   -10.4100   -14.3900   -16.8000     2.2377     4.6000     4.800
     76     0.9999    -0.0000     6.7502    -0.2000      4.690     13.000  11001.000      5.000   100.5558   141.0625   -77.8750     0.4200    -1.0000    27.8400     0.0000     0.0000     8.2075    95.8481    -1.0000    -1.5000     0.0000     0.0000     0.0000     0.0000    17.0000     8.0000     8.0000    17.0000     0.0000     0.0000   142.0306   -75.9388     0.0000    -4.2998    -2.9995    -1.8994    -0.6005     0.4003     1.8994     2.7994     3.8002    31.3400    22.1100    13.8400     6.4800    -5.6200   -10.4100   -14.3900   -16.8000     2.2357     4.6000     4.800
     77     1.0000    -0.0000     6.7398    -0.2000      4.809      7.000  11001.000      5.000   100.5558   141.0625   -77.8750     0.4200    -1.0000    27.8400     0.0000     0.0000     8.1050    95.7375    -1.0000    -1.5000     0.0000     0.0000     0.0000     0.0000    17.0000     8.0000     8.0000    17.0000     0.0000     0.0000   142.0306   -75.9388     0.0000    -4.2998    -2.9995    -1.8994    -0.6005     0.4003     1.8994     2.7994     3.8002    31.3400    22.1100    13.8400     6.4800    -5.6200   -10.4100   -14.3900   -16.8000     2.2338     4.6000     4.800
     78     1.0000    -0.0000     6.7299    -0.2000      4.745     12.000  11001.000      5.000   100.5558   141.0625   -77.8750     0.4200    -1.0000    27.8400     0.0000     0.0000     8.0075    95.6271    -1.0000    -1.5000     0.0000     0.0000     0.0000     0.0000    17.0000     8.0000     8.0000    17.0000     0.0000     0.0000   142.0306   -75.9388     0.0000    -4.2998    -2.9995    -1.8994    -0.6005     0.4003     1.8994     2.7994     3.8002    31.3400    22.1100    13.8400     6.4800    -5.6200   -10.4100   -14.3900   -16.8000     2.2318     4.6000     4.800
     79     1.0000    -0.0000     6.7202    -0.2000      4.716     14.000  11001.000      5.000   100.5558   141.0625   -77.8750     0.4200    -1.0000    27.8400     0.0000     0.0000     7.9125    95.5169    -1.0000    -1.5000     0.0000     0.0000     0.0000     0.0000    17.0000     8.0000     8.0000    17.0000     0.0000     0.0000   142.0306   -75.9388     0.0000    -4.2998    -2.9995    -1.8994    -0.6005     0.4003     1.8994     2.7994     3.8002    31.3400    22.1100    13.8400     6.4800    -5.6200   -10.4100   -14.3900   -16.8000     2.2299     4.6000     4.800
     80     1.0000    -0.0000     6.7100    -0.2000      4.742     25.000  11001.000      5.000   100.5558   141.0625   -77.8750     0.4200    -1.0000    27.8400     0.0000     0.0000     7.8125    95.4068    -1.0000    -1.5000     0.0000     0.0000     0.0000     0.0000    17.0000     8.0000     8.0000    17.0000     0.0000     0.0000   142.0306   -75.9388     0.0000    -4.2998    -2.9995    -1.8994    -0.6005     0.4003     1.8994     2.7994     3.8002    31.3400    22.1100    13.8400     6.4800    -5.6200   -10.4100   -14.3900   -16.8000     2.2280     4.6000     4.800
     81     1.0000    -0.0000     6.7001    -0.2000      4.832     11.000  11001.000      5.000   100.5558   141.0625   -77.8750     0.4200    -1.0000    27.8400     0.0000     0.0000     7.7150    95.2970    -1.0000    -1.5000     0.0000     0.0000     0.0000     0.0000    17.0000     8.0000     8.0000    17.0000     0.0000     0.0000   142.0306   -75.9388     0.0000    -4.2998    -2.9995    -1.8994    -0.6005     0.4003     1.8994     2.7994     3.8002    31.3400    22.1100    13.8400     6.4800    -5.6200   -10.4100   -14.3900   -16.8000     2.2260     4.6000     4.800
     82     1.0000    -0.0000     6.6899    -0.2000      4.773     13.000  11001.000      5.000   100.5558   141.0625   -77.8750     0.4200    -1.0000    27.8400     0.0000     0.0000     7.6150    95.1873    -1.0000    -1.5000     0.0000     0.0000     0.0000     0.0000    17.0000     8.0000     8.0000    17.0000     0.0000     0.0000   142.0306   -75.9388     0.0000    -4.2998    -2.9995    -1.8994    -0.6005     0.4003     1.8994     2.7994     3.8002    31.3400    22.1100    13.8400     6.4800    -5.6200   -10.4100   -14.3900   -16.8000     2.2241     4.6000     4.800
     83     1.0000    -0.0000     6.6802    -0.2000      4.716     10.000  11001.000      5.000   100.5558   141.0625   -77.8750     0.4200    -1.0000    27.8400     0.0000     0.0000     7.5200    95.0778    -1.0000    -1.5000     0.0000     0.0000     0.0000     0.0000    17.0000     8.0000     8.0000    17.0000     0.0000     0.0000   142.0306   -75.9388     0.0000    -4.2998    -2.9995    -1.8994    -0.6005     0.4003     1.8994     2.7994     3.8002    31.3400    22.1100    13.8400     6.4800    -5.6200   -10.4100   -14.3900   -16.8000     2.2221     4.6000     4.800
     84     1.0001    -0.0000     6.6697    -0.2000      4.739     29.000  11001.000      5.000   100.5558   141.0625   -77.8750     0.4200    -1.0000    27.8400     0.0000     0.0000     7.4175    94.9685    -1.0000    -1.5000     0.0000     0.0000     0.0000     0.0000    17.0000     8.0000     8.0000    17.0000     0.0000     0.0000   142.0306   -75.9388     0.0000    -4.2998    -2.9995    -1.8994    -0.6005     0.4003     1.8994     2.7994     3.8002    31.3400    22.1100    13.8400     6.4800    -5.6200   -10.4100   -14.3900   -16.8000     2.2202     4.6000     4.800
     85     0.9999    -0.0000     6.6603    -0.2000      4.696     15.000  11001.000      5.000   100.5558   141.0625   -77.8750     0.4200    -1.0000    27.8400     0.0000     0.0000     7.3250    94.8594    -1.0000    -1.5000     0.0000     0.0000     0.0000     0.0000    17.0000     8.0000     8.0000    17.0000     0.0000     0.0000   142.0306   -75.9388     0.0000    -4.2998    -2.9995    -1.8994    -0.6005     0.4003     1.8994     2.7994     3.8002    31.3400    22.1100    13.8400     6.4800    -5.6200   -10.4100   -14.3900   -16.8000     2.2182     4.6000     4.800
     86     1.0000    -0.0000     6.6501    -0.2000      4.692      8.000  11001.000      5.000   100.5558   141.0625   -77.8750     0.4200    -1.0000    27.8400     0.0000     0.0000     7.2250    94.7505    -1.0000    -1.5000     0.0000     0.0000     0.0000     0.0000    17.0000     8.0000     8.0000    17.0000     0.0000     0.0000   142.0306   -75.9388     0.0000    -4.2998    -2.9995    -1.8994    -0.6005     0.4003     1.8994     2.7994     3.8002    31.3400    22.1100    13.8400     6.4800    -5.6200   -10.4100   -14.3900   -16.8000     2.2163     4.6000     4.800
     87     1.0000    -0.0000     6.6399    -0.2000      4.675     20.000  11001.000      5.000   100.5558   141.0625   -77.8750     0.4200    -1.0000    27.8400     0.0000     0.0000     7.1250    94.6417    -1.0000    -1.5000     0.0000     0.0000     0.0000     0.0000    17.0000     8.0000     8.0000    17.0000     0.0000     0.0000   142.0306   -75.9388     0.0000    -4.2998    -2.9995    -1.8994    -0.6005     0.4003     1.8994     2.7994     3.8002    31.3400    22.1100    13.8400     6.4800    -5.6200   -10.4100   -14.3900   -16.8000     2.2144     4.6000     4.800
     88     1.0000    -0.0000     6.6302    -0.2000      4.777     10.000  11001.000      5.000   100.5558   141.0625   -77.8750     0.4200    -1.0000    27.8400     0.0000     0.0000     7.0300    94.5332    -1.0000    -1.5000     0.0000     0.0000     0.0000     0.0000    17.0000     8.0000     8.0000    17.0000     0.0000     0.0000   142.0306   -75.9388     0.0000    -4.2998    -2.9995    -1.8994    -0.6005     0.4003     1.8994     2.7994     3.8002    31.3400    22.1100    13.8400     6.4800    -5.6200   -10.4100   -14.3900   -16.8000     2.2124     4.6000     4.800
     89     1.0000    -0.0000     6.6200    -0.2000      4.680     13.000  11001.000      5.000   100.5558   141.0625   -77.8750     0.4200    -1.0000    27.8400     0.0000     0.0000     6.9300    94.4248    -1.0000    -1.5000     0.0000     0.0000     0.0000     0.0000    17.0000     8.0000     8.0000    17.0000     0.0000     0.0000   142.0306   -75.9388     0.0000    -4.2998    -2.9995    -1.8994    -0.6005     0.4003     1.8994     2.7994     3.8002    31.3400    22.1100    13.8400     6.4800    -5.6200   -10.4100   -14.3900   -16.8000     2.2105     4.6000     4.800
     90     1.0000    -0.0000     6.6098    -0.2000      4.784     11.000  11001.000      5.000   100.5558   141.0625   -77.8750     0.4200    -1.0000    27.8400     0.0000     0.0000     6.8300    94.3165    -1.0000    -1.5000     0.0000     0.0000     0.0000     0.0000    17.0000     8.0000     8.0000    17.0000     0.0000     0.0000   142.0306   -75.9388     0.0000    -4.2998    -2.9995    -1.8994    -0.6005     0.4003     1.8994     2.7994     3.8002    31.3400    22.1100    13.8400     6.4800    -5.6200   -10.4100   -14.3900   -16.8000     2.2086     4.6000     4.800
     91     1.0000    -0.0000     6.6001    -0.2000      4.707     10.000  11001.000      5.000   100.5558   141.0625   -77.8750     0.4200    -1.0000    27.8400     0.0000     0.0000     6.7350    94.2085    -1.0000    -1.5000     0.0000     0.0000     0.0000     0.0000    17.0000     8.0000     8.0000    17.0000     0.0000     0.0000   142.0306   -75.9388     0.0000    -4.2998    -2.9995    -1.8994    -0.6005     0.4003     1.8994     2.7994     3.8002    31.3400    22.1100    13.8400     6.4800    -5.6200   -10.4100   -14.3900   -16.8000     2.2066     4.6000     4.800
     92     1.0000    -0.0000     6.5901    -0.2000      4.785     12.000  11001.000      5.000   100.5558   141.0625   -77.8750     0.4200    -1.0000    27.8400     0.0000     0.0000     6.6375    94.1006    -1.0000    -1.5000     0.0000     0.0000     0.0000     0.0000    17.0000     8.0000     8.0000    17.0000     0.0000     0.0000   142.0306   -75.9388     0.0000    -4.2998    -2.9995    -1.8994    -0.6005     0.4003     1.8994     2.7994     3.8002    31.3400    22.1100    13.8400     6.4800    -5.6200   -10.4100   -14.3900   -16.8000     2.2047     4.6000     4.800
     93     1.0000    -0.0000     6.5799    -0.2000      4.836     14.000  11001.000      5.000   100.5558   141.0625   -77.8750     0.4200    -1.0000    27.8400     0.0000     0.0000     6.5375    93.9930    -1.0000    -1.5000     0.0000     0.0000     0.0000     0.0000    17.0000     8.0000     8.0000    17.0000     0.0000     0.0000   142.0306   -75.9388     0.0000    -4.2998    -2.9995    -1.8994    -0.6005     0.4003     1.8994     2.7994     3.8002    31.3400    22.1100    13.8400     6.4800    -5.6200   -10.4100   -14.3900   -16.8000     2.2028     4.6000     4.800
     94     1.0000    -0.0000     6.5702    -0.2000      4.729     14.000  11001.000      5.000   100.5558   141.0625   -77.8750     0.4200    -1.0000    27.8400     0.0000     0.0000     6.4425    93.8854    -1.0000    -1.5000     0.0000     0.0000     0.0000     0.0000    17.0000     8.0000     8.0000    17.0000     0.0000     0.0000   142.0306   -75.9388     0.0000    -4.2998    -2.9995    -1.8994    -0.6005     0.4003     1.8994     2.7994     3.8002    31.3400    22.1100    13.8400     6.4800    -5.6200   -10.4100   -14.3900   -16.8000     2.2008     4.6000     4.800
     95     1.0000    -0.0000     6.5600    -0.2000      4.745     11.000  11001.000      5.000   100.5558   141.0625   -77.8750     0.4200    -1.0000    27.8400     0.0000     0.0000     6.3425    93.7781    -1.0000    -1.5000     0.0000     0.0000     0.0000     0.0000    17.0000     8.0000     8.0000    17.0000     0.0000     0.0000   142.0306   -75.9388     0.0000    -4.2998    -2.9995    -1.8994    -0.6005     0.4003     1.8994     2.7994     3.8002    31.3400    22.1100    13.8400     6.4800    -5.6200   -10.4100   -14.3900   -16.8000     2.1989     4.6000     4.800
     96     1.0000    -0.0000     6.5500    -0.2000      4.777      9.000  11001.000      5.000   100.5558   141.0625   -77.8750     0.4200    -1.0000    27.8400     0.0000     0.0000     6.2450    93.6710    -1.0000    -1.5000     0.0000     0.0000     0.0000     0.0000    17.0000     8.0000     8.0000    17.0000     0.0000     0.0000   142.0306   -75.9388     0.0000    -4.2998    -2.9995    -1.8994    -0.6005     0.4003     1.8994     2.7994     3.8002    31.3400    22.1100    13.8400     6.4800    -5.6200   -10.4100   -14.3900   -16.8000     2.1970     4.6000     4.800
     97     1.0000    -0.0000     6.5398    -0.2000      4.683     15.000  11001.000      5.000   100.5558   141.0625   -77.8750     0.4200    -1.0000    27.8400     0.0000     0.0000     6.1450    93.5640    -1.0000    -1.5000     0.0000     0.0000     0.0000     0.0000    17.0000     8.0000     8.0000    17.0000     0.0000     0.0000   142.0306   -75.9388     0.0000    -4.2998    -2.9995    -1.8994    -0.6005     0.4003     1.8994     2.7994     3.8002    31.3400    22.1100    13.8400     6.4800    -5.6200   -10.4100   -14.3900   -16.8000     2.1951     4.6000     4.800
     98     1.0000    -0.0000     6.5301    -0.2000      4.742     17.000  11001.000      5.000   100.5558   141.0625   -77.8750     0.4200    -1.0000    27.8400     0.0000     0.0000     6.0500    93.4572    -1.0000    -1.5000     0.0000     0.0000     0.0000     0.0000    17.0000     8.0000     8.0000    17.0000     0.0000     0.0000   142.0306   -75.9388     0.0000    -4.2998    -2.9995    -1.8994    -0.6005     0.4003     1.8994     2.7994     3.8002    31.3400    22.1100    13.8400     6.4800    -5.6200   -10.4100   -14.3900   -16.8000     2.1931     4.6000     4.800
     99     1.0000    -0.0000     6.5201    -0.2000      4.782     13.000  11001.000      5.000   100.5558   141.0625   -77.8750     0.4200    -1.0000    27.8400     0.0000     0.0000     5.9525    93.3506    -1.0000    -1.5000     0.0000     0.0000     0.0000     0.0000    17.0000     8.0000     8.0000    17.0000     0.0000     0.0000   142.0306   -75.9388     0.0000    -4.2998    -2.9995    -1.8994    -0.6005     0.4003     1.8994     2.7994     3.8002    31.3400    22.1100    13.8400     6.4800    -5.6200   -10.4100   -14.3900   -16.8000     2.1912     4.6000     4.800
    100     1.0000    -0.0000     6.5099    -0.2000      4.698     17.000  11001.000      5.000   100.5558   141.0625   -77.8750     0.4200    -1.0000    27.8400     0.0000     0.0000     5.8525    93.2441    -1.0000    -1.5000     0.0000     0.0000     0.0000     0.0000    17.0000     8.0000     8.0000    17.0000     0.0000     0.0000   142.0306   -75.9388     0.0000    -4.2998    -2.9995    -1.8994    -0.6005     0.4003     1.8994     2.7994     3.8002    31.3400    22.1100    13.8400     6.4800    -5.6200   -10.4100   -14.3900   -16.8000     2.1893     4.6000     4.800
    101     1.0000    -0.0000     6.4999    -0.2000      4.753     14.000  11001.000      5.000   100.5558   141.0625   -77.8750     0.4200    -1.0000    27.8400     0.0000     0.0000     5.7550    93.1378    -1.0000    -1.5000     0.0000     0.0000     0.0000     0.0000    17.0000     8.0000     8.0000    17.0000     0.0000     0.0000   142.0306   -75.9388     0.0000    -4.2998    -2.9995    -1.8994    -0.6005     0.4003     1.8994     2.7994     3.8002    31.3400    22.1100    13.8400     6.4800    -5.6200   -10.4100   -14.3900   -16.8000     2.1874     4.6000     4.800
# Sum of Counts = 13140
# Center of Mass = 7.115866+/-0.087795
# Full Width Half-Maximum = 0.224550+/-0.013411
# 2:49:29 PM  3/12/2025   scan completed.
