# scan = 162
# date = 3/11/2025
# time = 10:17:54 PM
# proposal = 35030
# experiment = CTAX Instrumental resolution benchmarking
# experiment_number = 445
# command = scan h 0 k 0 l 5 e -0.2 0.2 0.01 preset mcu 30
# builtin_command = scan h 0 k 0 l 5 e -0.2 0.2 0.01 preset mcu 30
# users = Tao Hong, Tao Hong, Bing Li
# local_contact = Tao Hong
# scan_title = (005) scans-hori-focusing
# monochromator = PG002
# analyzer = Pg002
# sense = -+-
# collimation = 48-40-40-120
# samplename = LaN
# sampletype = crystal
# samplemosaic = 30.000000
# latticeconstants = 5.058628,5.058628,24.728465,90.000000,90.000000,120.000000
# ubmatrix = -0.002928,0.001986,-0.040430,-0.228168,-0.119258,0.000500,-0.005924,0.194622,0.000719
# mode = 0
# plane_normal = 0.017452,-0.026173,0.999505
# ubconf = UB10Mar2025_114214AM.ini
# preset_type = normal 
# preset_channel = mcu
# preset_value = 30.000000
# def_x = e
# def_y = detector
# col_headers = 
#   Pt.          h          k          l          e       time   detector    monitor        mcu focal_length         m1         m2       marc     mtrans     mfocus   vti_temp  smpl_temp         s1         s2        sgl        sgu        bbb        bbl        bbr        bbt        bab        bal        bar        bat        stl        stu         a1         a2     afocus        qm1        qm2        qm3        qm4        qm5        qm6        qm7        qm8        xm1        xm2        xm3        xm4        xm5        xm6        xm7        xm8          q         ei         ef
      1     0.0000     0.0000     5.0000    -0.2000     28.283    133.000  66001.000     30.000   100.5558   141.0625   -77.8750     0.4200    -1.0000    27.8400     0.0000     0.0000    24.3650    49.8826    -1.0000    -1.5000     0.0000     0.0000     0.0000     0.0000    17.0000     8.0000     8.0000    17.0000     0.0000     0.0000   142.0306   -75.9388     0.0000    -4.2998    -2.9995    -1.8994    -0.6005     0.4003     1.8994     2.7994     3.8002    31.3400    22.1100    13.8400     6.4800    -5.6200   -10.4100   -14.3900   -16.8000     1.2704     4.6000     4.800
      2     0.0000     0.0000     5.0000    -0.1900     28.520    119.000  66001.000     30.000   100.4515   141.1127   -77.7746     0.4200    -1.0000    27.8600     0.0000     0.0000    24.4175    49.8553    -1.0000    -1.5000     0.0000     0.0000     0.0000     0.0000    17.0000     8.0000     8.0000    17.0000     0.0000     0.0000   142.0306   -75.9388     0.0000    -4.2998    -2.9995    -1.8994    -0.6005     0.4003     1.8994     2.7994     3.8002    31.3400    22.1100    13.8400     6.4800    -5.6200   -10.4100   -14.3900   -16.8000     1.2704     4.6100     4.800
      3     0.0000     0.0000     5.0000    -0.1800     28.601    142.000  66001.000     30.000   100.3473   141.1627   -77.6746     0.4200    -1.0000    27.8800     0.0000     0.0000    24.4700    49.8281    -1.0000    -1.5000     0.0000     0.0000     0.0000     0.0000    17.0000     8.0000     8.0000    17.0000     0.0000     0.0000   142.0306   -75.9388     0.0000    -4.2998    -2.9995    -1.8994    -0.6005     0.4003     1.8994     2.7994     3.8002    31.3400    22.1100    13.8400     6.4800    -5.6200   -10.4100   -14.3900   -16.8000     1.2704     4.6200     4.800
      4    -0.0000     0.0000     5.0000    -0.1700     28.475    176.000  66001.000     30.000   100.2226   141.2125   -77.5749     0.4200    -1.0000    27.9040     0.0000     0.0000    24.5250    49.8008    -1.0000    -1.5000     0.0000     0.0000     0.0000     0.0000    17.0000     8.0000     8.0000    17.0000     0.0000     0.0000   142.0306   -75.9388     0.0000    -4.2998    -2.9995    -1.8994    -0.6005     0.4003     1.8994     2.7994     3.8002    31.3400    22.1100    13.8400     6.4800    -5.6200   -10.4100   -14.3900   -16.8000     1.2704     4.6300     4.800
      5    -0.0001     0.0000     5.0000    -0.1600     28.448    189.000  66001.000     30.000   100.1190   141.2622   -77.4757     0.4200    -1.0000    27.9240     0.0000     0.0000    24.5800    49.7735    -1.0000    -1.5000     0.0000     0.0000     0.0000     0.0000    17.0000     8.0000     8.0000    17.0000     0.0000     0.0000   142.0306   -75.9388     0.0000    -4.2998    -2.9995    -1.8994    -0.6005     0.4003     1.8994     2.7994     3.8002    31.3400    22.1100    13.8400     6.4800    -5.6200   -10.4100   -14.3900   -16.8000     1.2704     4.6400     4.800
      6    -0.0000     0.0000     5.0000    -0.1500     28.451    181.000  66001.000     30.000   100.0155   141.3116   -77.3768     0.4200    -1.0000    27.9440     0.0000     0.0000    24.6275    49.7462    -1.0000    -1.5000     0.0000     0.0000     0.0000     0.0000    17.0000     8.0000     8.0000    17.0000     0.0000     0.0000   142.0306   -75.9388     0.0000    -4.2998    -2.9995    -1.8994    -0.6005     0.4003     1.8994     2.7994     3.8002    31.3400    22.1100    13.8400     6.4800    -5.6200   -10.4100   -14.3900   -16.8000     1.2704     4.6500     4.800
      7    -0.0000     0.0000     5.0000    -0.1400     28.588    263.000  66001.000     30.000    99.9123   141.3608   -77.2783     0.4200    -1.0000    27.9640     0.0000     0.0000    24.6800    49.7189    -1.0000    -1.5000     0.0000     0.0000     0.0000     0.0000    17.0000     8.0000     8.0000    17.0000     0.0000     0.0000   142.0306   -75.9388     0.0000    -4.2998    -2.9995    -1.8994    -0.6005     0.4003     1.8994     2.7994     3.8002    31.3400    22.1100    13.8400     6.4800    -5.6200   -10.4100   -14.3900   -16.8000     1.2704     4.6600     4.800
      8    -0.0000     0.0000     5.0000    -0.1300     28.491    238.000  66001.000     30.000    99.8092   141.4099   -77.1802     0.4200    -1.0000    27.9840     0.0000     0.0000    24.7325    49.6916    -1.0000    -1.5000     0.0000     0.0000     0.0000     0.0000    17.0000     8.0000     8.0000    17.0000     0.0000     0.0000   142.0306   -75.9388     0.0000    -4.2998    -2.9995    -1.8994    -0.6005     0.4003     1.8994     2.7994     3.8002    31.3400    22.1100    13.8400     6.4800    -5.6200   -10.4100   -14.3900   -16.8000     1.2704     4.6700     4.800
      9    -0.0000     0.0000     5.0000    -0.1200     28.306    278.000  66001.000     30.000    99.6859   141.4588   -77.0825     0.4200    -1.0000    28.0080     0.0000     0.0000    24.7850    49.6643    -1.0000    -1.5000     0.0000     0.0000     0.0000     0.0000    17.0000     8.0000     8.0000    17.0000     0.0000     0.0000   142.0306   -75.9388     0.0000    -4.2998    -2.9995    -1.8994    -0.6005     0.4003     1.8994     2.7994     3.8002    31.3400    22.1100    13.8400     6.4800    -5.6200   -10.4100   -14.3900   -16.8000     1.2704     4.6800     4.800
     10     0.0000     0.0000     5.0000    -0.1100     28.376    325.000  66001.000     30.000    99.5833   141.5074   -76.9852     0.4200    -1.0000    28.0280     0.0000     0.0000    24.8350    49.6370    -1.0000    -1.5000     0.0000     0.0000     0.0000     0.0000    17.0000     8.0000     8.0000    17.0000     0.0000     0.0000   142.0306   -75.9388     0.0000    -4.2998    -2.9995    -1.8994    -0.6005     0.4003     1.8994     2.7994     3.8002    31.3400    22.1100    13.8400     6.4800    -5.6200   -10.4100   -14.3900   -16.8000     1.2704     4.6900     4.800
     11    -0.0000     0.0000     5.0000    -0.1000     28.338    375.000  66001.000     30.000    99.4809   141.5559   -76.8882     0.4200    -1.0000    28.0480     0.0000     0.0000    24.8875    49.6097    -1.0000    -1.5000     0.0000     0.0000     0.0000     0.0000    17.0000     8.0000     8.0000    17.0000     0.0000     0.0000   142.0306   -75.9388     0.0000    -4.2998    -2.9995    -1.8994    -0.6005     0.4003     1.8994     2.7994     3.8002    31.3400    22.1100    13.8400     6.4800    -5.6200   -10.4100   -14.3900   -16.8000     1.2704     4.7000     4.800
     12    -0.0000     0.0000     5.0000    -0.0900     28.443    429.000  66001.000     30.000    99.3788   141.6042   -76.7916     0.4200    -1.0000    28.0680     0.0000     0.0000    24.9400    49.5823    -1.0000    -1.5000     0.0000     0.0000     0.0000     0.0000    17.0000     8.0000     8.0000    17.0000     0.0000     0.0000   142.0306   -75.9388     0.0000    -4.2998    -2.9995    -1.8994    -0.6005     0.4003     1.8994     2.7994     3.8002    31.3400    22.1100    13.8400     6.4800    -5.6200   -10.4100   -14.3900   -16.8000     1.2704     4.7100     4.800
     13     0.0000     0.0000     5.0000    -0.0800     28.477    475.000  66001.000     30.000    99.2768   141.6523   -76.6954     0.4200    -1.0000    28.0880     0.0000     0.0000    24.9900    49.5550    -1.0000    -1.5000     0.0000     0.0000     0.0000     0.0000    17.0000     8.0000     8.0000    17.0000     0.0000     0.0000   142.0306   -75.9388     0.0000    -4.2998    -2.9995    -1.8994    -0.6005     0.4003     1.8994     2.7994     3.8002    31.3400    22.1100    13.8400     6.4800    -5.6200   -10.4100   -14.3900   -16.8000     1.2704     4.7200     4.800
     14     0.0000     0.0000     5.0000    -0.0700     28.430    478.000  66001.000     30.000    99.1548   141.7002   -76.5996     0.4200    -1.0000    28.1120     0.0000     0.0000    25.0425    49.5276    -1.0000    -1.5000     0.0000     0.0000     0.0000     0.0000    17.0000     8.0000     8.0000    17.0000     0.0000     0.0000   142.0306   -75.9388     0.0000    -4.2998    -2.9995    -1.8994    -0.6005     0.4003     1.8994     2.7994     3.8002    31.3400    22.1100    13.8400     6.4800    -5.6200   -10.4100   -14.3900   -16.8000     1.2704     4.7300     4.800
     15    -0.0000     0.0000     5.0000    -0.0600     28.299    617.000  66001.000     30.000    99.0533   141.7480   -76.5041     0.4200    -1.0000    28.1320     0.0000     0.0000    25.0950    49.5003    -1.0000    -1.5000     0.0000     0.0000     0.0000     0.0000    17.0000     8.0000     8.0000    17.0000     0.0000     0.0000   142.0306   -75.9388     0.0000    -4.2998    -2.9995    -1.8994    -0.6005     0.4003     1.8994     2.7994     3.8002    31.3400    22.1100    13.8400     6.4800    -5.6200   -10.4100   -14.3900   -16.8000     1.2704     4.7400     4.800
     16     0.0000     0.0000     5.0000    -0.0500     28.352    615.000  66001.000     30.000    98.9520   141.7955   -76.4089     0.4200    -1.0000    28.1520     0.0000     0.0000    25.1450    49.4729    -1.0000    -1.5000     0.0000     0.0000     0.0000     0.0000    17.0000     8.0000     8.0000    17.0000     0.0000     0.0000   142.0306   -75.9388     0.0000    -4.2998    -2.9995    -1.8994    -0.6005     0.4003     1.8994     2.7994     3.8002    31.3400    22.1100    13.8400     6.4800    -5.6200   -10.4100   -14.3900   -16.8000     1.2704     4.7500     4.800
     17    -0.0000     0.0000     5.0000    -0.0400     28.398    703.000  66001.000     30.000    98.8510   141.8429   -76.3142     0.4200    -1.0000    28.1720     0.0000     0.0000    25.1975    49.4455    -1.0000    -1.5000     0.0000     0.0000     0.0000     0.0000    17.0000     8.0000     8.0000    17.0000     0.0000     0.0000   142.0306   -75.9388     0.0000    -4.2998    -2.9995    -1.8994    -0.6005     0.4003     1.8994     2.7994     3.8002    31.3400    22.1100    13.8400     6.4800    -5.6200   -10.4100   -14.3900   -16.8000     1.2704     4.7600     4.800
     18    -0.0001     0.0000     5.0000    -0.0300     28.117    752.000  66001.000     30.000    98.7501   141.8901   -76.2198     0.4200    -1.0000    28.1920     0.0000     0.0000    25.2525    49.4182    -1.0000    -1.5000     0.0000     0.0000     0.0000     0.0000    17.0000     8.0000     8.0000    17.0000     0.0000     0.0000   142.0306   -75.9388     0.0000    -4.2998    -2.9995    -1.8994    -0.6005     0.4003     1.8994     2.7994     3.8002    31.3400    22.1100    13.8400     6.4800    -5.6200   -10.4100   -14.3900   -16.8000     1.2704     4.7700     4.800
     19     0.0000     0.0000     5.0000    -0.0200     28.311    924.000  66001.000     30.000    98.6495   141.9371   -76.1258     0.4200    -1.0000    28.2120     0.0000     0.0000    25.3000    49.3908    -1.0000    -1.5000     0.0000     0.0000     0.0000     0.0000    17.0000     8.0000     8.0000    17.0000     0.0000     0.0000   142.0306   -75.9388     0.0000    -4.2998    -2.9995    -1.8994    -0.6005     0.4003     1.8994     2.7994     3.8002    31.3400    22.1100    13.8400     6.4800    -5.6200   -10.4100   -14.3900   -16.8000     1.2704     4.7800     4.800
     20    -0.0001     0.0000     5.0000    -0.0100     28.104   1146.000  66001.000     30.000    98.5490   141.9840   -76.0321     0.4200    -1.0000    28.2320     0.0000     0.0000    25.3550    49.3634    -1.0000    -1.5000     0.0000     0.0000     0.0000     0.0000    17.0000     8.0000     8.0000    17.0000     0.0000     0.0000   142.0306   -75.9388     0.0000    -4.2998    -2.9995    -1.8994    -0.6005     0.4003     1.8994     2.7994     3.8002    31.3400    22.1100    13.8400     6.4800    -5.6200   -10.4100   -14.3900   -16.8000     1.2704     4.7900     4.800
     21    -0.0000     0.0000     5.0000     0.0000     28.388   1161.000  66001.000     30.000    98.4288   142.0306   -75.9387     0.4200    -1.0000    28.2560     0.0000     0.0000    25.4050    49.3360    -1.0000    -1.5000     0.0000     0.0000     0.0000     0.0000    17.0000     8.0000     8.0000    17.0000     0.0000     0.0000   142.0306   -75.9388     0.0000    -4.2998    -2.9995    -1.8994    -0.6005     0.4003     1.8994     2.7994     3.8002    31.3400    22.1100    13.8400     6.4800    -5.6200   -10.4100   -14.3900   -16.8000     1.2704     4.8000     4.800
     22    -0.0000     0.0000     5.0000     0.0100     28.326   1148.000  66001.000     30.000    98.3288   142.0771   -75.8458     0.4200    -1.0000    28.2760     0.0000     0.0000    25.4550    49.3086    -1.0000    -1.5000     0.0000     0.0000     0.0000     0.0000    17.0000     8.0000     8.0000    17.0000     0.0000     0.0000   142.0306   -75.9388     0.0000    -4.2998    -2.9995    -1.8994    -0.6005     0.4003     1.8994     2.7994     3.8002    31.3400    22.1100    13.8400     6.4800    -5.6200   -10.4100   -14.3900   -16.8000     1.2704     4.8100     4.800
     23     0.0000     0.0000     5.0000     0.0200     28.405    951.000  66001.000     30.000    98.2290   142.1234   -75.7531     0.4200    -1.0000    28.2960     0.0000     0.0000    25.5050    49.2811    -1.0000    -1.5000     0.0000     0.0000     0.0000     0.0000    17.0000     8.0000     8.0000    17.0000     0.0000     0.0000   142.0306   -75.9388     0.0000    -4.2998    -2.9995    -1.8994    -0.6005     0.4003     1.8994     2.7994     3.8002    31.3400    22.1100    13.8400     6.4800    -5.6200   -10.4100   -14.3900   -16.8000     1.2704     4.8200     4.800
     24     0.0000     0.0000     5.0000     0.0300     28.062    646.000  66001.000     30.000    98.1294   142.1696   -75.6608     0.4200    -1.0000    28.3160     0.0000     0.0000    25.5550    49.2537    -1.0000    -1.5000     0.0000     0.0000     0.0000     0.0000    17.0000     8.0000     8.0000    17.0000     0.0000     0.0000   142.0306   -75.9388     0.0000    -4.2998    -2.9995    -1.8994    -0.6005     0.4003     1.8994     2.7994     3.8002    31.3400    22.1100    13.8400     6.4800    -5.6200   -10.4100   -14.3900   -16.8000     1.2704     4.8300     4.800
     25     0.0000     0.0000     5.0000     0.0400     28.300    575.000  66001.000     30.000    98.0300   142.2156   -75.5689     0.4200    -1.0000    28.3360     0.0000     0.0000    25.6075    49.2262    -1.0000    -1.5000     0.0000     0.0000     0.0000     0.0000    17.0000     8.0000     8.0000    17.0000     0.0000     0.0000   142.0306   -75.9388     0.0000    -4.2998    -2.9995    -1.8994    -0.6005     0.4003     1.8994     2.7994     3.8002    31.3400    22.1100    13.8400     6.4800    -5.6200   -10.4100   -14.3900   -16.8000     1.2704     4.8400     4.800
     26    -0.0000     0.0000     5.0000     0.0500     28.428    506.000  66001.000     30.000    97.9308   142.2614   -75.4773     0.4200    -1.0000    28.3560     0.0000     0.0000    25.6600    49.1988    -1.0000    -1.5000     0.0000     0.0000     0.0000     0.0000    17.0000     8.0000     8.0000    17.0000     0.0000     0.0000   142.0306   -75.9388     0.0000    -4.2998    -2.9995    -1.8994    -0.6005     0.4003     1.8994     2.7994     3.8002    31.3400    22.1100    13.8400     6.4800    -5.6200   -10.4100   -14.3900   -16.8000     1.2704     4.8500     4.800
     27    -0.0000     0.0000     5.0000     0.0600     28.510    453.000  66001.000     30.000    97.8318   142.3070   -75.3860     0.4200    -1.0000    28.3760     0.0000     0.0000    25.7100    49.1714    -1.0000    -1.5000     0.0000     0.0000     0.0000     0.0000    17.0000     8.0000     8.0000    17.0000     0.0000     0.0000   142.0306   -75.9388     0.0000    -4.2998    -2.9995    -1.8994    -0.6005     0.4003     1.8994     2.7994     3.8002    31.3400    22.1100    13.8400     6.4800    -5.6200   -10.4100   -14.3900   -16.8000     1.2704     4.8600     4.800
     28     0.0000     0.0000     5.0000     0.0700     28.421    400.000  66001.000     30.000    97.7330   142.3524   -75.2951     0.4200    -1.0000    28.3960     0.0000     0.0000    25.7600    49.1439    -1.0000    -1.5000     0.0000     0.0000     0.0000     0.0000    17.0000     8.0000     8.0000    17.0000     0.0000     0.0000   142.0306   -75.9388     0.0000    -4.2998    -2.9995    -1.8994    -0.6005     0.4003     1.8994     2.7994     3.8002    31.3400    22.1100    13.8400     6.4800    -5.6200   -10.4100   -14.3900   -16.8000     1.2704     4.8700     4.800
     29    -0.0000     0.0000     5.0000     0.0800     28.836    370.000  66001.000     30.000    97.6344   142.3978   -75.2045     0.4200    -1.0000    28.4160     0.0000     0.0000    25.8125    49.1164    -1.0000    -1.5000     0.0000     0.0000     0.0000     0.0000    17.0000     8.0000     8.0000    17.0000     0.0000     0.0000   142.0306   -75.9388     0.0000    -4.2998    -2.9995    -1.8994    -0.6005     0.4003     1.8994     2.7994     3.8002    31.3400    22.1100    13.8400     6.4800    -5.6200   -10.4100   -14.3900   -16.8000     1.2704     4.8800     4.800
     30    -0.0000     0.0000     5.0000     0.0900     28.885    351.000  66001.000     30.000    97.5360   142.4429   -75.1142     0.4200    -1.0000    28.4360     0.0000     0.0000    25.8625    49.0890    -1.0000    -1.5000     0.0000     0.0000     0.0000     0.0000    17.0000     8.0000     8.0000    17.0000     0.0000     0.0000   142.0306   -75.9388     0.0000    -4.2998    -2.9995    -1.8994    -0.6005     0.4003     1.8994     2.7994     3.8002    31.3400    22.1100    13.8400     6.4800    -5.6200   -10.4100   -14.3900   -16.8000     1.2704     4.8900     4.800
     31     0.0000     0.0000     5.0000     0.1000     29.294    304.000  66001.000     30.000    97.4378   142.4878   -75.0243     0.4200    -1.0000    28.4560     0.0000     0.0000    25.9125    49.0615    -1.0000    -1.5000     0.0000     0.0000     0.0000     0.0000    17.0000     8.0000     8.0000    17.0000     0.0000     0.0000   142.0306   -75.9388     0.0000    -4.2998    -2.9995    -1.8994    -0.6005     0.4003     1.8994     2.7994     3.8002    31.3400    22.1100    13.8400     6.4800    -5.6200   -10.4100   -14.3900   -16.8000     1.2704     4.9000     4.800
     32    -0.0000     0.0000     5.0000     0.1100     29.600    299.000  66001.000     30.000    97.3203   142.5326   -74.9347     0.4200    -1.0000    28.4800     0.0000     0.0000    25.9650    49.0340    -1.0000    -1.5000     0.0000     0.0000     0.0000     0.0000    17.0000     8.0000     8.0000    17.0000     0.0000     0.0000   142.0306   -75.9388     0.0000    -4.2998    -2.9995    -1.8994    -0.6005     0.4003     1.8994     2.7994     3.8002    31.3400    22.1100    13.8400     6.4800    -5.6200   -10.4100   -14.3900   -16.8000     1.2704     4.9100     4.800
     33    -0.0000     0.0000     5.0000     0.1200     29.828    250.000  66001.000     30.000    97.2225   142.5773   -74.8455     0.4200    -1.0000    28.5000     0.0000     0.0000    26.0150    49.0065    -1.0000    -1.5000     0.0000     0.0000     0.0000     0.0000    17.0000     8.0000     8.0000    17.0000     0.0000     0.0000   142.0306   -75.9388     0.0000    -4.2998    -2.9995    -1.8994    -0.6005     0.4003     1.8994     2.7994     3.8002    31.3400    22.1100    13.8400     6.4800    -5.6200   -10.4100   -14.3900   -16.8000     1.2704     4.9200     4.800
     34    -0.0000     0.0000     5.0000     0.1300     29.939    227.000  66001.000     30.000    97.1249   142.6218   -74.7565     0.4200    -1.0000    28.5200     0.0000     0.0000    26.0650    48.9790    -1.0000    -1.5000     0.0000     0.0000     0.0000     0.0000    17.0000     8.0000     8.0000    17.0000     0.0000     0.0000   142.0306   -75.9388     0.0000    -4.2998    -2.9995    -1.8994    -0.6005     0.4003     1.8994     2.7994     3.8002    31.3400    22.1100    13.8400     6.4800    -5.6200   -10.4100   -14.3900   -16.8000     1.2704     4.9300     4.800
     35     0.0000     0.0000     5.0000     0.1400     30.208    236.000  66001.000     30.000    97.0276   142.6660   -74.6679     0.4200    -1.0000    28.5400     0.0000     0.0000    26.1150    48.9515    -1.0000    -1.5000     0.0000     0.0000     0.0000     0.0000    17.0000     8.0000     8.0000    17.0000     0.0000     0.0000   142.0306   -75.9388     0.0000    -4.2998    -2.9995    -1.8994    -0.6005     0.4003     1.8994     2.7994     3.8002    31.3400    22.1100    13.8400     6.4800    -5.6200   -10.4100   -14.3900   -16.8000     1.2704     4.9400     4.800
     36     0.0000     0.0000     5.0000     0.1500     30.478    192.000  66001.000     30.000    96.9304   142.7102   -74.5796     0.4200    -1.0000    28.5600     0.0000     0.0000    26.1650    48.9240    -1.0000    -1.5000     0.0000     0.0000     0.0000     0.0000    17.0000     8.0000     8.0000    17.0000     0.0000     0.0000   142.0306   -75.9388     0.0000    -4.2998    -2.9995    -1.8994    -0.6005     0.4003     1.8994     2.7994     3.8002    31.3400    22.1100    13.8400     6.4800    -5.6200   -10.4100   -14.3900   -16.8000     1.2704     4.9500     4.800
     37     0.0000     0.0000     5.0000     0.1600     30.496    165.000  66001.000     30.000    96.8334   142.7542   -74.4916     0.4200    -1.0000    28.5800     0.0000     0.0000    26.2150    48.8964    -1.0000    -1.5000     0.0000     0.0000     0.0000     0.0000    17.0000     8.0000     8.0000    17.0000     0.0000     0.0000   142.0306   -75.9388     0.0000    -4.2998    -2.9995    -1.8994    -0.6005     0.4003     1.8994     2.7994     3.8002    31.3400    22.1100    13.8400     6.4800    -5.6200   -10.4100   -14.3900   -16.8000     1.2704     4.9600     4.800
     38     0.0000     0.0000     5.0000     0.1700     30.890    132.000  66001.000     30.000    96.7366   142.7980   -74.4039     0.4200    -1.0000    28.6000     0.0000     0.0000    26.2650    48.8689    -1.0000    -1.5000     0.0000     0.0000     0.0000     0.0000    17.0000     8.0000     8.0000    17.0000     0.0000     0.0000   142.0306   -75.9388     0.0000    -4.2998    -2.9995    -1.8994    -0.6005     0.4003     1.8994     2.7994     3.8002    31.3400    22.1100    13.8400     6.4800    -5.6200   -10.4100   -14.3900   -16.8000     1.2704     4.9700     4.800
     39     0.0000     0.0000     5.0000     0.1800     30.772    128.000  66001.000     30.000    96.6400   142.8417   -74.3166     0.4200    -1.0000    28.6200     0.0000     0.0000    26.3150    48.8414    -1.0000    -1.5000     0.0000     0.0000     0.0000     0.0000    17.0000     8.0000     8.0000    17.0000     0.0000     0.0000   142.0306   -75.9388     0.0000    -4.2998    -2.9995    -1.8994    -0.6005     0.4003     1.8994     2.7994     3.8002    31.3400    22.1100    13.8400     6.4800    -5.6200   -10.4100   -14.3900   -16.8000     1.2704     4.9800     4.800
     40    -0.0000     0.0000     5.0000     0.1900     31.143    131.000  66001.000     30.000    96.5436   142.8852   -74.2295     0.4200    -1.0000    28.6400     0.0000     0.0000    26.3675    48.8138    -1.0000    -1.5000     0.0000     0.0000     0.0000     0.0000    17.0000     8.0000     8.0000    17.0000     0.0000     0.0000   142.0306   -75.9388     0.0000    -4.2998    -2.9995    -1.8994    -0.6005     0.4003     1.8994     2.7994     3.8002    31.3400    22.1100    13.8400     6.4800    -5.6200   -10.4100   -14.3900   -16.8000     1.2704     4.9900     4.800
     41    -0.0000     0.0000     5.0000     0.2000     31.276    106.000  66001.000     30.000    96.4474   142.9286   -74.1428     0.4200    -1.0000    28.6600     0.0000     0.0000    26.4175    48.7863    -1.0000    -1.5000     0.0000     0.0000     0.0000     0.0000    17.0000     8.0000     8.0000    17.0000     0.0000     0.0000   142.0306   -75.9388     0.0000    -4.2998    -2.9995    -1.8994    -0.6005     0.4003     1.8994     2.7994     3.8002    31.3400    22.1100    13.8400     6.4800    -5.6200   -10.4100   -14.3900   -16.8000     1.2704     5.0000     4.800
# Sum of Counts = 17289
# Center of Mass = -0.004497+/-0.000635
# Full Width Half-Maximum = 0.166545+/-0.001257
# 10:41:48 PM  3/11/2025   scan completed.
