# scan = 32
# date = 9/21/2024
# time = 1:47:45 PM
# proposal = 34735
# experiment = Magnons and paramagnon coupling in MnTe
# experiment_number = 816
# command = scan bbt 0 38 2
# builtin_command = scan bbt 0 38 2
# users = Benjamin Frandsen, Songxue Chi, George Yumnam, Huibo Cao, Michael Manley, Raphael Hermann, Eleanor Clements
# local_contact = Eleanor Clements
# scan_title = slit scan with (100)
# monochromator = PG002
# analyzer = Pg002
# sense = -+-
# collimation = 48-40-40-120
# samplename = MnTe
# sampletype = crystal
# samplemosaic = 30.000000
# latticeconstants = 4.134597,4.134597,6.679746,90.000000,90.000000,120.000000
# ubmatrix = -0.273127,-0.149222,-0.030247,-0.056745,-0.024153,0.146560,-0.013326,0.234830,-0.004146
# mode = 0
# plane_normal = -0.052339,0.017444,0.998477
# ubconf = UB21Sep2024_13243PM.ini
# preset_type = normal 
# preset_channel = time
# preset_value = 1.000000
# def_x = bbt
# def_y = detector
# col_headers = 
#   Pt.        bbt       time   detector    monitor        mcu focal_length         m1         m2   mcrystal       marc     mtrans     mfocus       temp     temp_2         s1         s2        sgl        sgu        bbb        bbl        bbr        bab        bal        bar        bat        stl        stu         a1         a2          q          h          k          l         ei         ef          e        vti     sample
      1     0.0000      1.000   6243.000   2552.000      1.016    66.7975   -20.0773   -41.1660   120.0962    -0.1480    -3.0001   -34.2897   250.0000   300.0000     7.5602    38.4603     3.0010     1.0017    38.0000    34.0000    34.0000    38.0000    34.0000    34.0000    38.0000    -0.0005     0.0005   159.4167   -41.1662     1.7545     0.9999    -0.0000     0.0001    14.7001    14.7000     0.0001   250.0090     0.000
      2     2.0000      1.000   6954.000   2711.000      1.079    66.7975   -20.0773   -41.1660   120.0962    -0.1480    -3.0001   -34.2897   250.0000   300.0000     7.5602    38.4603     3.0010     1.0017    38.0000    34.0000    34.0000    38.0000    34.0000    34.0000    38.0000    -0.0005     0.0005   159.4167   -41.1662     1.7545     0.9999    -0.0000     0.0001    14.7001    14.7000     0.0001   249.8650     0.000
      3     4.0000      1.000   7371.000   2596.000      1.033    66.7975   -20.0773   -41.1660   120.0962    -0.1480    -3.0001   -34.2897   250.0000   300.0000     7.5602    38.4603     3.0010     1.0017    38.0000    34.0000    34.0000    38.0000    34.0000    34.0000    38.0000    -0.0005     0.0005   159.4167   -41.1662     1.7545     0.9999    -0.0000     0.0001    14.7001    14.7000     0.0001   249.9980     0.000
      4     6.0000      1.000   7907.000   2518.000      1.002    66.7975   -20.0773   -41.1660   120.0962    -0.1480    -3.0001   -34.2897   250.0000   300.0000     7.5602    38.4603     3.0010     1.0017    38.0000    34.0000    34.0000    38.0000    34.0000    34.0000    38.0000    -0.0005     0.0005   159.4167   -41.1662     1.7545     0.9999    -0.0000     0.0001    14.7001    14.7000     0.0001   250.0690     0.000
      5     8.0000      1.000   8175.000   2565.000      1.021    66.7975   -20.0773   -41.1660   120.0962    -0.1480    -3.0001   -34.2897   250.0000   300.0000     7.5602    38.4603     3.0010     1.0017    38.0000    34.0000    34.0000    38.0000    34.0000    34.0000    38.0000    -0.0005     0.0005   159.4167   -41.1662     1.7545     0.9999    -0.0000     0.0001    14.7001    14.7000     0.0001   250.0130     0.000
      6    10.0000      1.000   8078.000   2611.000      1.039    66.7975   -20.0773   -41.1660   120.0962    -0.1480    -3.0001   -34.2897   250.0000   300.0000     7.5602    38.4603     3.0010     1.0017    38.0000    34.0000    34.0000    38.0000    34.0000    34.0000    38.0000    -0.0005     0.0005   159.4167   -41.1662     1.7545     0.9999    -0.0000     0.0001    14.7001    14.7000     0.0001   250.0240     0.000
      7    12.0000      1.000   8149.000   2665.000      1.061    66.7975   -20.0773   -41.1660   120.0962    -0.1480    -3.0001   -34.2897   250.0000   300.0000     7.5602    38.4603     3.0010     1.0017    38.0000    34.0000    34.0000    38.0000    34.0000    34.0000    38.0000    -0.0005     0.0005   159.4167   -41.1662     1.7545     0.9999    -0.0000     0.0001    14.7001    14.7000     0.0001   249.9580     0.000
      8    14.0000      1.000   7937.000   2594.000      1.033    66.7975   -20.0773   -41.1660   120.0962    -0.1480    -3.0001   -34.2897   250.0000   300.0000     7.5602    38.4603     3.0010     1.0017    38.0000    34.0000    34.0000    38.0000    34.0000    34.0000    38.0000    -0.0005     0.0005   159.4167   -41.1662     1.7545     0.9999    -0.0000     0.0001    14.7001    14.7000     0.0001   249.9180     0.000
      9    16.0000      1.000   8140.000   2659.000      1.059    66.7975   -20.0773   -41.1660   120.0962    -0.1480    -3.0001   -34.2897   250.0000   300.0000     7.5602    38.4603     3.0010     1.0017    38.0000    34.0000    34.0000    38.0000    34.0000    34.0000    38.0000    -0.0005     0.0005   159.4167   -41.1662     1.7545     0.9999    -0.0000     0.0001    14.7001    14.7000     0.0001   250.0400     0.000
     10    18.0000      1.000   8173.000   2638.000      1.050    66.7975   -20.0773   -41.1660   120.0962    -0.1480    -3.0001   -34.2897   250.0000   300.0000     7.5602    38.4603     3.0010     1.0017    38.0000    34.0000    34.0000    38.0000    34.0000    34.0000    38.0000    -0.0005     0.0005   159.4167   -41.1662     1.7545     0.9999    -0.0000     0.0001    14.7001    14.7000     0.0001   250.0450     0.000
     11    20.0000      1.000   8084.000   2622.000      1.044    66.7975   -20.0773   -41.1660   120.0962    -0.1480    -3.0001   -34.2897   250.0000   300.0000     7.5602    38.4603     3.0010     1.0017    38.0000    34.0000    34.0000    38.0000    34.0000    34.0000    38.0000    -0.0005     0.0005   159.4167   -41.1662     1.7545     0.9999    -0.0000     0.0001    14.7001    14.7000     0.0001   250.0380     0.000
     12    22.0000      1.000   8224.000   2650.000      1.055    66.7975   -20.0773   -41.1660   120.0962    -0.1480    -3.0001   -34.2897   250.0000   300.0000     7.5602    38.4603     3.0010     1.0017    38.0000    34.0000    34.0000    38.0000    34.0000    34.0000    38.0000    -0.0005     0.0005   159.4167   -41.1662     1.7545     0.9999    -0.0000     0.0001    14.7001    14.7000     0.0001   250.0390     0.000
     13    24.0000      1.000   8157.000   2562.000      1.020    66.7975   -20.0773   -41.1660   120.0962    -0.1480    -3.0001   -34.2897   250.0000   300.0000     7.5602    38.4603     3.0010     1.0017    38.0000    34.0000    34.0000    38.0000    34.0000    34.0000    38.0000    -0.0005     0.0005   159.4167   -41.1662     1.7545     0.9999    -0.0000     0.0001    14.7001    14.7000     0.0001   249.9200     0.000
     14    26.0000      1.000   8034.000   2643.000      1.052    66.7975   -20.0773   -41.1660   120.0962    -0.1480    -3.0001   -34.2897   250.0000   300.0000     7.5602    38.4603     3.0010     1.0017    38.0000    34.0000    34.0000    38.0000    34.0000    34.0000    38.0000    -0.0005     0.0005   159.4167   -41.1662     1.7545     0.9999    -0.0000     0.0001    14.7001    14.7000     0.0001   249.9290     0.000
     15    28.0000      1.000   8089.000   2600.000      1.035    66.7975   -20.0773   -41.1660   120.0962    -0.1480    -3.0001   -34.2897   250.0000   300.0000     7.5602    38.4603     3.0010     1.0017    38.0000    34.0000    34.0000    38.0000    34.0000    34.0000    38.0000    -0.0005     0.0005   159.4167   -41.1662     1.7545     0.9999    -0.0000     0.0001    14.7001    14.7000     0.0001   250.0320     0.000
     16    30.0000      1.000   7969.000   2563.000      1.020    66.7975   -20.0773   -41.1660   120.0962    -0.1480    -3.0001   -34.2897   250.0000   300.0000     7.5602    38.4603     3.0010     1.0017    38.0000    34.0000    34.0000    38.0000    34.0000    34.0000    38.0000    -0.0005     0.0005   159.4167   -41.1662     1.7545     0.9999    -0.0000     0.0001    14.7001    14.7000     0.0001   250.0320     0.000
     17    32.0000      1.000   7905.000   2676.000      1.065    66.7975   -20.0773   -41.1660   120.0962    -0.1480    -3.0001   -34.2897   250.0000   300.0000     7.5602    38.4603     3.0010     1.0017    38.0000    34.0000    34.0000    38.0000    34.0000    34.0000    38.0000    -0.0005     0.0005   159.4167   -41.1662     1.7545     0.9999    -0.0000     0.0001    14.7001    14.7000     0.0001   250.0590     0.000
     18    34.0000      1.000   8063.000   2567.000      1.022    66.7975   -20.0773   -41.1660   120.0962    -0.1480    -3.0001   -34.2897   250.0000   300.0000     7.5602    38.4603     3.0010     1.0017    38.0000    34.0000    34.0000    38.0000    34.0000    34.0000    38.0000    -0.0005     0.0005   159.4167   -41.1662     1.7545     0.9999    -0.0000     0.0001    14.7001    14.7000     0.0001   249.9580     0.000
     19    36.0000      1.000   7953.000   2624.000      1.045    66.7975   -20.0773   -41.1660   120.0962    -0.1480    -3.0001   -34.2897   250.0000   300.0000     7.5602    38.4603     3.0010     1.0017    38.0000    34.0000    34.0000    38.0000    34.0000    34.0000    38.0000    -0.0005     0.0005   159.4167   -41.1662     1.7545     0.9999    -0.0000     0.0001    14.7001    14.7000     0.0001   249.8700     0.000
     20    38.0000      1.000   8015.000   2606.000      1.037    66.7975   -20.0773   -41.1660   120.0962    -0.1480    -3.0001   -34.2897   250.0000   300.0000     7.5602    38.4603     3.0010     1.0017    38.0000    34.0000    34.0000    38.0000    34.0000    34.0000    38.0000    -0.0005     0.0005   159.4167   -41.1662     1.7545     0.9999    -0.0000     0.0001    14.7001    14.7000     0.0001   250.0550     0.000
# Sum of Counts = 157620
# Center of Mass = 19.376196+/-0.074679
# Full Width Half-Maximum = 22.641024+/-0.058105
# 1:49:32 PM  9/21/2024   scan completed.
