# scan = 180
# date = 3/2/2025
# time = 6:33:36 AM
# proposal = 34247
# experiment = Investigating the Transverse Field Ising Ferromagnet HoV6Sn6: A Rare Example of a Ferromagnetic Metal with a Quantum Critical Point?
# experiment_number = 1047
# command = scanrel s1 1 -1 0.1
# builtin_command = scan s1 @(s1)+1 @(s1)+-1 0.100000
# users = Aashish Sapkota, Benjamin Ueland, Dhurba Jaishi, Fei Li, Rob McQueeney, Tianxiong Han, Bing Li
# local_contact = A. Aczel
# scan_title = Moving to (1.998252 -0.000008 -0.00575) center
# monochromator = PG002
# analyzer = Pg002
# sense = +-+
# collimation = 40-40-40-80
# samplename = HoV6Sn6 crystal
# sampletype = crystal
# samplemosaic = 30.000000
# latticeconstants = 5.500888,5.500888,9.163669,90.000000,90.000000,120.000000
# ubmatrix = 0.113515,0.063136,0.091714,0.176568,0.085181,-0.058986,-0.000970,0.181165,-0.004228
# mode = 0
# plane_normal = 0.035087,-0.017067,0.999238
# ubconf = UB28Feb2025_100007PM.ini
# preset_type = normal 
# preset_channel = time
# preset_value = 1.000000
# def_x = s1
# def_y = detector
# col_headers = 
#   Pt.         s1       time   detector    monitor        mcu         m2      mag_i         s2        sgl        sgu   slitb_bt   slitb_lf   slitb_rt   slitb_tp   slita_bt   slita_lf   slita_rt   slita_tp        stl        stu         a1         a2          q          h          k          l         ei         ef          e        vti     sample       temp persistent_field dr_tsample    dr_temp
      1   -86.1473      1.000      2.000  21489.000      1.113    41.5367    -0.0000   -59.8119    -2.0107    -0.9782    25.0000     6.0000     6.0000    25.0000    25.0000     9.0000     7.0000    22.0000    -3.9970     0.0020    20.7313    41.4622     2.6355     1.9980    -0.0000     0.0613    14.4503    14.4999    -0.0496     1.7118     0.0000     1.0000     0.0001     0.1998     0.200
      2   -86.2469      1.000      7.000  21443.000      1.111    41.5367    -0.0000   -59.8119    -2.0107    -0.9782    25.0000     6.0000     6.0000    25.0000    25.0000     9.0000     7.0000    22.0000    -3.9970     0.0020    20.7313    41.4622     2.6355     1.9981    -0.0000     0.0546    14.4503    14.4999    -0.0496     1.7118     0.0000     1.0000     0.0001     0.1998     0.200
      3   -86.3470      1.000      5.000  21259.000      1.102    41.5367    -0.0000   -59.8119    -2.0107    -0.9782    25.0000     6.0000     6.0000    25.0000    25.0000     9.0000     7.0000    22.0000    -3.9970     0.0020    20.7313    41.4622     2.6355     1.9981    -0.0000     0.0479    14.4503    14.4999    -0.0496     1.7119     0.0000     1.0000     0.0001     0.1998     0.200
      4   -86.4470      1.000      2.000  21320.000      1.105    41.5367    -0.0000   -59.8119    -2.0107    -0.9782    25.0000     6.0000     6.0000    25.0000    25.0000     9.0000     7.0000    22.0000    -3.9970     0.0020    20.7313    41.4622     2.6355     1.9981    -0.0000     0.0412    14.4503    14.4999    -0.0497     1.7119     0.0000     1.0000     0.0001     0.1998     0.200
      5   -86.5466      1.000      5.000  21546.000      1.116    41.5367     0.0000   -59.8119    -2.0107    -0.9782    25.0000     6.0000     6.0000    25.0000    25.0000     9.0000     7.0000    22.0000    -3.9970     0.0020    20.7314    41.4622     2.6355     1.9982    -0.0000     0.0345    14.4503    14.4999    -0.0496     1.7118     0.0000     1.0000     0.0001     0.1998     0.200
      6   -86.6469      1.000     11.000  21141.000      1.095    41.5367    -0.0000   -59.8119    -2.0107    -0.9782    25.0000     6.0000     6.0000    25.0000    25.0000     9.0000     7.0000    22.0000    -3.9970     0.0020    20.7313    41.4622     2.6355     1.9982    -0.0000     0.0278    14.4503    14.4999    -0.0497     1.7118     0.0000     1.0000     0.0001     0.1998     0.200
      7   -86.7469      1.000     26.000  21468.000      1.112    41.5367    -0.0000   -59.8119    -2.0107    -0.9782    25.0000     6.0000     6.0000    25.0000    25.0000     9.0000     7.0000    22.0000    -3.9970     0.0020    20.7314    41.4622     2.6355     1.9982    -0.0000     0.0211    14.4503    14.4999    -0.0496     1.7119     0.0000     1.0000     0.0001     0.1998     0.200
      8   -86.8471      1.000     94.000  21237.000      1.100    41.5367    -0.0000   -59.8119    -2.0107    -0.9782    25.0000     6.0000     6.0000    25.0000    25.0000     9.0000     7.0000    22.0000    -3.9970     0.0020    20.7314    41.4622     2.6355     1.9982    -0.0000     0.0144    14.4503    14.4999    -0.0496     1.7119     0.0000     1.0000     0.0001     0.1998     0.200
      9   -86.9474      1.000    196.000  21592.000      1.119    41.5367    -0.0000   -59.8119    -2.0107    -0.9782    25.0000     6.0000     6.0000    25.0000    25.0000     9.0000     7.0000    22.0000    -3.9970     0.0020    20.7313    41.4622     2.6355     1.9982    -0.0000     0.0076    14.4503    14.4999    -0.0496     1.7119     0.0000     1.0000     0.0001     0.1998     0.200
     10   -87.0472      1.000    279.000  21128.000      1.095    41.5367    -0.0000   -59.8119    -2.0107    -0.9782    25.0000     6.0000     6.0000    25.0000    25.0000     9.0000     7.0000    22.0000    -3.9970     0.0020    20.7314    41.4622     2.6355     1.9983    -0.0000     0.0010    14.4503    14.4999    -0.0496     1.7119     0.0000     1.0000     0.0001     0.1998     0.200
     11   -87.1471      1.000    221.000  21705.000      1.125    41.5367     0.0000   -59.8119    -2.0107    -0.9782    25.0000     6.0000     6.0000    25.0000    25.0000     9.0000     7.0000    22.0000    -3.9970     0.0020    20.7313    41.4622     2.6355     1.9983    -0.0000    -0.0058    14.4503    14.4999    -0.0496     1.7119     0.0000     1.0000     0.0001     0.1998     0.200
     12   -87.2476      1.000    127.000  21237.000      1.100    41.5367    -0.0000   -59.8119    -2.0107    -0.9782    25.0000     6.0000     6.0000    25.0000    25.0000     9.0000     7.0000    22.0000    -3.9970     0.0020    20.7314    41.4622     2.6355     1.9982    -0.0000    -0.0125    14.4503    14.4999    -0.0497     1.7119     0.0000     1.0000     0.0001     0.1998     0.200
     13   -87.3469      1.000     33.000  21523.000      1.115    41.5367     0.0000   -59.8119    -2.0107    -0.9782    25.0000     6.0000     6.0000    25.0000    25.0000     9.0000     7.0000    22.0000    -3.9970     0.0020    20.7314    41.4622     2.6355     1.9982    -0.0000    -0.0192    14.4503    14.4999    -0.0496     1.7119     0.0000     1.0000     0.0001     0.1998     0.200
     14   -87.4469      1.000     14.000  21219.000      1.099    41.5367    -0.0000   -59.8119    -2.0107    -0.9782    25.0000     6.0000     6.0000    25.0000    25.0000     9.0000     7.0000    22.0000    -3.9970     0.0020    20.7314    41.4622     2.6355     1.9982    -0.0000    -0.0259    14.4503    14.4999    -0.0496     1.7118     0.0000     1.0000     0.0001     0.1998     0.200
     15   -87.5466      1.000      4.000  21135.000      1.095    41.5367    -0.0000   -59.8119    -2.0107    -0.9782    25.0000     6.0000     6.0000    25.0000    25.0000     9.0000     7.0000    22.0000    -3.9970     0.0020    20.7313    41.4622     2.6355     1.9982    -0.0000    -0.0326    14.4503    14.4999    -0.0496     1.7118     0.0000     1.0000     0.0001     0.1998     0.200
     16   -87.6467      1.000      3.000  21451.000      1.111    41.5367     0.0000   -59.8119    -2.0107    -0.9782    25.0000     6.0000     6.0000    25.0000    25.0000     9.0000     7.0000    22.0000    -3.9970     0.0020    20.7314    41.4622     2.6355     1.9981    -0.0000    -0.0393    14.4503    14.4999    -0.0497     1.7118     0.0000     1.0000     0.0001     0.1998     0.200
     17   -87.7467      1.000      7.000  21364.000      1.107    41.5367     0.0000   -59.8119    -2.0107    -0.9782    25.0000     6.0000     6.0000    25.0000    25.0000     9.0000     7.0000    22.0000    -3.9970     0.0020    20.7313    41.4622     2.6355     1.9981    -0.0000    -0.0460    14.4503    14.4999    -0.0497     1.7119     0.0000     1.0000     0.0001     0.2011     0.200
     18   -87.8473      1.000      2.000  21131.000      1.095    41.5367     0.0001   -59.8119    -2.0107    -0.9782    25.0000     6.0000     6.0000    25.0000    25.0000     9.0000     7.0000    22.0000    -3.9970     0.0020    20.7313    41.4622     2.6355     1.9981    -0.0000    -0.0527    14.4503    14.4999    -0.0497     1.7119     0.0000     1.0000     0.0001     0.2011     0.200
     19   -87.9471      1.000      8.000  20903.000      1.083    41.5367    -0.0000   -59.8119    -2.0107    -0.9782    25.0000     6.0000     6.0000    25.0000    25.0000     9.0000     7.0000    22.0000    -3.9970     0.0020    20.7314    41.4622     2.6355     1.9980    -0.0000    -0.0594    14.4503    14.4999    -0.0496     1.7119     0.0000     1.0000     0.0001     0.2011     0.200
     20   -88.0473      1.000      5.000  21425.000      1.110    41.5367    -0.0000   -59.8119    -2.0107    -0.9782    25.0000     6.0000     6.0000    25.0000    25.0000     9.0000     7.0000    22.0000    -3.9970     0.0020    20.7313    41.4622     2.6355     1.9980    -0.0000    -0.0661    14.4503    14.4999    -0.0497     1.7119     0.0000     1.0000     0.0001     0.2011     0.200
     21   -88.1476      1.000      7.000  21377.000      1.108    41.5367    -0.0000   -59.8119    -2.0107    -0.9782    25.0000     6.0000     6.0000    25.0000    25.0000     9.0000     7.0000    22.0000    -3.9970     0.0020    20.7314    41.4622     2.6355     1.9979    -0.0000    -0.0729    14.4503    14.4999    -0.0496     1.7119     0.0000     1.0000     0.0001     0.2011     0.200
# Sum of Counts = 1058
# Center of Mass = -87.073686+/-3.785819
# Full Width Half-Maximum = 0.471704+/-1.453379
# 6:34:31 AM  3/2/2025   scan completed.
