# scan = 122
# date = 3/1/2025
# time = 7:29:32 AM
# proposal = 34247
# experiment = Investigating the Transverse Field Ising Ferromagnet HoV6Sn6: A Rare Example of a Ferromagnetic Metal with a Quantum Critical Point?
# experiment_number = 1047
# command = scan mag_i 4 0 -0.05 preset time 10
# builtin_command = scan mag_i 4 0 -0.05 preset time 10
# users = Aashish Sapkota, Benjamin Ueland, Dhurba Jaishi, Fei Li, Rob McQueeney, Tianxiong Han, Bing Li
# local_contact = A. Aczel
# scan_title = HoV6Sn6, field dependence of (0.99919 -0.000015 -0.004294), T = 0 K, DOWN
# monochromator = PG002
# analyzer = Pg002
# sense = +-+
# collimation = 40-40-40-80
# samplename = HoV6Sn6 crystal
# sampletype = crystal
# samplemosaic = 30.000000
# latticeconstants = 5.500888,5.500888,9.163669,90.000000,90.000000,120.000000
# ubmatrix = 0.113515,0.063136,0.091714,0.176568,0.085181,-0.058986,-0.000970,0.181165,-0.004228
# mode = 0
# plane_normal = 0.035087,-0.017067,0.999238
# ubconf = UB28Feb2025_100007PM.ini
# preset_type = normal 
# preset_channel = time
# preset_value = 10.000000
# def_x = mag_i
# def_y = detector
# col_headers = 
#   Pt.      mag_i       time   detector    monitor        mcu         m2         s1         s2        sgl        sgu   slitb_bt   slitb_lf   slitb_rt   slitb_tp   slita_bt   slita_lf   slita_rt   slita_tp        stl        stu         a1         a2          q          h          k          l         ei         ef          e        vti     sample       temp persistent_field dr_tsample    dr_temp
      1     4.0000     10.000   5680.000 213056.000     11.039    41.5367   -71.6147   -28.8725    -2.0118    -0.9782    25.0000     6.0000     6.0000    25.0000    25.0000     9.0000     7.0000    22.0000    -3.9970     0.0025    20.7319    41.4624     1.3178     0.9992    -0.0000    -0.0043    14.4503    14.4999    -0.0496     1.7160     0.0000     1.0000     4.0000     0.0608     0.030
      2     3.9500     10.000   5718.000 212935.000     11.033    41.5367   -71.6147   -28.8725    -2.0118    -0.9782    25.0000     6.0000     6.0000    25.0000    25.0000     9.0000     7.0000    22.0000    -3.9970     0.0025    20.7319    41.4624     1.3178     0.9992    -0.0000    -0.0043    14.4503    14.4999    -0.0496     1.7166     0.0000     1.0000     3.9500     0.0586     0.030
      3     3.8998     10.000   5499.000 212729.000     11.022    41.5367   -71.6146   -28.8725    -2.0118    -0.9782    25.0000     6.0000     6.0000    25.0000    25.0000     9.0000     7.0000    22.0000    -3.9970     0.0025    20.7318    41.4624     1.3178     0.9992    -0.0000    -0.0043    14.4503    14.4998    -0.0496     1.7166     0.0000     1.0000     3.8998     0.0574     0.030
      4     3.8500     10.000   5626.000 212632.000     11.017    41.5367   -71.6146   -28.8725    -2.0115    -0.9782    25.0000     6.0000     6.0000    25.0000    25.0000     9.0000     7.0000    22.0000    -3.9970     0.0025    20.7318    41.4624     1.3178     0.9992    -0.0000    -0.0043    14.4503    14.4998    -0.0496     1.7167     0.0000     1.0000     3.8499     0.0574     0.030
      5     3.7999     10.000   5554.000 211916.000     10.980    41.5367   -71.6145   -28.8725    -2.0115    -0.9782    25.0000     6.0000     6.0000    25.0000    25.0000     9.0000     7.0000    22.0000    -3.9970     0.0025    20.7319    41.4624     1.3178     0.9992    -0.0000    -0.0043    14.4503    14.4999    -0.0496     1.7168     0.0000     1.0000     3.7998     0.0566     0.030
      6     3.7500     10.000   5707.000 212630.000     11.017    41.5367   -71.6145   -28.8725    -2.0115    -0.9782    25.0000     6.0000     6.0000    25.0000    25.0000     9.0000     7.0000    22.0000    -3.9970     0.0025    20.7318    41.4624     1.3178     0.9992    -0.0000    -0.0043    14.4503    14.4998    -0.0496     1.7170     0.0000     1.0000     3.7500     0.0564     0.030
      7     3.7000     10.000   5709.000 211942.000     10.981    41.5367   -71.6145   -28.8725    -2.0115    -0.9782    25.0000     6.0000     6.0000    25.0000    25.0000     9.0000     7.0000    22.0000    -3.9970     0.0025    20.7318    41.4624     1.3178     0.9992    -0.0000    -0.0043    14.4503    14.4998    -0.0495     1.7171     0.0000     1.0000     3.7000     0.0567     0.030
      8     3.6500     10.000   5683.000 212721.000     11.022    41.5367   -71.6144   -28.8725    -2.0115    -0.9782    25.0000     6.0000     6.0000    25.0000    25.0000     9.0000     7.0000    22.0000    -3.9970     0.0025    20.7318    41.4624     1.3178     0.9992    -0.0000    -0.0043    14.4503    14.4998    -0.0496     1.7172     0.0000     1.0000     3.6500     0.0570     0.030
      9     3.6000     10.000   5603.000 211328.000     10.950    41.5367   -71.6144   -28.8725    -2.0115    -0.9782    25.0000     6.0000     6.0000    25.0000    25.0000     9.0000     7.0000    22.0000    -3.9970     0.0025    20.7318    41.4624     1.3178     0.9992    -0.0000    -0.0043    14.4503    14.4999    -0.0496     1.7174     0.0000     1.0000     3.6000     0.0581     0.030
     10     3.5499     10.000   5540.000 212434.000     11.007    41.5367   -71.6143   -28.8725    -2.0115    -0.9782    25.0000     6.0000     6.0000    25.0000    25.0000     9.0000     7.0000    22.0000    -3.9970     0.0025    20.7318    41.4624     1.3178     0.9992    -0.0000    -0.0043    14.4503    14.4998    -0.0496     1.7175     0.0000     1.0000     3.5499     0.0581     0.030
     11     3.5000     10.000   5622.000 212455.000     11.008    41.5367   -71.6143   -28.8725    -2.0115    -0.9782    25.0000     6.0000     6.0000    25.0000    25.0000     9.0000     7.0000    22.0000    -3.9970     0.0025    20.7318    41.4624     1.3178     0.9992    -0.0000    -0.0043    14.4503    14.4998    -0.0496     1.7176     0.0000     1.0000     3.5000     0.0591     0.030
     12     3.4500     10.000   5644.000 211821.000     10.975    41.5367   -71.6142   -28.8725    -2.0115    -0.9782    25.0000     6.0000     6.0000    25.0000    25.0000     9.0000     7.0000    22.0000    -3.9970     0.0025    20.7318    41.4624     1.3178     0.9992    -0.0000    -0.0043    14.4503    14.4998    -0.0496     1.7178     0.0000     1.0000     3.4500     0.0606     0.030
     13     3.3999     10.000   5526.000 212757.000     11.024    41.5367   -71.6142   -28.8725    -2.0115    -0.9782    25.0000     6.0000     6.0000    25.0000    25.0000     9.0000     7.0000    22.0000    -3.9970     0.0025    20.7318    41.4624     1.3178     0.9992    -0.0000    -0.0043    14.4503    14.4998    -0.0496     1.7181     0.0000     1.0000     3.3999     0.0623     0.030
     14     3.3500     10.000   5579.000 211913.000     10.980    41.5367   -71.6141   -28.8725    -2.0115    -0.9782    25.0000     6.0000     6.0000    25.0000    25.0000     9.0000     7.0000    22.0000    -3.9970     0.0025    20.7318    41.4624     1.3178     0.9992    -0.0000    -0.0043    14.4503    14.4999    -0.0496     1.7190     0.0000     1.0000     3.3500     0.0640     0.030
     15     3.2999     10.000   5621.000 212494.000     11.010    41.5367   -71.6141   -28.8725    -2.0115    -0.9782    25.0000     6.0000     6.0000    25.0000    25.0000     9.0000     7.0000    22.0000    -3.9970     0.0025    20.7318    41.4624     1.3178     0.9992    -0.0000    -0.0043    14.4503    14.4999    -0.0496     1.7197     0.0000     1.0000     3.2999     0.0640     0.030
     16     3.2500     10.000   5687.000 212841.000     11.028    41.5367   -71.6141   -28.8725    -2.0115    -0.9782    25.0000     6.0000     6.0000    25.0000    25.0000     9.0000     7.0000    22.0000    -3.9970     0.0025    20.7318    41.4624     1.3178     0.9992    -0.0000    -0.0043    14.4503    14.4998    -0.0496     1.7224     0.0000     1.0000     3.2500     0.0651     0.030
     17     3.2000     10.000   5592.000 211755.000     10.972    41.5367   -71.6140   -28.8725    -2.0115    -0.9782    25.0000     6.0000     6.0000    25.0000    25.0000     9.0000     7.0000    22.0000    -3.9970     0.0025    20.7318    41.4624     1.3178     0.9992    -0.0000    -0.0043    14.4503    14.4999    -0.0496     1.7245     0.0000     1.0000     3.2000     0.0663     0.030
     18     3.1499     10.000   5676.000 211977.000     10.983    41.5367   -71.6140   -28.8725    -2.0112    -0.9782    25.0000     6.0000     6.0000    25.0000    25.0000     9.0000     7.0000    22.0000    -3.9970     0.0025    20.7318    41.4624     1.3178     0.9992    -0.0000    -0.0043    14.4503    14.4999    -0.0496     1.7246     0.0000     1.0000     3.1498     0.0688     0.030
     19     3.1000     10.000   5510.000 212765.000     11.024    41.5367   -71.6139   -28.8725    -2.0112    -0.9782    25.0000     6.0000     6.0000    25.0000    25.0000     9.0000     7.0000    22.0000    -3.9970     0.0025    20.7318    41.4624     1.3178     0.9992    -0.0000    -0.0043    14.4503    14.4998    -0.0496     1.7215     0.0000     1.0000     3.1000     0.0688     0.030
     20     3.0500     10.000   5473.000 212699.000     11.021    41.5367   -71.6139   -28.8725    -2.0112    -0.9782    25.0000     6.0000     6.0000    25.0000    25.0000     9.0000     7.0000    22.0000    -3.9970     0.0025    20.7318    41.4624     1.3178     0.9992    -0.0000    -0.0043    14.4503    14.4999    -0.0496     1.7164     0.0000     1.0000     3.0499     0.0704     0.030
     21     3.0000     10.000   5310.000 212295.000     11.000    41.5367   -71.6139   -28.8725    -2.0112    -0.9782    25.0000     6.0000     6.0000    25.0000    25.0000     9.0000     7.0000    22.0000    -3.9970     0.0025    20.7318    41.4624     1.3178     0.9992    -0.0000    -0.0043    14.4503    14.4998    -0.0496     1.7117     0.0000     1.0000     3.0000     0.0708     0.030
     22     2.9500     10.000   5486.000 212735.000     11.023    41.5367   -71.6138   -28.8725    -2.0112    -0.9782    25.0000     6.0000     6.0000    25.0000    25.0000     9.0000     7.0000    22.0000    -3.9970     0.0020    20.7318    41.4624     1.3178     0.9992    -0.0000    -0.0043    14.4503    14.4998    -0.0495     1.7099     0.0000     1.0000     2.9500     0.0713     0.030
     23     2.8999     10.000   5654.000 212481.000     11.009    41.5367   -71.6138   -28.8725    -2.0112    -0.9782    25.0000     6.0000     6.0000    25.0000    25.0000     9.0000     7.0000    22.0000    -3.9970     0.0020    20.7318    41.4624     1.3178     0.9992    -0.0000    -0.0043    14.4503    14.4999    -0.0496     1.7091     0.0000     1.0000     2.8999     0.0747     0.030
     24     2.8500     10.000   5531.000 211290.000     10.948    41.5367   -71.6138   -28.8725    -2.0112    -0.9782    25.0000     6.0000     6.0000    25.0000    25.0000     9.0000     7.0000    22.0000    -3.9970     0.0020    20.7318    41.4624     1.3178     0.9992    -0.0000    -0.0043    14.4503    14.4999    -0.0496     1.7085     0.0000     1.0000     2.8500     0.0755     0.030
     25     2.7999     10.000   5491.000 211428.000     10.955    41.5367   -71.6137   -28.8725    -2.0112    -0.9782    25.0000     6.0000     6.0000    25.0000    25.0000     9.0000     7.0000    22.0000    -3.9970     0.0020    20.7318    41.4624     1.3178     0.9992    -0.0000    -0.0043    14.4503    14.4998    -0.0496     1.7082     0.0000     1.0000     2.7999     0.0755     0.030
     26     2.7500     10.000   5515.000 212150.000     10.992    41.5367   -71.6137   -28.8725    -2.0112    -0.9782    25.0000     6.0000     6.0000    25.0000    25.0000     9.0000     7.0000    22.0000    -3.9970     0.0020    20.7318    41.4623     1.3178     0.9992    -0.0000    -0.0043    14.4503    14.4999    -0.0496     1.7079     0.0000     1.0000     2.7500     0.0748     0.030
     27     2.7000     10.000   5381.000 212465.000     11.009    41.5367   -71.6137   -28.8725    -2.0112    -0.9782    25.0000     6.0000     6.0000    25.0000    25.0000     9.0000     7.0000    22.0000    -3.9970     0.0020    20.7318    41.4624     1.3178     0.9992    -0.0000    -0.0043    14.4503    14.4998    -0.0496     1.7078     0.0000     1.0000     2.7000     0.0745     0.030
     28     2.6499     10.000   5531.000 211888.000     10.979    41.5367   -71.6136   -28.8725    -2.0112    -0.9782    25.0000     6.0000     6.0000    25.0000    25.0000     9.0000     7.0000    22.0000    -3.9970     0.0020    20.7318    41.4624     1.3178     0.9992    -0.0000    -0.0043    14.4503    14.4999    -0.0496     1.7077     0.0000     1.0000     2.6499     0.0749     0.030
     29     2.6000     10.000   5510.000 212439.000     11.007    41.5367   -71.6136   -28.8725    -2.0110    -0.9782    25.0000     6.0000     6.0000    25.0000    25.0000     9.0000     7.0000    22.0000    -3.9970     0.0020    20.7318    41.4624     1.3178     0.9992    -0.0000    -0.0043    14.4503    14.4999    -0.0496     1.7076     0.0000     1.0000     2.6000     0.0819     0.030
     30     2.5500     10.000   5429.000 213512.000     11.063    41.5367   -71.6135   -28.8725    -2.0110    -0.9782    25.0000     6.0000     6.0000    25.0000    25.0000     9.0000     7.0000    22.0000    -3.9970     0.0020    20.7318    41.4624     1.3178     0.9992    -0.0000    -0.0043    14.4503    14.4999    -0.0496     1.7075     0.0000     1.0000     2.5500     0.0804     0.030
     31     2.5000     10.000   5534.000 212862.000     11.029    41.5367   -71.6135   -28.8725    -2.0110    -0.9782    25.0000     6.0000     6.0000    25.0000    25.0000     9.0000     7.0000    22.0000    -3.9970     0.0020    20.7318    41.4624     1.3178     0.9992    -0.0000    -0.0043    14.4503    14.4998    -0.0496     1.7075     0.0000     1.0000     2.5000     0.0804     0.030
     32     2.4500     10.000   5493.000 212131.000     10.991    41.5367   -71.6135   -28.8725    -2.0110    -0.9782    25.0000     6.0000     6.0000    25.0000    25.0000     9.0000     7.0000    22.0000    -3.9970     0.0020    20.7318    41.4624     1.3178     0.9992    -0.0000    -0.0043    14.4503    14.4998    -0.0496     1.7074     0.0000     1.0000     2.4500     0.0797     0.030
     33     2.3999     10.000   5412.000 212472.000     11.009    41.5367   -71.6135   -28.8725    -2.0110    -0.9782    25.0000     6.0000     6.0000    25.0000    25.0000     9.0000     7.0000    22.0000    -3.9970     0.0020    20.7318    41.4624     1.3178     0.9992    -0.0000    -0.0043    14.4503    14.4999    -0.0496     1.7074     0.0000     1.0000     2.3999     0.0807     0.030
     34     2.3500     10.000   5467.000 211380.000     10.952    41.5367   -71.6134   -28.8725    -2.0110    -0.9782    25.0000     6.0000     6.0000    25.0000    25.0000     9.0000     7.0000    22.0000    -3.9970     0.0020    20.7318    41.4624     1.3178     0.9992    -0.0000    -0.0043    14.4503    14.4999    -0.0496     1.7073     0.0000     1.0000     2.3500     0.0898     0.030
     35     2.3000     10.000   5330.000 212629.000     11.017    41.5367   -71.6134   -28.8725    -2.0110    -0.9782    25.0000     6.0000     6.0000    25.0000    25.0000     9.0000     7.0000    22.0000    -3.9970     0.0020    20.7318    41.4624     1.3178     0.9992    -0.0000    -0.0043    14.4503    14.4999    -0.0496     1.7072     0.0000     1.0000     2.2999     0.0864     0.030
     36     2.2500     10.000   5511.000 212708.000     11.021    41.5367   -71.6134   -28.8725    -2.0110    -0.9782    25.0000     6.0000     6.0000    25.0000    25.0000     9.0000     7.0000    22.0000    -3.9970     0.0020    20.7317    41.4624     1.3178     0.9992    -0.0000    -0.0043    14.4503    14.4998    -0.0496     1.7072     0.0000     1.0000     2.2500     0.0864     0.030
     37     2.2000     10.000   5421.000 212115.000     10.990    41.5367   -71.6133   -28.8725    -2.0110    -0.9782    25.0000     6.0000     6.0000    25.0000    25.0000     9.0000     7.0000    22.0000    -3.9970     0.0020    20.7318    41.4624     1.3178     0.9992    -0.0000    -0.0043    14.4503    14.4999    -0.0496     1.7071     0.0000     1.0000     2.2000     0.0852     0.030
     38     2.1499     10.000   5443.000 212339.000     11.002    41.5367   -71.6133   -28.8725    -2.0110    -0.9782    25.0000     6.0000     6.0000    25.0000    25.0000     9.0000     7.0000    22.0000    -3.9970     0.0020    20.7318    41.4624     1.3178     0.9992    -0.0000    -0.0043    14.4503    14.4998    -0.0496     1.7070     0.0000     1.0000     2.1499     0.0831     0.030
     39     2.1000     10.000   5502.000 212543.000     11.013    41.5367   -71.6133   -28.8725    -2.0110    -0.9782    25.0000     6.0000     6.0000    25.0000    25.0000     9.0000     7.0000    22.0000    -3.9970     0.0020    20.7318    41.4624     1.3178     0.9992    -0.0000    -0.0042    14.4503    14.4998    -0.0496     1.7070     0.0000     1.0000     2.1000     0.0927     0.030
     40     2.0499     10.000   5575.000 211750.000     10.972    41.5367   -71.6132   -28.8725    -2.0110    -0.9782    25.0000     6.0000     6.0000    25.0000    25.0000     9.0000     7.0000    22.0000    -3.9970     0.0020    20.7318    41.4624     1.3178     0.9992    -0.0000    -0.0042    14.4503    14.4998    -0.0496     1.7068     0.0000     1.0000     2.0499     0.0909     0.030
     41     2.0000     10.000   5638.000 211923.000     10.980    41.5367   -71.6132   -28.8725    -2.0110    -0.9782    25.0000     6.0000     6.0000    25.0000    25.0000     9.0000     7.0000    22.0000    -3.9970     0.0020    20.7317    41.4624     1.3178     0.9992    -0.0000    -0.0042    14.4503    14.4998    -0.0496     1.7067     0.0000     1.0000     1.9999     0.0909     0.030
     42     1.9499     10.000   5636.000 212824.000     11.027    41.5367   -71.6132   -28.8725    -2.0110    -0.9782    25.0000     6.0000     6.0000    25.0000    25.0000     9.0000     7.0000    22.0000    -3.9970     0.0020    20.7318    41.4624     1.3178     0.9992    -0.0000    -0.0042    14.4503    14.4999    -0.0496     1.7067     0.0000     1.0000     1.9499     0.0863     0.030
     43     1.8999     10.000   5882.000 212682.000     11.020    41.5367   -71.6132   -28.8725    -2.0110    -0.9782    25.0000     6.0000     6.0000    25.0000    25.0000     9.0000     7.0000    22.0000    -3.9970     0.0020    20.7317    41.4624     1.3178     0.9992    -0.0000    -0.0042    14.4503    14.4999    -0.0496     1.7066     0.0000     1.0000     1.8999     0.0922     0.030
     44     1.8499     10.000   6065.000 212391.000     11.005    41.5367   -71.6131   -28.8725    -2.0107    -0.9782    25.0000     6.0000     6.0000    25.0000    25.0000     9.0000     7.0000    22.0000    -3.9970     0.0020    20.7318    41.4624     1.3178     0.9992    -0.0000    -0.0042    14.4503    14.4999    -0.0496     1.7065     0.0000     1.0000     1.8499     0.0922     0.030
     45     1.7999     10.000   6380.000 213164.000     11.045    41.5367   -71.6131   -28.8725    -2.0107    -0.9782    25.0000     6.0000     6.0000    25.0000    25.0000     9.0000     7.0000    22.0000    -3.9970     0.0020    20.7317    41.4624     1.3178     0.9992    -0.0000    -0.0042    14.4503    14.4999    -0.0496     1.7064     0.0000     1.0000     1.7999     0.0970     0.030
     46     1.7500     10.000   6559.000 212822.000     11.027    41.5367   -71.6131   -28.8725    -2.0107    -0.9782    25.0000     6.0000     6.0000    25.0000    25.0000     9.0000     7.0000    22.0000    -3.9970     0.0020    20.7318    41.4624     1.3178     0.9992    -0.0000    -0.0042    14.4503    14.4999    -0.0496     1.7064     0.0000     1.0000     1.7500     0.0898     0.030
     47     1.7000     10.000   6564.000 211640.000     10.966    41.5367   -71.6131   -28.8725    -2.0107    -0.9782    25.0000     6.0000     6.0000    25.0000    25.0000     9.0000     7.0000    22.0000    -3.9970     0.0020    20.7317    41.4624     1.3178     0.9992    -0.0000    -0.0042    14.4503    14.4998    -0.0496     1.7063     0.0000     1.0000     1.6999     0.0993     0.030
     48     1.6500     10.000   6729.000 213107.000     11.042    41.5367   -71.6131   -28.8725    -2.0107    -0.9782    25.0000     6.0000     6.0000    25.0000    25.0000     9.0000     7.0000    22.0000    -3.9970     0.0020    20.7317    41.4624     1.3178     0.9992    -0.0000    -0.0042    14.4503    14.4999    -0.0496     1.7062     0.0000     1.0000     1.6499     0.0954     0.030
     49     1.5999     10.000   6944.000 212046.000     10.987    41.5367   -71.6130   -28.8725    -2.0107    -0.9782    25.0000     6.0000     6.0000    25.0000    25.0000     9.0000     7.0000    22.0000    -3.9970     0.0020    20.7318    41.4624     1.3178     0.9992    -0.0000    -0.0042    14.4503    14.4999    -0.0496     1.7062     0.0000     1.0000     1.5999     0.0954     0.030
     50     1.5501     10.000   7073.000 212957.000     11.034    41.5367   -71.6130   -28.8725    -2.0107    -0.9782    25.0000     6.0000     6.0000    25.0000    25.0000     9.0000     7.0000    22.0000    -3.9970     0.0020    20.7317    41.4624     1.3178     0.9992    -0.0000    -0.0042    14.4503    14.4998    -0.0496     1.7061     0.0000     1.0000     1.5501     0.0885     0.030
     51     1.4999     10.000   7342.000 212182.000     10.994    41.5367   -71.6130   -28.8725    -2.0107    -0.9782    25.0000     6.0000     6.0000    25.0000    25.0000     9.0000     7.0000    22.0000    -3.9970     0.0020    20.7317    41.4624     1.3178     0.9992    -0.0000    -0.0042    14.4503    14.4998    -0.0496     1.7061     0.0000     1.0000     1.4999     0.1025     0.030
     52     1.4499     10.000   7531.000 211373.000     10.952    41.5367   -71.6130   -28.8725    -2.0107    -0.9782    25.0000     6.0000     6.0000    25.0000    25.0000     9.0000     7.0000    22.0000    -3.9970     0.0020    20.7317    41.4624     1.3178     0.9992    -0.0000    -0.0042    14.4503    14.4999    -0.0496     1.7060     0.0000     1.0000     1.4499     0.1005     0.030
     53     1.4000     10.000   7607.000 212067.000     10.988    41.5367   -71.6129   -28.8725    -2.0107    -0.9782    25.0000     6.0000     6.0000    25.0000    25.0000     9.0000     7.0000    22.0000    -3.9970     0.0020    20.7317    41.4624     1.3178     0.9992    -0.0000    -0.0042    14.4503    14.4998    -0.0496     1.7060     0.0000     1.0000     1.3999     0.1005     0.030
     54     1.3499     10.000   7721.000 213132.000     11.043    41.5367   -71.6129   -28.8725    -2.0107    -0.9782    25.0000     6.0000     6.0000    25.0000    25.0000     9.0000     7.0000    22.0000    -3.9970     0.0020    20.7317    41.4624     1.3178     0.9992    -0.0000    -0.0042    14.4503    14.4999    -0.0496     1.7059     0.0000     1.0000     1.3499     0.0865     0.030
     55     1.2999     10.000   8067.000 212729.000     11.022    41.5367   -71.6129   -28.8725    -2.0107    -0.9782    25.0000     6.0000     6.0000    25.0000    25.0000     9.0000     7.0000    22.0000    -3.9970     0.0020    20.7317    41.4624     1.3178     0.9992    -0.0000    -0.0042    14.4503    14.4999    -0.0496     1.7059     0.0000     1.0000     1.2999     0.1095     0.030
     56     1.2499     10.000   8138.000 213228.000     11.048    41.5367   -71.6129   -28.8725    -2.0107    -0.9782    25.0000     6.0000     6.0000    25.0000    25.0000     9.0000     7.0000    22.0000    -3.9970     0.0020    20.7317    41.4624     1.3178     0.9992    -0.0000    -0.0042    14.4503    14.4999    -0.0496     1.7059     0.0000     1.0000     1.2499     0.1095     0.030
     57     1.1999     10.000   8214.000 212371.000     11.004    41.5367   -71.6129   -28.8725    -2.0107    -0.9782    25.0000     6.0000     6.0000    25.0000    25.0000     9.0000     7.0000    22.0000    -3.9970     0.0020    20.7317    41.4624     1.3178     0.9992    -0.0000    -0.0042    14.4503    14.4999    -0.0496     1.7059     0.0000     1.0000     1.1999     0.0951     0.030
     58     1.1500     10.000   8233.000 213066.000     11.040    41.5367   -71.6129   -28.8725    -2.0107    -0.9782    25.0000     6.0000     6.0000    25.0000    25.0000     9.0000     7.0000    22.0000    -3.9970     0.0020    20.7317    41.4624     1.3178     0.9992    -0.0000    -0.0042    14.4503    14.4999    -0.0496     1.7058     0.0000     1.0000     1.1499     0.0840     0.030
     59     1.1000     10.000   8425.000 212546.000     11.013    41.5367   -71.6128   -28.8725    -2.0107    -0.9782    25.0000     6.0000     6.0000    25.0000    25.0000     9.0000     7.0000    22.0000    -3.9970     0.0020    20.7317    41.4624     1.3178     0.9992    -0.0000    -0.0042    14.4503    14.4999    -0.0496     1.7058     0.0000     1.0000     1.0999     0.0982     0.030
     60     1.0499     10.000   8386.000 212044.000     10.987    41.5367   -71.6128   -28.8725    -2.0107    -0.9782    25.0000     6.0000     6.0000    25.0000    25.0000     9.0000     7.0000    22.0000    -3.9970     0.0020    20.7317    41.4624     1.3178     0.9992    -0.0000    -0.0042    14.4503    14.4999    -0.0496     1.7057     0.0000     1.0000     1.0499     0.1004     0.030
     61     0.9999     10.000   8677.000 211788.000     10.973    41.5367   -71.6128   -28.8725    -2.0107    -0.9782    25.0000     6.0000     6.0000    25.0000    25.0000     9.0000     7.0000    22.0000    -3.9970     0.0020    20.7317    41.4624     1.3178     0.9992    -0.0000    -0.0042    14.4503    14.4999    -0.0496     1.7057     0.0000     1.0000     0.9999     0.1004     0.030
     62     0.9500     10.000   8711.000 211794.000     10.974    41.5367   -71.6128   -28.8725    -2.0107    -0.9782    25.0000     6.0000     6.0000    25.0000    25.0000     9.0000     7.0000    22.0000    -3.9970     0.0020    20.7317    41.4624     1.3178     0.9992    -0.0000    -0.0042    14.4503    14.4999    -0.0496     1.7057     0.0000     1.0000     0.9500     0.0873     0.030
     63     0.8999     10.000   8761.000 212317.000     11.001    41.5367   -71.6128   -28.8725    -2.0107    -0.9782    25.0000     6.0000     6.0000    25.0000    25.0000     9.0000     7.0000    22.0000    -3.9970     0.0020    20.7317    41.4624     1.3178     0.9992    -0.0000    -0.0042    14.4503    14.4999    -0.0496     1.7057     0.0000     1.0000     0.8999     0.1092     0.030
     64     0.8499     10.000   8829.000 212635.000     11.017    41.5367   -71.6128   -28.8725    -2.0107    -0.9782    25.0000     6.0000     6.0000    25.0000    25.0000     9.0000     7.0000    22.0000    -3.9970     0.0020    20.7317    41.4624     1.3178     0.9992    -0.0000    -0.0042    14.4503    14.4999    -0.0496     1.7058     0.0000     1.0000     0.8499     0.1002     0.030
     65     0.7999     10.000   9132.000 213348.000     11.054    41.5367   -71.6128   -28.8725    -2.0107    -0.9782    25.0000     6.0000     6.0000    25.0000    25.0000     9.0000     7.0000    22.0000    -3.9970     0.0020    20.7317    41.4624     1.3178     0.9992    -0.0000    -0.0042    14.4503    14.4999    -0.0496     1.7059     0.0000     1.0000     0.7999     0.1002     0.030
     66     0.7499     10.000   9118.000 211785.000     10.973    41.5367   -71.6127   -28.8725    -2.0107    -0.9782    25.0000     6.0000     6.0000    25.0000    25.0000     9.0000     7.0000    22.0000    -3.9970     0.0020    20.7317    41.4624     1.3178     0.9992    -0.0000    -0.0042    14.4503    14.4999    -0.0496     1.7059     0.0000     1.0000     0.7499     0.0865     0.030
     67     0.6999     10.000   9135.000 211617.000     10.965    41.5367   -71.6127   -28.8725    -2.0107    -0.9782    25.0000     6.0000     6.0000    25.0000    25.0000     9.0000     7.0000    22.0000    -3.9970     0.0020    20.7317    41.4624     1.3178     0.9992    -0.0000    -0.0042    14.4503    14.4999    -0.0496     1.7059     0.0000     1.0000     0.6999     0.1083     0.030
     68     0.6500     10.000   9189.000 212643.000     11.018    41.5367   -71.6127   -28.8725    -2.0107    -0.9782    25.0000     6.0000     6.0000    25.0000    25.0000     9.0000     7.0000    22.0000    -3.9970     0.0020    20.7317    41.4624     1.3178     0.9992    -0.0000    -0.0042    14.4503    14.4998    -0.0496     1.7058     0.0000     1.0000     0.6500     0.1083     0.030
     69     0.6000     10.000   9226.000 212397.000     11.005    41.5367   -71.6127   -28.8725    -2.0107    -0.9782    25.0000     6.0000     6.0000    25.0000    25.0000     9.0000     7.0000    22.0000    -3.9970     0.0020    20.7317    41.4624     1.3178     0.9992    -0.0000    -0.0042    14.4503    14.4998    -0.0496     1.7059     0.0000     1.0000     0.5999     0.0873     0.030
     70     0.5499     10.000   9155.000 212690.000     11.020    41.5367   -71.6127   -28.8725    -2.0107    -0.9782    25.0000     6.0000     6.0000    25.0000    25.0000     9.0000     7.0000    22.0000    -3.9970     0.0020    20.7317    41.4624     1.3178     0.9992    -0.0000    -0.0042    14.4503    14.4999    -0.0496     1.7059     0.0000     1.0000     0.5499     0.0824     0.030
     71     0.5000     10.000   9295.000 213086.000     11.041    41.5367   -71.6127   -28.8725    -2.0107    -0.9782    25.0000     6.0000     6.0000    25.0000    25.0000     9.0000     7.0000    22.0000    -3.9970     0.0020    20.7317    41.4624     1.3178     0.9992    -0.0000    -0.0042    14.4503    14.4998    -0.0496     1.7059     0.0000     1.0000     0.5000     0.1075     0.030
     72     0.4500     10.000   9395.000 212909.000     11.032    41.5367   -71.6127   -28.8725    -2.0107    -0.9782    25.0000     6.0000     6.0000    25.0000    25.0000     9.0000     7.0000    22.0000    -3.9970     0.0020    20.7317    41.4624     1.3178     0.9992    -0.0000    -0.0042    14.4503    14.4998    -0.0496     1.7058     0.0000     1.0000     0.4500     0.0915     0.030
     73     0.4000     10.000   9313.000 212612.000     11.016    41.5367   -71.6127   -28.8725    -2.0107    -0.9782    25.0000     6.0000     6.0000    25.0000    25.0000     9.0000     7.0000    22.0000    -3.9970     0.0020    20.7317    41.4624     1.3178     0.9992    -0.0000    -0.0042    14.4503    14.4999    -0.0496     1.7059     0.0000     1.0000     0.4000     0.0915     0.030
     74     0.3500     10.000   9425.000 212580.000     11.015    41.5367   -71.6127   -28.8725    -2.0107    -0.9782    25.0000     6.0000     6.0000    25.0000    25.0000     9.0000     7.0000    22.0000    -3.9970     0.0020    20.7317    41.4624     1.3178     0.9992    -0.0000    -0.0042    14.4503    14.4999    -0.0496     1.7058     0.0000     1.0000     0.3500     0.0854     0.030
     75     0.3000     10.000   9463.000 211380.000     10.952    41.5367   -71.6127   -28.8725    -2.0107    -0.9782    25.0000     6.0000     6.0000    25.0000    25.0000     9.0000     7.0000    22.0000    -3.9970     0.0020    20.7317    41.4624     1.3178     0.9992    -0.0000    -0.0042    14.4503    14.4999    -0.0496     1.7059     0.0000     1.0000     0.3000     0.0846     0.030
     76     0.2499     10.000   9470.000 212232.000     10.996    41.5367   -71.6127   -28.8725    -2.0107    -0.9782    25.0000     6.0000     6.0000    25.0000    25.0000     9.0000     7.0000    22.0000    -3.9970     0.0020    20.7317    41.4624     1.3178     0.9992    -0.0000    -0.0042    14.4503    14.4999    -0.0496     1.7058     0.0000     1.0000     0.2499     0.1076     0.030
     77     0.2000     10.000   9640.000 211761.000     10.972    41.5367   -71.6127   -28.8725    -2.0107    -0.9782    25.0000     6.0000     6.0000    25.0000    25.0000     9.0000     7.0000    22.0000    -3.9970     0.0020    20.7317    41.4624     1.3178     0.9992    -0.0000    -0.0042    14.4503    14.4998    -0.0496     1.7058     0.0000     1.0000     0.2000     0.0935     0.030
     78     0.1499     10.000   9490.000 211828.000     10.976    41.5367   -71.6127   -28.8725    -2.0107    -0.9782    25.0000     6.0000     6.0000    25.0000    25.0000     9.0000     7.0000    22.0000    -3.9970     0.0020    20.7317    41.4624     1.3178     0.9992    -0.0000    -0.0042    14.4503    14.4999    -0.0496     1.7058     0.0000     1.0000     0.1499     0.0935     0.030
     79     0.1000     10.000   9398.000 211609.000     10.964    41.5367   -71.6127   -28.8725    -2.0107    -0.9782    25.0000     6.0000     6.0000    25.0000    25.0000     9.0000     7.0000    22.0000    -3.9970     0.0020    20.7317    41.4624     1.3178     0.9992    -0.0000    -0.0042    14.4503    14.4999    -0.0496     1.7059     0.0000     1.0000     0.1000     0.0869     0.030
     80     0.0500     10.000   9568.000 212676.000     11.019    41.5367   -71.6127   -28.8725    -2.0107    -0.9782    25.0000     6.0000     6.0000    25.0000    25.0000     9.0000     7.0000    22.0000    -3.9970     0.0020    20.7317    41.4624     1.3178     0.9992    -0.0000    -0.0042    14.4503    14.4999    -0.0496     1.7059     0.0000     1.0000     0.0500     0.0827     0.030
     81    -0.0001     10.000   9622.000 212060.000     10.988    41.5367   -71.6127   -28.8725    -2.0107    -0.9782    25.0000     6.0000     6.0000    25.0000    25.0000     9.0000     7.0000    22.0000    -3.9970     0.0020    20.7317    41.4624     1.3178     0.9992    -0.0000    -0.0042    14.4503    14.4998    -0.0496     1.7059     0.0000     1.0000    -0.0001     0.1348     0.030
# Sum of Counts = 558921
# Center of Mass = 1.754626+/-0.003678
# Full Width Half-Maximum = 2.370079+/-0.002799
# 8:42:57 AM  3/1/2025   scan completed.
