# scan = 24
# date = 2/28/2025
# time = 2:25:55 PM
# proposal = 34247
# experiment = Investigating the Transverse Field Ising Ferromagnet HoV6Sn6: A Rare Example of a Ferromagnetic Metal with a Quantum Critical Point?
# experiment_number = 1047
# command = scan slitb_tp 0 30 1 preset time 1
# builtin_command = scan slitb_tp 0 30 1 preset time 1
# users = Aashish Sapkota, Benjamin Ueland, Dhurba Jaishi, Fei Li, Rob McQueeney, Tianxiong Han, Bing Li
# local_contact = A. Aczel
# scan_title = optimize pre-sample and post-sample slits
# monochromator = PG002
# analyzer = Pg002
# sense = +-+
# collimation = 40-40-40-80
# samplename = HoV6Sn6 crystal
# sampletype = crystal
# samplemosaic = 30.000000
# latticeconstants = 5.458270,5.458270,9.088925,90.000000,90.000000,120.000000
# ubmatrix = 0.090317,0.052839,0.099386,0.191301,0.092769,-0.046942,-0.000778,0.182636,-0.004910
# mode = 0
# plane_normal = 0.041923,-0.015730,0.998990
# ubconf = UB28Feb2025_20212PM.ini
# preset_type = normal 
# preset_channel = time
# preset_value = 1.000000
# def_x = slitb_tp
# def_y = detector
# col_headers = 
#   Pt.   slitb_tp       time   detector    monitor        mcu         m2      mag_i         s1         s2        sgl        sgu   slitb_bt   slitb_lf   slitb_rt   slita_bt   slita_lf   slita_rt   slita_tp        stl        stu         a1         a2          q          h          k          l         ei         ef          e        vti     sample       temp persistent_field dr_tsample    dr_temp
      1     0.0000      1.000    204.000  21077.000      1.092    41.5367    -0.0000  -113.6168   -97.8250    -2.4025    -0.9020    25.0000    20.0000    20.0000    30.0000    20.0000    20.0000    30.0000    -3.9965     0.0020    20.7319    41.4626     3.9841     2.9974     0.0000    -0.0044    14.4503    14.4997    -0.0494     1.7690     0.0000     1.0000    -0.0003     1.2348     0.000
      2     1.0000      1.000    179.000  21034.000      1.090    41.5367     0.0000  -113.6168   -97.8250    -2.4025    -0.9020    25.0000    20.0000    20.0000    30.0000    20.0000    20.0000    30.0000    -3.9965     0.0020    20.7320    41.4626     3.9841     2.9974     0.0000    -0.0044    14.4503    14.4997    -0.0494     1.7695     0.0000     1.0000    -0.0003     1.2348     0.000
      3     2.0000      1.000    194.000  21059.000      1.091    41.5367    -0.0000  -113.6168   -97.8250    -2.4025    -0.9020    25.0000    20.0000    20.0000    30.0000    20.0000    20.0000    30.0000    -3.9965     0.0020    20.7320    41.4626     3.9841     2.9974     0.0000    -0.0044    14.4503    14.4997    -0.0494     1.7699     0.0000     1.0000    -0.0003     1.2348     0.000
      4     3.0000      1.000    176.000  21274.000      1.102    41.5367    -0.0000  -113.6168   -97.8250    -2.4025    -0.9020    25.0000    20.0000    20.0000    30.0000    20.0000    20.0000    30.0000    -3.9965     0.0020    20.7319    41.4626     3.9841     2.9974     0.0000    -0.0044    14.4503    14.4997    -0.0494     1.7703     0.0000     1.0000    -0.0003     1.2348     0.000
      5     4.0000      1.000    185.000  21258.000      1.101    41.5367    -0.0000  -113.6168   -97.8250    -2.4025    -0.9020    25.0000    20.0000    20.0000    30.0000    20.0000    20.0000    30.0000    -3.9965     0.0020    20.7320    41.4626     3.9841     2.9974     0.0000    -0.0044    14.4503    14.4997    -0.0494     1.7707     0.0000     1.0000    -0.0003     1.2348     0.000
      6     5.0000      1.000    200.000  21153.000      1.096    41.5367    -0.0000  -113.6168   -97.8250    -2.4025    -0.9020    25.0000    20.0000    20.0000    30.0000    20.0000    20.0000    30.0000    -3.9965     0.0020    20.7320    41.4626     3.9841     2.9974     0.0000    -0.0044    14.4503    14.4997    -0.0494     1.7712     0.0000     1.0000    -0.0003     1.2348     0.000
      7     6.0000      1.000    203.000  21242.000      1.101    41.5367    -0.0000  -113.6168   -97.8250    -2.4025    -0.9020    25.0000    20.0000    20.0000    30.0000    20.0000    20.0000    30.0000    -3.9965     0.0020    20.7320    41.4626     3.9841     2.9974     0.0000    -0.0044    14.4503    14.4997    -0.0494     1.7716     0.0000     1.0000    -0.0003     1.2348     0.000
      8     7.0000      1.000    229.000  21107.000      1.094    41.5367    -0.0000  -113.6168   -97.8250    -2.4025    -0.9020    25.0000    20.0000    20.0000    30.0000    20.0000    20.0000    30.0000    -3.9965     0.0020    20.7319    41.4626     3.9841     2.9974     0.0000    -0.0044    14.4503    14.4997    -0.0494     1.7721     0.0000     1.0000    -0.0003     1.2348     0.000
      9     8.0000      1.000    238.000  21036.000      1.090    41.5367    -0.0000  -113.6168   -97.8250    -2.4025    -0.9020    25.0000    20.0000    20.0000    30.0000    20.0000    20.0000    30.0000    -3.9965     0.0020    20.7319    41.4626     3.9841     2.9974     0.0000    -0.0044    14.4503    14.4997    -0.0494     1.7725     0.0000     1.0000    -0.0003     1.2348     0.000
     10     9.0000      1.000    245.000  21191.000      1.098    41.5367     0.0001  -113.6168   -97.8250    -2.4025    -0.9020    25.0000    20.0000    20.0000    30.0000    20.0000    20.0000    30.0000    -3.9965     0.0020    20.7319    41.4626     3.9841     2.9974     0.0000    -0.0044    14.4503    14.4997    -0.0494     1.7729     0.0000     1.0000    -0.0003     1.2348     0.000
     11    10.0000      1.000    242.000  21150.000      1.096    41.5367    -0.0000  -113.6168   -97.8250    -2.4025    -0.9020    25.0000    20.0000    20.0000    30.0000    20.0000    20.0000    30.0000    -3.9965     0.0020    20.7319    41.4626     3.9841     2.9974     0.0000    -0.0044    14.4503    14.4997    -0.0494     1.7733     0.0000     1.0000    -0.0003     1.2348     0.000
     12    11.0000      1.000    266.000  21195.000      1.098    41.5367     0.0000  -113.6168   -97.8250    -2.4025    -0.9020    25.0000    20.0000    20.0000    30.0000    20.0000    20.0000    30.0000    -3.9965     0.0020    20.7319    41.4626     3.9841     2.9974     0.0000    -0.0044    14.4503    14.4997    -0.0494     1.7736     0.0000     1.0000    -0.0003     1.2348     0.000
     13    12.0000      1.000    258.000  21432.000      1.110    41.5367    -0.0000  -113.6168   -97.8250    -2.4025    -0.9020    25.0000    20.0000    20.0000    30.0000    20.0000    20.0000    30.0000    -3.9965     0.0020    20.7319    41.4626     3.9841     2.9974     0.0000    -0.0044    14.4503    14.4997    -0.0494     1.7738     0.0000     1.0000    -0.0003     1.2348     0.000
     14    13.0000      1.000    252.000  21124.000      1.095    41.5367     0.0000  -113.6168   -97.8250    -2.4025    -0.9020    25.0000    20.0000    20.0000    30.0000    20.0000    20.0000    30.0000    -3.9965     0.0020    20.7320    41.4626     3.9841     2.9974     0.0000    -0.0044    14.4503    14.4997    -0.0494     1.7741     0.0000     1.0000    -0.0003     1.2348     0.000
     15    14.0000      1.000    283.000  21094.000      1.093    41.5367     0.0000  -113.6168   -97.8250    -2.4025    -0.9020    25.0000    20.0000    20.0000    30.0000    20.0000    20.0000    30.0000    -3.9965     0.0020    20.7320    41.4626     3.9841     2.9974     0.0000    -0.0044    14.4503    14.4997    -0.0494     1.7744     0.0000     1.0000    -0.0003     1.2348     0.000
     16    15.0000      1.000    262.000  21253.000      1.101    41.5367    -0.0000  -113.6168   -97.8250    -2.4025    -0.9020    25.0000    20.0000    20.0000    30.0000    20.0000    20.0000    30.0000    -3.9965     0.0020    20.7319    41.4626     3.9841     2.9974     0.0000    -0.0044    14.4503    14.4997    -0.0494     1.7746     0.0000     1.0000    -0.0003     1.2348     0.000
     17    16.0000      1.000    237.000  21202.000      1.099    41.5367     0.0000  -113.6168   -97.8250    -2.4025    -0.9020    25.0000    20.0000    20.0000    30.0000    20.0000    20.0000    30.0000    -3.9965     0.0020    20.7320    41.4626     3.9841     2.9974     0.0000    -0.0044    14.4503    14.4997    -0.0494     1.7749     0.0000     1.0000    -0.0003     1.2348     0.000
     18    17.0000      1.000    264.000  21177.000      1.097    41.5367     0.0000  -113.6168   -97.8250    -2.4025    -0.9020    25.0000    20.0000    20.0000    30.0000    20.0000    20.0000    30.0000    -3.9965     0.0020    20.7319    41.4626     3.9841     2.9974     0.0000    -0.0044    14.4503    14.4997    -0.0494     1.7751     0.0000     1.0000    -0.0003     1.1341     0.000
     19    18.0000      1.000    266.000  21505.000      1.114    41.5367     0.0000  -113.6168   -97.8250    -2.4025    -0.9020    25.0000    20.0000    20.0000    30.0000    20.0000    20.0000    30.0000    -3.9965     0.0020    20.7319    41.4626     3.9841     2.9974     0.0000    -0.0044    14.4503    14.4997    -0.0494     1.7753     0.0000     1.0000    -0.0003     1.1341     0.000
     20    19.0000      1.000    306.000  21117.000      1.094    41.5367     0.0000  -113.6168   -97.8250    -2.4025    -0.9020    25.0000    20.0000    20.0000    30.0000    20.0000    20.0000    30.0000    -3.9965     0.0020    20.7319    41.4626     3.9841     2.9974     0.0000    -0.0044    14.4503    14.4997    -0.0494     1.7755     0.0000     1.0000    -0.0003     1.1341     0.000
     21    20.0000      1.000    284.000  21256.000      1.101    41.5367    -0.0000  -113.6168   -97.8250    -2.4025    -0.9020    25.0000    20.0000    20.0000    30.0000    20.0000    20.0000    30.0000    -3.9965     0.0020    20.7319    41.4626     3.9841     2.9974     0.0000    -0.0044    14.4503    14.4997    -0.0494     1.7756     0.0000     1.0000    -0.0003     1.1341     0.000
     22    21.0000      1.000    291.000  21232.000      1.100    41.5367     0.0000  -113.6168   -97.8250    -2.4025    -0.9020    25.0000    20.0000    20.0000    30.0000    20.0000    20.0000    30.0000    -3.9965     0.0020    20.7320    41.4626     3.9841     2.9974     0.0000    -0.0044    14.4503    14.4997    -0.0494     1.7758     0.0000     1.0000    -0.0003     1.1341     0.000
     23    22.0000      1.000    286.000  21057.000      1.091    41.5367    -0.0000  -113.6168   -97.8250    -2.4025    -0.9020    25.0000    20.0000    20.0000    30.0000    20.0000    20.0000    30.0000    -3.9965     0.0020    20.7319    41.4626     3.9841     2.9974     0.0000    -0.0044    14.4503    14.4997    -0.0494     1.7759     0.0000     1.0000    -0.0003     1.1341     0.000
     24    23.0000      1.000    325.000  21192.000      1.098    41.5367    -0.0000  -113.6168   -97.8250    -2.4025    -0.9020    25.0000    20.0000    20.0000    30.0000    20.0000    20.0000    30.0000    -3.9965     0.0020    20.7320    41.4626     3.9841     2.9974     0.0000    -0.0044    14.4503    14.4997    -0.0494     1.7761     0.0000     1.0000    -0.0003     1.1341     0.000
     25    24.0000      1.000    367.000  21057.000      1.091    41.5367     0.0001  -113.6168   -97.8250    -2.4025    -0.9020    25.0000    20.0000    20.0000    30.0000    20.0000    20.0000    30.0000    -3.9965     0.0020    20.7320    41.4626     3.9841     2.9974     0.0000    -0.0044    14.4503    14.4997    -0.0494     1.7762     0.0000     1.0000    -0.0003     1.1341     0.000
     26    25.0000      1.000    322.000  21265.000      1.102    41.5367     0.0000  -113.6168   -97.8250    -2.4025    -0.9020    25.0000    20.0000    20.0000    30.0000    20.0000    20.0000    30.0000    -3.9965     0.0020    20.7320    41.4626     3.9841     2.9974     0.0000    -0.0044    14.4503    14.4997    -0.0494     1.7764     0.0000     1.0000    -0.0003     1.1341     0.000
     27    26.0000      1.000    316.000  21140.000      1.095    41.5367    -0.0000  -113.6168   -97.8250    -2.4025    -0.9020    25.0000    20.0000    20.0000    30.0000    20.0000    20.0000    30.0000    -3.9965     0.0020    20.7319    41.4626     3.9841     2.9974     0.0000    -0.0044    14.4503    14.4997    -0.0494     1.7765     0.0000     1.0000    -0.0003     1.1341     0.000
     28    27.0000      1.000    345.000  21057.000      1.091    41.5367    -0.0000  -113.6168   -97.8250    -2.4025    -0.9020    25.0000    20.0000    20.0000    30.0000    20.0000    20.0000    30.0000    -3.9965     0.0020    20.7320    41.4626     3.9841     2.9974     0.0000    -0.0044    14.4503    14.4997    -0.0494     1.7766     0.0000     1.0000    -0.0003     1.1341     0.000
     29    28.0000      1.000    351.000  21034.000      1.090    41.5367    -0.0000  -113.6168   -97.8250    -2.4025    -0.9020    25.0000    20.0000    20.0000    30.0000    20.0000    20.0000    30.0000    -3.9965     0.0020    20.7319    41.4626     3.9841     2.9974     0.0000    -0.0044    14.4503    14.4997    -0.0494     1.7768     0.0000     1.0000    -0.0003     1.1341     0.000
     30    29.0000      1.000    325.000  21011.000      1.089    41.5367    -0.0000  -113.6168   -97.8250    -2.4025    -0.9020    25.0000    20.0000    20.0000    30.0000    20.0000    20.0000    30.0000    -3.9965     0.0020    20.7319    41.4626     3.9841     2.9974     0.0000    -0.0044    14.4503    14.4997    -0.0494     1.7769     0.0000     1.0000    -0.0003     1.1341     0.000
     31    30.0000      1.000    327.000  20929.000      1.084    41.5367    -0.0000  -113.6168   -97.8250    -2.4025    -0.9020    25.0000    20.0000    20.0000    30.0000    20.0000    20.0000    30.0000    -3.9965     0.0020    20.7320    41.4626     3.9841     2.9974     0.0000    -0.0044    14.4503    14.4997    -0.0494     1.7771     0.0000     1.0000    -0.0003     1.1341     0.000
# Sum of Counts = 8228
# Center of Mass = 16.682912+/-0.277442
# Full Width Half-Maximum = 17.515959+/-0.191749
# 2:27:52 PM  2/28/2025   scan completed.
