# scan = 229
# date = 7/4/2021
# time = 12:12:04 PM
# proposal = 26411
# experiment = Phonon Dispersion and Linewidths in Zr-doped UO2
# experiment_number = 710
# command = scan h 0.4 k 0.4 l 3.6 e 47 34 0.5
# builtin_command = scan h 0.4 k 0.4 l 3.6 e 47 34 0.5
# users = Matt Bryan, Hao Ma, Michael Manley
# local_contact = Songxue Chi
# scan_title = HHH TO1 0 0 4 -->1 1 3 scan
# monochromator = PG002
# analyzer = Pg002
# sense = -+-
# collimation = 48-20-40-90
# samplename = Zr-doped UO2
# sampletype = crystal
# samplemosaic = 30.000000
# latticeconstants = 5.456668,5.456668,5.456668,90.000000,90.000000,90.000000
# ubmatrix = -0.127684,-0.131176,-0.008650,0.001105,0.010987,-0.182929,0.131456,-0.127504,-0.006864
# mode = 0
# plane_normal = 0.013473,-0.038127,0.999182
# ubconf = UB30Jun2021_12447PM.ini
# preset_type = normal 
# preset_channel = mcu
# preset_value = 120.000000
# def_x = e
# def_y = detector
# col_headers = 
#   Pt.          h          k          l          e       time   detector    monitor        mcu focal_length         m1         m2   mcrystal       marc     mtrans     mfocus         s1         s2        sgl        sgu        bbb        bbl        bbr        bbt        bab        bal        bar        bat        stl        stu         a1         a2          q         ei         ef active_output e-stop_status flow_status  over_temp furnace_rate sample_temp furnace_sp     vacuum vacuum_status working_sp
      1     0.4000     0.3999     3.6000    47.0030     95.791      6.000 235681.000    120.001    32.6044   -22.0860   -19.7615   120.1313     0.8294    -2.0000   -74.3791   -16.7474    48.4942    -0.7712    -2.1845    16.0000     6.0000     8.0000    14.0000    16.0000     8.0000     9.0000    16.0000     0.0000    -0.0100   159.4167   -41.1662     4.1962    61.7030    14.7000     0.0000     0.0000     1.0000    25.0437     5.0000    25.7308    30.0000     0.0000     0.0000    25.743
      2     0.4001     0.4000     3.6001    46.4997     92.631     13.000 235681.000    120.001    32.7373   -22.0860   -19.8434   120.1313     0.8294    -2.0000   -74.0426   -16.9521    48.9280    -0.7712    -2.1845    16.0000     6.0000     8.0000    14.0000    16.0000     8.0000     9.0000    16.0000     0.0000    -0.0100   159.4167   -41.1662     4.1963    61.1997    14.7000     0.0000     0.0000     1.0000    25.0290     5.0000    25.7321    30.0000     0.0000     0.0000    25.736
      3     0.4000     0.4000     3.6000    46.0002     91.522     11.000 235681.000    120.001    32.8719   -22.0860   -19.9257   120.1313     0.8294    -2.0000   -73.7050   -17.1550    49.3556    -0.7712    -2.1845    16.0000     6.0000     8.0000    14.0000    16.0000     8.0000     9.0000    16.0000     0.0000    -0.0100   159.4167   -41.1662     4.1962    60.7002    14.7000     0.0000     0.0000     1.0000    25.0349     5.0000    25.7293    30.0000     0.0000     0.0000    25.737
      4     0.4000     0.3999     3.6000    45.5003     90.732     13.000 235681.000    120.001    33.0081   -22.0860   -20.0091   120.1313     0.8294    -2.0000   -73.3664   -17.3575    49.7830    -0.7712    -2.1845    16.0000     6.0000     8.0000    14.0000    16.0000     8.0000     9.0000    16.0000     0.0000    -0.0100   159.4167   -41.1662     4.1961    60.2003    14.7000     0.0000     0.0000     1.0000    25.0348     5.0000    25.7345    30.0000     0.0000     0.0000    25.744
      5     0.4000     0.4000     3.5999    44.9986     90.338     12.000 235681.000    120.001    33.1461   -22.0860   -20.0939   120.1313     0.8294    -2.0000   -73.0266   -17.5576    50.2125    -0.7712    -2.1845    16.0000     6.0000     8.0000    14.0000    16.0000     8.0000     9.0000    16.0000     0.0000    -0.0100   159.4167   -41.1662     4.1961    59.6986    14.7000     0.0000     0.0000     1.0000    25.0356     5.0000    25.7327    30.0000     0.0000     0.0000    25.741
      6     0.4000     0.4000     3.6001    44.5018     90.156     14.000 235681.000    120.001    33.2857   -22.0860   -20.1789   120.1313     0.8294    -2.0000   -72.6858   -17.7569    50.6430    -0.7712    -2.1845    16.0000     6.0000     8.0000    14.0000    16.0000     8.0000     9.0000    16.0000     0.0000    -0.0100   159.4167   -41.1662     4.1962    59.2018    14.7000     0.0000     0.0000     1.0000    25.0289     5.0000    25.7329    30.0000     0.0000     0.0000    25.744
      7     0.4001     0.4000     3.6000    43.9990     90.559     12.000 235681.000    120.001    33.4272   -22.0860   -20.2660   120.1313     0.8294    -2.0000   -72.3439   -17.9544    51.0739    -0.7712    -2.1845    16.0000     6.0000     8.0000    14.0000    16.0000     8.0000     9.0000    16.0000     0.0000    -0.0100   159.4167   -41.1662     4.1962    58.6990    14.7000     0.0000     0.0000     1.0000    25.0424     5.0000    25.7360    30.0000     0.0000     0.0000    25.746
      8     0.4000     0.4000     3.6000    43.5002     90.797     12.000 235681.000    120.001    33.5705   -22.0860   -20.3536   120.1313     0.8294    -2.0000   -72.0008   -18.1510    51.5027    -0.7712    -2.1845    16.0000     6.0000     8.0000    14.0000    16.0000     8.0000     9.0000    16.0000     0.0000    -0.0100   159.4167   -41.1662     4.1962    58.2002    14.7000     0.0000     0.0000     1.0000    25.0416     5.0000    25.7360    30.0000     0.0000     0.0000    25.744
      9     0.4000     0.4000     3.6000    43.0001     91.179     10.000 235681.000    120.001    33.7156   -22.0860   -20.4426   120.1313     0.8294    -2.0000   -71.6566   -18.3460    51.9338    -0.7712    -2.1845    16.0000     6.0000     8.0000    14.0000    16.0000     8.0000     9.0000    16.0000     0.0000    -0.0100   159.4167   -41.1662     4.1962    57.7002    14.7000     0.0000     0.0000     1.0000    25.0268     5.0000    25.7324    30.0000     0.0000     0.0000    25.750
     10     0.4000     0.4000     3.5999    42.4991     92.460     12.000 235681.000    120.001    33.8626   -22.0860   -20.5329   120.1313     0.8294    -2.0000   -71.3112   -18.5400    52.3623    -0.7712    -2.1845    16.0000     6.0000     8.0000    14.0000    16.0000     8.0000     9.0000    16.0000     0.0000    -0.0100   159.4167   -41.1662     4.1961    57.1991    14.7000     0.0000     0.0000     1.0000    25.0293     5.0000    25.7288    30.0000     0.0000     0.0000    25.747
     11     0.4000     0.4000     3.5999    41.9997     92.633     13.000 235681.000    120.001    34.0116   -22.0860   -20.6241   120.1313     0.8294    -2.0000   -70.9646   -18.7325    52.7922    -0.7712    -2.1845    16.0000     6.0000     8.0000    14.0000    16.0000     8.0000     9.0000    16.0000     0.0000    -0.0100   159.4167   -41.1662     4.1961    56.6997    14.7000     0.0000     0.0000     1.0000    25.0383     5.0000    25.7371    30.0000     0.0000     0.0000    25.748
     12     0.4000     0.4000     3.6000    41.5013     93.995     10.000 235681.000    120.001    34.1626   -22.0860   -20.7163   120.1313     0.8294    -2.0000   -70.6168   -18.9232    53.2247    -0.7712    -2.1845    16.0000     6.0000     8.0000    14.0000    16.0000     8.0000     9.0000    16.0000     0.0000    -0.0100   159.4167   -41.1662     4.1962    56.2013    14.7000     0.0000     0.0000     1.0000    25.0314     5.0000    25.7338    30.0000     0.0000     0.0000    25.745
     13     0.4000     0.4000     3.6000    41.0003     94.811     12.000 235681.000    120.001    34.3156   -22.0860   -20.8103   120.1313     0.8294    -2.0000   -70.2678   -19.1133    53.6578    -0.7712    -2.1845    16.0000     6.0000     8.0000    14.0000    16.0000     8.0000     9.0000    16.0000     0.0000    -0.0100   159.4167   -41.1662     4.1962    55.7003    14.7000     0.0000     0.0000     1.0000    25.0373     5.0000    25.7317    30.0000     0.0000     0.0000    25.743
     14     0.4000     0.4000     3.6000    40.4995     95.339      8.000 235681.000    120.001    34.4706   -22.0860   -20.9056   120.1313     0.8294    -2.0000   -69.9176   -19.3023    54.0904    -0.7712    -2.1845    16.0000     6.0000     8.0000    14.0000    16.0000     8.0000     9.0000    16.0000     0.0000    -0.0100   159.4167   -41.1662     4.1962    55.1995    14.7000     0.0000     0.0000     1.0000    25.0405     5.0000    25.7404    30.0000     0.0000     0.0000    25.755
     15     0.4001     0.4000     3.6001    39.9994     96.341      6.000 235681.000    120.001    34.6278   -22.0860   -21.0020   120.1313     0.8294    -2.0000   -69.5662   -19.4887    54.5257    -0.7712    -2.1845    16.0000     6.0000     8.0000    14.0000    16.0000     8.0000     9.0000    16.0000     0.0000    -0.0100   159.4167   -41.1662     4.1962    54.6994    14.7000     0.0000     0.0000     1.0000    25.0451     5.0000    25.7328    30.0000     0.0000     0.0000    25.742
     16     0.4000     0.4000     3.6000    39.4996     96.508     12.000 235681.000    120.001    34.7872   -22.0860   -21.0997   120.1313     0.8294    -2.0000   -69.2134   -19.6750    54.9590    -0.7712    -2.1845    16.0000     6.0000     8.0000    14.0000    16.0000     8.0000     9.0000    16.0000     0.0000    -0.0100   159.4167   -41.1662     4.1962    54.1996    14.7000     0.0000     0.0000     1.0000    25.0339     5.0000    25.7335    30.0000     0.0000     0.0000    25.740
     17     0.4000     0.4000     3.6000    39.0003     96.625     12.000 235681.000    120.001    34.9487   -22.0860   -21.1987   120.1313     0.8294    -2.0000   -68.8594   -19.8600    55.3914    -0.7712    -2.1845    16.0000     6.0000     8.0000    14.0000    16.0000     8.0000     9.0000    16.0000     0.0000    -0.0100   159.4167   -41.1662     4.1961    53.7003    14.7000     0.0000     0.0000     1.0000    25.0404     5.0000    25.7290    30.0000     0.0000     0.0000    25.739
     18     0.4000     0.4000     3.6000    38.4998     97.762      6.000 235681.000    120.001    35.1126   -22.0860   -21.2993   120.1313     0.8294    -2.0000   -68.5041   -20.0433    55.8271    -0.7712    -2.1845    16.0000     6.0000     8.0000    14.0000    16.0000     8.0000     9.0000    16.0000     0.0000    -0.0100   159.4167   -41.1662     4.1961    53.1998    14.7000     0.0000     0.0000     1.0000    25.0452     5.0000    25.7290    30.0000     0.0000     0.0000    25.739
     19     0.4000     0.4000     3.6001    38.0010     98.943     11.000 235681.000    120.001    35.2788   -22.0860   -21.4011   120.1313     0.8294    -2.0000   -68.1475   -20.2254    56.2654    -0.7712    -2.1845    16.0000     6.0000     8.0000    14.0000    16.0000     8.0000     9.0000    16.0000     0.0000    -0.0100   159.4167   -41.1662     4.1962    52.7010    14.7000     0.0000     0.0000     1.0000    25.0494     5.0000    25.7328    30.0000     0.0000     0.0000    25.741
     20     0.4001     0.4000     3.6001    37.4996     99.476     11.000 235681.000    120.001    35.4473   -22.0860   -21.5048   120.1313     0.8294    -2.0000   -67.7895   -20.4060    56.7044    -0.7712    -2.1845    16.0000     6.0000     8.0000    14.0000    16.0000     8.0000     9.0000    16.0000     0.0000    -0.0100   159.4167   -41.1662     4.1962    52.1996    14.7000     0.0000     0.0000     1.0000    25.0469     5.0000    25.7263    30.0000     0.0000     0.0000    25.737
     21     0.4000     0.4000     3.6001    36.9995    100.380     10.000 235681.000    120.001    35.6183   -22.0860   -21.6099   120.1313     0.8294    -2.0000   -67.4302   -20.5859    57.1440    -0.7712    -2.1845    16.0000     6.0000     8.0000    14.0000    16.0000     8.0000     9.0000    16.0000     0.0000    -0.0100   159.4167   -41.1662     4.1962    51.6995    14.7000     0.0000     0.0000     1.0000    25.0396     5.0000    25.7410    30.0000     0.0000     0.0000    25.746
     22     0.4000     0.4000     3.6000    36.5003     99.873      7.000 235681.000    120.001    35.7918   -22.0860   -21.7162   120.1313     0.8294    -2.0000   -67.0695   -20.7644    57.5806    -0.7712    -2.1845    16.0000     6.0000     8.0000    14.0000    16.0000     8.0000     9.0000    16.0000     0.0000    -0.0100   159.4167   -41.1662     4.1961    51.2003    14.7000     0.0000     0.0000     1.0000    25.0388     5.0000    25.7341    30.0000     0.0000     0.0000    25.744
     23     0.4000     0.4000     3.5999    35.9997     97.750     13.000 235681.000    120.001    35.9679   -22.0860   -21.8245   120.1313     0.8294    -2.0000   -66.7074   -20.9411    58.0223    -0.7712    -2.1845    16.0000     6.0000     8.0000    14.0000    16.0000     8.0000     9.0000    16.0000     0.0000    -0.0100   159.4167   -41.1662     4.1961    50.6997    14.7000     0.0000     0.0000     1.0000    25.0503     5.0000    25.7321    30.0000     0.0000     0.0000    25.740
     24     0.4000     0.4000     3.6001    35.5010     94.816     10.000 235681.000    120.001    36.1466   -22.0860   -21.9339   120.1313     0.8294    -2.0000   -66.3439   -21.1170    58.4666    -0.7712    -2.1845    16.0000     6.0000     8.0000    14.0000    16.0000     8.0000     9.0000    16.0000     0.0000    -0.0100   159.4167   -41.1662     4.1962    50.2011    14.7000     0.0000     0.0000     1.0000    25.0465     5.0000    25.7287    30.0000     0.0000     0.0000    25.739
     25     0.4000     0.4000     3.6000    34.9996     91.337     12.000 235681.000    120.001    36.3279   -22.0860   -22.0457   120.1313     0.8294    -2.0000   -65.9790   -21.2911    58.9109    -0.7712    -2.1845    16.0000     6.0000     8.0000    14.0000    16.0000     8.0000     9.0000    16.0000     0.0000    -0.0100   159.4167   -41.1662     4.1962    49.6996    14.7000     0.0000     0.0000     1.0000    25.0322     5.0000    25.7322    30.0000     0.0000     0.0000    25.742
     26     0.4000     0.4000     3.6000    34.5009     88.308      8.000 235681.000    120.001    36.5121   -22.0860   -22.1586   120.1313     0.8294    -2.0000   -65.6125   -21.4646    59.3564    -0.7712    -2.1845    16.0000     6.0000     8.0000    14.0000    16.0000     8.0000     9.0000    16.0000     0.0000    -0.0100   159.4167   -41.1662     4.1962    49.2009    14.7000     0.0000     0.0000     1.0000    25.0230     5.0000    25.7274    30.0000     0.0000     0.0000    25.740
     27     0.4000     0.4000     3.5999    33.9994     86.321      8.000 235681.000    120.001    36.6990   -22.0860   -22.2738   120.1313     0.8294    -2.0000   -65.2446   -21.6361    59.8019    -0.7712    -2.1845    16.0000     6.0000     8.0000    14.0000    16.0000     8.0000     9.0000    16.0000     0.0000    -0.0100   159.4167   -41.1662     4.1960    48.6994    14.7000     0.0000     0.0000     1.0000    25.0241     5.0000    25.7351    30.0000     0.0000     0.0000    25.749
# Sum of Counts = 284
# Center of Mass = 40.753589+/-3.427579
# Full Width Half-Maximum = 7.695717+/-1.390746
# 12:57:55 PM  7/4/2021   scan completed.
