# scan = 276
# date = 7/5/2021
# time = 1:20:09 PM
# proposal = 26411
# experiment = Phonon Dispersion and Linewidths in Zr-doped UO2
# experiment_number = 710
# command = scan h 2.3 k 2.3 l 4.3 e 58 42 0.5
# builtin_command = scan h 2.3 k 2.3 l 4.3 e 58 42 0.5
# users = Matt Bryan, Hao Ma, Michael Manley
# local_contact = Songxue Chi
# scan_title = HHH LO1 2 2 4 -->3 3 5 scan
# monochromator = PG002
# analyzer = Pg002
# sense = -+-
# collimation = 48-20-40-90
# samplename = Zr-doped UO2
# sampletype = crystal
# samplemosaic = 30.000000
# latticeconstants = 5.456668,5.456668,5.456668,90.000000,90.000000,90.000000
# ubmatrix = -0.127684,-0.131176,-0.008650,0.001105,0.010987,-0.182929,0.131456,-0.127504,-0.006864
# mode = 0
# plane_normal = 0.013473,-0.038127,0.999182
# ubconf = UB30Jun2021_12447PM.ini
# preset_type = normal 
# preset_channel = mcu
# preset_value = 60.000000
# def_x = e
# def_y = detector
# col_headers = 
#   Pt.          h          k          l          e       time   detector    monitor        mcu focal_length         m1         m2   mcrystal       marc     mtrans     mfocus         s1         s2        sgl        sgu        bbb        bbl        bbr        bbt        bab        bal        bar        bat        stl        stu         a1         a2          q         ei         ef active_output e-stop_status flow_status  over_temp furnace_rate sample_temp furnace_sp     vacuum vacuum_status working_sp
      1     2.3000     2.3000     4.2999    58.0030     57.948      8.000 117841.000     60.001    32.3619   -22.0860   -18.1915   120.1313     0.8294    -2.0000   -75.0010    14.5869    83.3796    -0.7712    -2.1845    16.0000     6.0000     8.0000    14.0000    16.0000     8.0000     9.0000    16.0000     0.0000    -0.0100   159.4167   -41.1662     6.2083    72.7030    14.7000     0.0000     0.0000     1.0000    24.9538     5.0000    25.6596    30.0000     0.0000     0.0000    25.668
      2     2.3000     2.3000     4.2999    57.4991     57.424      6.000 117841.000     60.001    32.3619   -22.0860   -18.2554   120.1313     0.8294    -2.0000   -75.0010    14.5648    83.8015    -0.7712    -2.1845    16.0000     6.0000     8.0000    14.0000    16.0000     8.0000     9.0000    16.0000     0.0000    -0.0100   159.4167   -41.1662     6.2082    72.1991    14.7000     0.0000     0.0000     1.0000    24.9500     5.0000    25.6695    30.0000     0.0000     0.0000    25.675
      3     2.3000     2.3000     4.3000    56.9998     56.847      6.000 117841.000     60.001    32.3619   -22.0860   -18.3194   120.1313     0.8294    -2.0000   -75.0010    14.5435    84.2245    -0.7712    -2.1845    16.0000     6.0000     8.0000    14.0000    16.0000     8.0000     9.0000    16.0000     0.0000    -0.0100   159.4167   -41.1662     6.2083    71.6998    14.7000     0.0000     0.0000     1.0000    24.9616     5.0000    25.6628    30.0000     0.0000     0.0000    25.677
      4     2.3011     2.3010     4.2990    56.5023     56.424      3.000 117841.000     60.001    32.3619   -22.0860   -18.3838   120.1313     0.8294    -2.0000   -75.0010    14.5435    84.6509    -0.7712    -2.1845    16.0000     6.0000     8.0000    14.0000    16.0000     8.0000     9.0000    16.0000     0.0000    -0.0100   159.4167   -41.1662     6.2085    71.2023    14.7000     0.0000     0.0000     1.0000    24.9551     5.0000    25.6673    30.0000     0.0000     0.0000    25.675
      5     2.3000     2.3000     4.3000    55.9978     56.177      4.000 117841.000     60.001    32.3619   -22.0860   -18.4498   120.1313     0.8294    -2.0000   -75.0010    14.5062    85.0786    -0.7712    -2.1845    16.0000     6.0000     8.0000    14.0000    16.0000     8.0000     9.0000    16.0000     0.0000    -0.0100   159.4167   -41.1662     6.2083    70.6979    14.7000     0.0000     0.0000     1.0000    24.9540     5.0000    25.6604    30.0000     0.0000     0.0000    25.673
      6     2.3009     2.3009     4.2991    55.5017     55.195      6.000 117841.000     60.001    32.3619   -22.0860   -18.5155   120.1313     0.8294    -2.0000   -75.0010    14.5062    85.5068    -0.7712    -2.1845    16.0000     6.0000     8.0000    14.0000    16.0000     8.0000     9.0000    16.0000     0.0000    -0.0100   159.4167   -41.1662     6.2084    70.2017    14.7000     0.0000     0.0000     1.0000    24.9518     5.0000    25.6502    30.0000     0.0000     0.0000    25.663
      7     2.3000     2.3000     4.3000    54.9989     54.612      6.000 117841.000     60.001    32.3619   -22.0860   -18.5828   120.1313     0.8294    -2.0000   -75.0010    14.4736    85.9399    -0.7712    -2.1845    16.0000     6.0000     8.0000    14.0000    16.0000     8.0000     9.0000    16.0000     0.0000    -0.0100   159.4167   -41.1662     6.2083    69.6989    14.7000     0.0000     0.0000     1.0000    24.9460     5.0000    25.6661    30.0000     0.0000     0.0000    25.673
      8     2.3007     2.3007     4.2992    54.5008     53.780      1.000 117841.000     60.001    32.3619   -22.0860   -18.6501   120.1313     0.8294    -2.0000   -75.0010    14.4736    86.3739    -0.7712    -2.1845    16.0000     6.0000     8.0000    14.0000    16.0000     8.0000     9.0000    16.0000     0.0000    -0.0100   159.4167   -41.1662     6.2083    69.2008    14.7000     0.0000     0.0000     1.0000    24.9509     5.0000    25.6542    30.0000     0.0000     0.0000    25.666
      9     2.3000     2.3000     4.2999    53.9986     53.058      2.000 117841.000     60.001    32.3619   -22.0860   -18.7188   120.1313     0.8294    -2.0000   -75.0010    14.4478    86.8121    -0.7712    -2.1845    16.0000     6.0000     8.0000    14.0000    16.0000     8.0000     9.0000    16.0000     0.0000    -0.0100   159.4167   -41.1662     6.2082    68.6986    14.7000     0.0000     0.0000     1.0000    24.9519     5.0000    25.6587    30.0000     0.0000     0.0000    25.675
     10     2.3006     2.3006     4.2994    53.4997     52.396      7.000 117841.000     60.001    32.3619   -22.0860   -18.7877   120.1313     0.8294    -2.0000   -75.0010    14.4478    87.2552    -0.7712    -2.1845    16.0000     6.0000     8.0000    14.0000    16.0000     8.0000     9.0000    16.0000     0.0000    -0.0100   159.4167   -41.1662     6.2084    68.1997    14.7000     0.0000     0.0000     1.0000    24.9452     5.0000    25.6648    30.0000     0.0000     0.0000    25.675
     11     2.3000     2.3000     4.3001    53.0012     51.727      5.000 117841.000     60.001    32.3619   -22.0860   -18.8574   120.1313     0.8294    -2.0000   -75.0010    14.4276    87.6991    -0.7712    -2.1845    16.0000     6.0000     8.0000    14.0000    16.0000     8.0000     9.0000    16.0000     0.0000    -0.0100   159.4167   -41.1662     6.2084    67.7012    14.7000     0.0000     0.0000     1.0000    24.9480     5.0000    25.6567    30.0000     0.0000     0.0000    25.665
     12     2.3004     2.3004     4.2995    52.4989     51.322      3.000 117841.000     60.001    32.3619   -22.0860   -18.9284   120.1313     0.8294    -2.0000   -75.0010    14.4276    88.1467    -0.7712    -2.1845    16.0000     6.0000     8.0000    14.0000    16.0000     8.0000     9.0000    16.0000     0.0000    -0.0100   159.4167   -41.1662     6.2083    67.1989    14.7000     0.0000     0.0000     1.0000    24.9492     5.0000    25.6633    30.0000     0.0000     0.0000    25.668
     13     2.3007     2.3007     4.2992    51.9999     50.783      2.000 117841.000     60.001    32.3619   -22.0860   -18.9997   120.1313     0.8294    -2.0000   -75.0010    14.4276    88.5956    -0.7712    -2.1845    16.0000     6.0000     8.0000    14.0000    16.0000     8.0000     9.0000    16.0000     0.0000    -0.0100   159.4167   -41.1662     6.2083    66.6999    14.7000     0.0000     0.0000     1.0000    24.9516     5.0000    25.6612    30.0000     0.0000     0.0000    25.670
     14     2.3010     2.3010     4.2991    51.5037     50.739      5.000 117841.000     60.001    32.3619   -22.0860   -19.0714   120.1313     0.8294    -2.0000   -75.0010    14.4276    89.0517    -0.7712    -2.1845    16.0000     6.0000     8.0000    14.0000    16.0000     8.0000     9.0000    16.0000     0.0000    -0.0100   159.4167   -41.1662     6.2085    66.2038    14.7000     0.0000     0.0000     1.0000    24.9504     5.0000    25.6668    30.0000     0.0000     0.0000    25.662
     15     2.3000     2.3000     4.3000    50.9984     50.528      5.000 117841.000     60.001    32.3619   -22.0860   -19.1453   120.1313     0.8294    -2.0000   -75.0010    14.4069    89.5093    -0.7712    -2.1845    16.0000     6.0000     8.0000    14.0000    16.0000     8.0000     9.0000    16.0000     0.0000    -0.0100   159.4167   -41.1662     6.2083    65.6984    14.7000     0.0000     0.0000     1.0000    24.9470     5.0000    25.6668    30.0000     0.0000     0.0000    25.669
     16     2.3001     2.3001     4.2999    50.4994     50.508      5.000 117841.000     60.001    32.3619   -22.0860   -19.2191   120.1313     0.8294    -2.0000   -75.0010    14.4069    89.9686    -0.7712    -2.1845    16.0000     6.0000     8.0000    14.0000    16.0000     8.0000     9.0000    16.0000     0.0000    -0.0100   159.4167   -41.1662     6.2083    65.1994    14.7000     0.0000     0.0000     1.0000    24.9380     5.0000    25.6692    30.0000     0.0000     0.0000    25.676
     17     2.3000     2.3000     4.3000    50.0007     50.706      5.000 117841.000     60.001    32.3619   -22.0860   -19.2938   120.1313     0.8294    -2.0000   -75.0010    14.4069    90.4340    -0.7712    -2.1845    16.0000     6.0000     8.0000    14.0000    16.0000     8.0000     9.0000    16.0000     0.0000    -0.0100   159.4167   -41.1662     6.2084    64.7008    14.7000     0.0000     0.0000     1.0000    24.9502     5.0000    25.6627    30.0000     0.0000     0.0000    25.669
     18     2.3000     2.3000     4.3000    49.4992     50.448      3.000 117841.000     60.001    32.3619   -22.0860   -19.3697   120.1313     0.8294    -2.0000   -75.0010    14.4093    90.9019    -0.7712    -2.1845    16.0000     6.0000     8.0000    14.0000    16.0000     8.0000     9.0000    16.0000     0.0000    -0.0100   159.4167   -41.1662     6.2083    64.1992    14.7000     0.0000     0.0000     1.0000    24.9531     5.0000    25.6590    30.0000     0.0000     0.0000    25.668
     19     2.3000     2.3000     4.2999    48.9998     51.160      3.000 117841.000     60.001    32.3619   -22.0860   -19.4462   120.1313     0.8294    -2.0000   -75.0010    14.4136    91.3723    -0.7712    -2.1845    16.0000     6.0000     8.0000    14.0000    16.0000     8.0000     9.0000    16.0000     0.0000    -0.0100   159.4167   -41.1662     6.2083    63.6998    14.7000     0.0000     0.0000     1.0000    24.9501     5.0000    25.6546    30.0000     0.0000     0.0000    25.668
     20     2.3000     2.3000     4.3000    48.5009     51.304      3.000 117841.000     60.001    32.3619   -22.0860   -19.5236   120.1313     0.8294    -2.0000   -75.0010    14.4204    91.8495    -0.7712    -2.1845    16.0000     6.0000     8.0000    14.0000    16.0000     8.0000     9.0000    16.0000     0.0000    -0.0100   159.4167   -41.1662     6.2084    63.2009    14.7000     0.0000     0.0000     1.0000    24.9441     5.0000    25.6644    30.0000     0.0000     0.0000    25.663
     21     2.3000     2.3000     4.3001    48.0002     50.920      5.000 117841.000     60.001    32.3619   -22.0860   -19.6021   120.1313     0.8294    -2.0000   -75.0010    14.4281    92.3296    -0.7712    -2.1845    16.0000     6.0000     8.0000    14.0000    16.0000     8.0000     9.0000    16.0000     0.0000    -0.0100   159.4167   -41.1662     6.2084    62.7002    14.7000     0.0000     0.0000     1.0000    24.9519     5.0000    25.6523    30.0000     0.0000     0.0000    25.670
     22     2.3000     2.3000     4.2999    47.4995     49.439      8.000 117841.000     60.001    32.4731   -22.0860   -19.6817   120.1313     0.8294    -2.0000   -74.7146    14.4386    92.8113    -0.7712    -2.1845    16.0000     6.0000     8.0000    14.0000    16.0000     8.0000     9.0000    16.0000     0.0000    -0.0100   159.4167   -41.1662     6.2083    62.1995    14.7000     0.0000     0.0000     1.0000    24.9417     5.0000    25.6517    30.0000     0.0000     0.0000    25.665
     23     2.3000     2.3000     4.3000    47.0000     48.194      4.000 117841.000     60.001    32.6044   -22.0860   -19.7620   120.1313     0.8294    -2.0000   -74.3791    14.4511    93.3003    -0.7712    -2.1845    16.0000     6.0000     8.0000    14.0000    16.0000     8.0000     9.0000    16.0000     0.0000    -0.0100   159.4167   -41.1662     6.2084    61.7000    14.7000     0.0000     0.0000     1.0000    24.9512     5.0000    25.6541    30.0000     0.0000     0.0000    25.664
     24     2.3000     2.3000     4.2999    46.5000     47.077      6.000 117841.000     60.001    32.7373   -22.0860   -19.8433   120.1313     0.8294    -2.0000   -74.0426    14.4656    93.7897    -0.7712    -2.1845    16.0000     6.0000     8.0000    14.0000    16.0000     8.0000     9.0000    16.0000     0.0000    -0.0100   159.4167   -41.1662     6.2083    61.2000    14.7000     0.0000     0.0000     1.0000    24.9494     5.0000    25.6583    30.0000     0.0000     0.0000    25.674
     25     2.3000     2.3000     4.3000    45.9997     46.296      5.000 117841.000     60.001    32.8719   -22.0860   -19.9258   120.1313     0.8294    -2.0000   -73.7050    14.4820    94.2885    -0.7712    -2.1845    16.0000     6.0000     8.0000    14.0000    16.0000     8.0000     9.0000    16.0000     0.0000    -0.0100   159.4167   -41.1662     6.2083    60.6997    14.7000     0.0000     0.0000     1.0000    24.9431     5.0000    25.6589    30.0000     0.0000     0.0000    25.667
     26     2.3000     2.3000     4.2999    45.5009     45.736      7.000 117841.000     60.001    33.0081   -22.0860   -20.0090   120.1313     0.8294    -2.0000   -73.3664    14.5011    94.7871    -0.7712    -2.1845    16.0000     6.0000     8.0000    14.0000    16.0000     8.0000     9.0000    16.0000     0.0000    -0.0100   159.4167   -41.1662     6.2083    60.2009    14.7000     0.0000     0.0000     1.0000    24.9446     5.0000    25.6567    30.0000     0.0000     0.0000    25.667
     27     2.3000     2.3000     4.3000    44.9983     45.699      8.000 117841.000     60.001    33.1461   -22.0860   -20.0939   120.1313     0.8294    -2.0000   -73.0266    14.5219    95.2948    -0.7712    -2.1845    16.0000     6.0000     8.0000    14.0000    16.0000     8.0000     9.0000    16.0000     0.0000    -0.0100   159.4167   -41.1662     6.2083    59.6983    14.7000     0.0000     0.0000     1.0000    24.9534     5.0000    25.6699    30.0000     0.0000     0.0000    25.670
     28     2.3000     2.3000     4.3000    44.5018     45.376      9.000 117841.000     60.001    33.2857   -22.0860   -20.1789   120.1313     0.8294    -2.0000   -72.6858    14.5456    95.8034    -0.7712    -2.1845    16.0000     6.0000     8.0000    14.0000    16.0000     8.0000     9.0000    16.0000     0.0000    -0.0100   159.4167   -41.1662     6.2084    59.2018    14.7000     0.0000     0.0000     1.0000    24.9527     5.0000    25.6581    30.0000     0.0000     0.0000    25.671
     29     2.3000     2.3000     4.3000    43.9993     45.414      3.000 117841.000     60.001    33.4272   -22.0860   -20.2660   120.1313     0.8294    -2.0000   -72.3439    14.5713    96.3208    -0.7712    -2.1845    16.0000     6.0000     8.0000    14.0000    16.0000     8.0000     9.0000    16.0000     0.0000    -0.0100   159.4167   -41.1662     6.2084    58.6993    14.7000     0.0000     0.0000     1.0000    24.9542     5.0000    25.6448    30.0000     0.0000     0.0000    25.664
     30     2.3000     2.3000     4.3000    43.5002     45.930      7.000 117841.000     60.001    33.5705   -22.0860   -20.3536   120.1313     0.8294    -2.0000   -72.0008    14.5996    96.8393    -0.7712    -2.1845    16.0000     6.0000     8.0000    14.0000    16.0000     8.0000     9.0000    16.0000     0.0000    -0.0100   159.4167   -41.1662     6.2083    58.2002    14.7000     0.0000     0.0000     1.0000    24.9491     5.0000    25.6680    30.0000     0.0000     0.0000    25.673
     31     2.3000     2.3000     4.3000    43.0001     45.968     10.000 117841.000     60.001    33.7156   -22.0860   -20.4426   120.1313     0.8294    -2.0000   -71.6566    14.6304    97.3647    -0.7712    -2.1845    16.0000     6.0000     8.0000    14.0000    16.0000     8.0000     9.0000    16.0000     0.0000    -0.0100   159.4167   -41.1662     6.2083    57.7002    14.7000     0.0000     0.0000     1.0000    24.9565     5.0000    25.6641    30.0000     0.0000     0.0000    25.667
     32     2.3000     2.3000     4.3000    42.4991     46.344      9.000 117841.000     60.001    33.8626   -22.0860   -20.5329   120.1313     0.8294    -2.0000   -71.3112    14.6635    97.8964    -0.7712    -2.1845    16.0000     6.0000     8.0000    14.0000    16.0000     8.0000     9.0000    16.0000     0.0000    -0.0100   159.4167   -41.1662     6.2083    57.1991    14.7000     0.0000     0.0000     1.0000    24.9518     5.0000    25.6577    30.0000     0.0000     0.0000    25.659
     33     2.3000     2.3000     4.3000    41.9999     46.894      5.000 117841.000     60.001    34.0116   -22.0860   -20.6240   120.1313     0.8294    -2.0000   -70.9646    14.6999    98.4316    -0.7712    -2.1845    16.0000     6.0000     8.0000    14.0000    16.0000     8.0000     9.0000    16.0000     0.0000    -0.0100   159.4167   -41.1662     6.2083    56.6999    14.7000     0.0000     0.0000     1.0000    24.9525     5.0000    25.6585    30.0000     0.0000     0.0000    25.670
# Sum of Counts = 174
# Center of Mass = 49.321979+/-5.301899
# Full Width Half-Maximum = 10.168013+/-2.186386
# 1:52:26 PM  7/5/2021   scan completed.
