# scan = 191
# date = 7/3/2021
# time = 7:42:50 AM
# proposal = 26411
# experiment = Phonon Dispersion and Linewidths in Zr-doped UO2
# experiment_number = 710
# command = scan h 1 k 1 l 4.3 e 40 24 0.5
# builtin_command = scan h 1 k 1 l 4.3 e 40 24 0.5
# users = Matt Bryan, Hao Ma, Michael Manley
# local_contact = Songxue Chi
# scan_title = 00L LO1 1 1 5-->1 1 4 scan
# monochromator = PG002
# analyzer = Pg002
# sense = -+-
# collimation = 48-20-40-90
# samplename = Zr-doped UO2
# sampletype = crystal
# samplemosaic = 30.000000
# latticeconstants = 5.456668,5.456668,5.456668,90.000000,90.000000,90.000000
# ubmatrix = -0.127684,-0.131176,-0.008650,0.001105,0.010987,-0.182929,0.131456,-0.127504,-0.006864
# mode = 0
# plane_normal = 0.013473,-0.038127,0.999182
# ubconf = UB30Jun2021_12447PM.ini
# preset_type = normal 
# preset_channel = mcu
# preset_value = 120.000000
# def_x = e
# def_y = detector
# col_headers = 
#   Pt.          h          k          l          e       time   detector    monitor        mcu focal_length         m1         m2   mcrystal       marc     mtrans     mfocus         s1         s2        sgl        sgu        bbb        bbl        bbr        bbt        bab        bal        bar        bat        stl        stu         a1         a2          q         ei         ef active_output e-stop_status flow_status  over_temp furnace_rate sample_temp furnace_sp     vacuum vacuum_status working_sp
      1     1.0000     1.0000     4.3002    40.0022     95.472      9.000 235681.000    120.001    34.6278   -22.0860   -21.0015   120.1313     0.8294    -2.0000   -69.5662    -8.9025    76.6408    -0.7712    -2.1845    16.0000     6.0000     8.0000    14.0000    16.0000     8.0000     9.0000    16.0000     0.0000    -0.0100   159.4167   -41.1662     5.2124    54.7022    14.7000     0.0000     0.0000     1.0000    25.1849     5.0000    25.8732    30.0000     0.0000     0.0000    25.884
      2     1.0000     1.0000     4.3000    39.4993     96.344     16.000 235681.000    120.001    34.7872   -22.0860   -21.0998   120.1313     0.8294    -2.0000   -69.2134    -8.9634    77.0979    -0.7712    -2.1845    16.0000     6.0000     8.0000    14.0000    16.0000     8.0000     9.0000    16.0000     0.0000    -0.0100   159.4167   -41.1662     5.2122    54.1993    14.7000     0.0000     0.0000     1.0000    25.1993     5.0000    25.8734    30.0000     0.0000     0.0000    25.884
      3     1.0000     1.0000     4.3000    39.0003     96.902     11.000 235681.000    120.001    34.9487   -22.0860   -21.1987   120.1313     0.8294    -2.0000   -68.8594    -9.0234    77.5590    -0.7712    -2.1845    16.0000     6.0000     8.0000    14.0000    16.0000     8.0000     9.0000    16.0000     0.0000    -0.0100   159.4167   -41.1662     5.2122    53.7003    14.7000     0.0000     0.0000     1.0000    25.1822     5.0000    25.8748    30.0000     0.0000     0.0000    25.883
      4     1.0000     1.0000     4.3000    38.4998     97.231     15.000 235681.000    120.001    35.1126   -22.0860   -21.2993   120.1313     0.8294    -2.0000   -68.5041    -9.0816    78.0229    -0.7712    -2.1845    16.0000     6.0000     8.0000    14.0000    16.0000     8.0000     9.0000    16.0000     0.0000    -0.0100   159.4167   -41.1662     5.2122    53.1998    14.7000     0.0000     0.0000     1.0000    25.1867     5.0000    25.8781    30.0000     0.0000     0.0000    25.884
      5     1.0000     1.0000     4.3001    38.0010     98.631      9.000 235681.000    120.001    35.2788   -22.0860   -21.4011   120.1313     0.8294    -2.0000   -68.1475    -9.1375    78.4924    -0.7712    -2.1845    16.0000     6.0000     8.0000    14.0000    16.0000     8.0000     9.0000    16.0000     0.0000    -0.0100   159.4167   -41.1662     5.2123    52.7010    14.7000     0.0000     0.0000     1.0000    25.1924     5.0000    25.8719    30.0000     0.0000     0.0000    25.877
      6     1.0000     1.0000     4.3000    37.4996     99.974     13.000 235681.000    120.001    35.4473   -22.0860   -21.5048   120.1313     0.8294    -2.0000   -67.7895    -9.1921    78.9633    -0.7712    -2.1845    16.0000     6.0000     8.0000    14.0000    16.0000     8.0000     9.0000    16.0000     0.0000    -0.0100   159.4167   -41.1662     5.2122    52.1996    14.7000     0.0000     0.0000     1.0000    25.1809     5.0000    25.8686    30.0000     0.0000     0.0000    25.890
      7     1.0000     1.0000     4.3000    36.9995    100.601     14.000 235681.000    120.001    35.6183   -22.0860   -21.6099   120.1313     0.8294    -2.0000   -67.4302    -9.2444    79.4387    -0.7712    -2.1845    16.0000     6.0000     8.0000    14.0000    16.0000     8.0000     9.0000    16.0000     0.0000    -0.0100   159.4167   -41.1662     5.2122    51.6995    14.7000     0.0000     0.0000     1.0000    25.2023     5.0000    25.8839    30.0000     0.0000     0.0000    25.895
      8     1.0000     1.0000     4.3001    36.5003     99.500     11.000 235681.000    120.001    35.7918   -22.0860   -21.7162   120.1313     0.8294    -2.0000   -67.0695    -9.2954    79.9188    -0.7712    -2.1845    16.0000     6.0000     8.0000    14.0000    16.0000     8.0000     9.0000    16.0000     0.0000    -0.0100   159.4167   -41.1662     5.2123    51.2003    14.7000     0.0000     0.0000     1.0000    25.2030     5.0000    25.8819    30.0000     0.0000     0.0000    25.890
      9     1.0000     1.0000     4.2999    35.9995     97.153     15.000 235681.000    120.001    35.9679   -22.0860   -21.8245   120.1313     0.8294    -2.0000   -66.7074    -9.3441    80.3979    -0.7712    -2.1845    16.0000     6.0000     8.0000    14.0000    16.0000     8.0000     9.0000    16.0000     0.0000    -0.0100   159.4167   -41.1662     5.2121    50.6995    14.7000     0.0000     0.0000     1.0000    25.1947     5.0000    25.8890    30.0000     0.0000     0.0000    25.893
     10     1.0000     1.0000     4.3001    35.5015     94.298     16.000 235681.000    120.001    36.1466   -22.0860   -21.9338   120.1313     0.8294    -2.0000   -66.3439    -9.3909    80.8867    -0.7712    -2.1845    16.0000     6.0000     8.0000    14.0000    16.0000     8.0000     9.0000    16.0000     0.0000    -0.0100   159.4167   -41.1662     5.2123    50.2015    14.7000     0.0000     0.0000     1.0000    25.2095     5.0000    25.8870    30.0000     0.0000     0.0000    25.899
     11     1.0000     1.0000     4.2999    34.9992     90.790     18.000 235681.000    120.001    36.3279   -22.0860   -22.0458   120.1313     0.8294    -2.0000   -65.9790    -9.4355    81.3747    -0.7712    -2.1845    16.0000     6.0000     8.0000    14.0000    16.0000     8.0000     9.0000    16.0000     0.0000    -0.0100   159.4167   -41.1662     5.2121    49.6992    14.7000     0.0000     0.0000     1.0000    25.2087     5.0000    25.8755    30.0000     0.0000     0.0000    25.902
     12     1.0000     1.0000     4.3001    34.5011     87.880     14.000 235681.000    120.001    36.5121   -22.0860   -22.1585   120.1313     0.8294    -2.0000   -65.6125    -9.4784    81.8716    -0.7712    -2.1845    16.0000     6.0000     8.0000    14.0000    16.0000     8.0000     9.0000    16.0000     0.0000    -0.0100   159.4167   -41.1662     5.2123    49.2011    14.7000     0.0000     0.0000     1.0000    25.2017     5.0000    25.8940    30.0000     0.0000     0.0000    25.902
     13     1.0000     1.0000     4.2999    33.9990     85.442     15.000 235681.000    120.001    36.6990   -22.0860   -22.2739   120.1313     0.8294    -2.0000   -65.2446    -9.5189    82.3678    -0.7712    -2.1845    16.0000     6.0000     8.0000    14.0000    16.0000     8.0000     9.0000    16.0000     0.0000    -0.0100   159.4167   -41.1662     5.2121    48.6990    14.7000     0.0000     0.0000     1.0000    25.1987     5.0000    25.8818    30.0000     0.0000     0.0000    25.904
     14     1.0000     1.0000     4.3001    33.5007     84.742     20.000 235681.000    120.001    36.8889   -22.0860   -22.3902   120.1313     0.8294    -2.0000   -64.8752    -9.5572    82.8731    -0.7712    -2.1845    16.0000     6.0000     8.0000    14.0000    16.0000     8.0000     9.0000    16.0000     0.0000    -0.0100   159.4167   -41.1662     5.2123    48.2007    14.7000     0.0000     0.0000     1.0000    25.1939     5.0000    25.8892    30.0000     0.0000     0.0000    25.903
     15     1.0000     1.0000     4.2999    32.9994     84.411     13.000 235681.000    120.001    37.0817   -22.0860   -22.5091   120.1313     0.8294    -2.0000   -64.5042    -9.5930    83.3782    -0.7712    -2.1845    16.0000     6.0000     8.0000    14.0000    16.0000     8.0000     9.0000    16.0000     0.0000    -0.0100   159.4167   -41.1662     5.2121    47.6994    14.7000     0.0000     0.0000     1.0000    25.1924     5.0000    25.8735    30.0000     0.0000     0.0000    25.889
     16     1.0000     1.0000     4.3001    32.5007     85.264     20.000 235681.000    120.001    37.2776   -22.0860   -22.6292   120.1313     0.8294    -2.0000   -64.1317    -9.6269    83.8928    -0.7712    -2.1845    16.0000     6.0000     8.0000    14.0000    16.0000     8.0000     9.0000    16.0000     0.0000    -0.0100   159.4167   -41.1662     5.2123    47.2007    14.7000     0.0000     0.0000     1.0000    25.1920     5.0000    25.8867    30.0000     0.0000     0.0000    25.896
     17     1.0000     1.0000     4.2999    32.0000     85.474     21.000 235681.000    120.001    37.4766   -22.0860   -22.7519   120.1313     0.8294    -2.0000   -63.7576    -9.6579    84.4072    -0.7712    -2.1845    16.0000     6.0000     8.0000    14.0000    16.0000     8.0000     9.0000    16.0000     0.0000    -0.0100   159.4167   -41.1662     5.2122    46.7000    14.7000     0.0000     0.0000     1.0000    25.1923     5.0000    25.8844    30.0000     0.0000     0.0000    25.890
     18     1.0000     1.0000     4.3000    31.5000     85.255     20.000 235681.000    120.001    37.6789   -22.0860   -22.8763   120.1313     0.8294    -2.0000   -63.3819    -9.6870    84.9310    -0.7712    -2.1845    16.0000     6.0000     8.0000    14.0000    16.0000     8.0000     9.0000    16.0000     0.0000    -0.0100   159.4167   -41.1662     5.2123    46.2001    14.7000     0.0000     0.0000     1.0000    25.1907     5.0000    25.8869    30.0000     0.0000     0.0000    25.899
     19     1.0000     1.0000     4.3000    31.0000     84.303     14.000 235681.000    120.001    37.8844   -22.0860   -23.0028   120.1313     0.8294    -2.0000   -63.0045    -9.7129    85.4574    -0.7712    -2.1845    16.0000     6.0000     8.0000    14.0000    16.0000     8.0000     9.0000    16.0000     0.0000    -0.0100   159.4167   -41.1662     5.2122    45.7001    14.7000     0.0000     0.0000     1.0000    25.1860     5.0000    25.8872    30.0000     0.0000     0.0000    25.900
     20     1.0000     1.0000     4.2999    30.5004     83.212     26.000 235681.000    120.001    38.0934   -22.0860   -23.1313   120.1313     0.8294    -2.0000   -62.6255    -9.7365    85.9873    -0.7712    -2.1845    16.0000     6.0000     8.0000    14.0000    16.0000     8.0000     9.0000    16.0000     0.0000    -0.0100   159.4167   -41.1662     5.2122    45.2004    14.7000     0.0000     0.0000     1.0000    25.1918     5.0000    25.8837    30.0000     0.0000     0.0000    25.896
     21     1.0000     1.0000     4.3000    30.0005     81.051     21.000 235681.000    120.001    38.3059   -22.0860   -23.2621   120.1313     0.8294    -2.0000   -62.2448    -9.7576    86.5271    -0.7712    -2.1845    16.0000     6.0000     8.0000    14.0000    16.0000     8.0000     9.0000    16.0000     0.0000    -0.0100   159.4167   -41.1662     5.2123    44.7005    14.7000     0.0000     0.0000     1.0000    25.1977     5.0000    25.8845    30.0000     0.0000     0.0000    25.891
     22     1.0010     1.0009     4.2996    29.4998     80.496     19.000 235681.000    120.001    38.5219   -22.0860   -23.3953   120.1313     0.8294    -2.0000   -61.8623    -9.7576    87.0716    -0.7712    -2.1845    16.0000     6.0000     8.0000    14.0000    16.0000     8.0000     9.0000    16.0000     0.0000    -0.0100   159.4167   -41.1662     5.2123    44.1998    14.7000     0.0000     0.0000     1.0000    25.1879     5.0000    25.8783    30.0000     0.0000     0.0000    25.897
     23     1.0000     1.0000     4.3000    29.0002     80.806     12.000 235681.000    120.001    38.7417   -22.0860   -23.5306   120.1313     0.8294    -2.0000   -61.4781    -9.7904    87.6184    -0.7712    -2.1845    16.0000     6.0000     8.0000    14.0000    16.0000     8.0000     9.0000    16.0000     0.0000    -0.0100   159.4167   -41.1662     5.2122    43.7003    14.7000     0.0000     0.0000     1.0000    25.1821     5.0000    25.8824    30.0000     0.0000     0.0000    25.901
     24     1.0007     1.0006     4.2997    28.4998     81.837     12.000 235681.000    120.001    38.9652   -22.0860   -23.6684   120.1313     0.8294    -2.0000   -61.0922    -9.7904    88.1733    -0.7712    -2.1845    16.0000     6.0000     8.0000    14.0000    16.0000     8.0000     9.0000    16.0000     0.0000    -0.0100   159.4167   -41.1662     5.2122    43.1998    14.7000     0.0000     0.0000     1.0000    25.1836     5.0000    25.8721    30.0000     0.0000     0.0000    25.889
     25     1.0000     1.0000     4.3000    27.9997     81.660     12.000 235681.000    120.001    39.1927   -22.0860   -23.8087   120.1313     0.8294    -2.0000   -60.7044    -9.8119    88.7363    -0.7712    -2.1845    16.0000     6.0000     8.0000    14.0000    16.0000     8.0000     9.0000    16.0000     0.0000    -0.0100   159.4167   -41.1662     5.2123    42.6997    14.7000     0.0000     0.0000     1.0000    25.1932     5.0000    25.8779    30.0000     0.0000     0.0000    25.892
     26     1.0003     1.0003     4.2999    27.5002     81.268     14.000 235681.000    120.001    39.4242   -22.0860   -23.9512   120.1313     0.8294    -2.0000   -60.3147    -9.8119    89.3046    -0.7712    -2.1845    16.0000     6.0000     8.0000    14.0000    16.0000     8.0000     9.0000    16.0000     0.0000    -0.0100   159.4167   -41.1662     5.2123    42.2002    14.7000     0.0000     0.0000     1.0000    25.1908     5.0000    25.8756    30.0000     0.0000     0.0000    25.889
     27     1.0004     1.0004     4.2998    26.9999     79.701     14.000 235681.000    120.001    39.6598   -22.0860   -24.0966   120.1313     0.8294    -2.0000   -59.9232    -9.8119    89.8779    -0.7712    -2.1845    16.0000     6.0000     8.0000    14.0000    16.0000     8.0000     9.0000    16.0000     0.0000    -0.0100   159.4167   -41.1662     5.2122    41.6999    14.7000     0.0000     0.0000     1.0000    25.1750     5.0000    25.8774    30.0000     0.0000     0.0000    25.896
     28     1.0004     1.0003     4.2998    26.4999     77.132     18.000 235681.000    120.001    39.8998   -22.0860   -24.2446   120.1313     0.8294    -2.0000   -59.5297    -9.8119    90.4593    -0.7712    -2.1845    16.0000     6.0000     8.0000    14.0000    16.0000     8.0000     9.0000    16.0000     0.0000    -0.0100   159.4167   -41.1662     5.2122    41.1999    14.7000     0.0000     0.0000     1.0000    25.1885     5.0000    25.8876    30.0000     0.0000     0.0000    25.890
     29     1.0002     1.0001     4.2999    26.0000     74.893     18.000 235681.000    120.001    40.1441   -22.0860   -24.3953   120.1313     0.8294    -2.0000   -59.1343    -9.8119    91.0473    -0.7712    -2.1845    16.0000     6.0000     8.0000    14.0000    16.0000     8.0000     9.0000    16.0000     0.0000    -0.0100   159.4167   -41.1662     5.2122    40.7000    14.7000     0.0000     0.0000     1.0000    25.1865     5.0000    25.8866    30.0000     0.0000     0.0000    25.888
     30     1.0000     1.0000     4.3000    25.5007     73.740     16.000 235681.000    120.001    40.3930   -22.0860   -24.5487   120.1313     0.8294    -2.0000   -58.7370    -9.8057    91.6434    -0.7712    -2.1845    16.0000     6.0000     8.0000    14.0000    16.0000     8.0000     9.0000    16.0000     0.0000    -0.0100   159.4167   -41.1662     5.2123    40.2007    14.7000     0.0000     0.0000     1.0000    25.1862     5.0000    25.8766    30.0000     0.0000     0.0000    25.894
     31     1.0000     1.0000     4.3000    24.9997     73.269     19.000 235681.000    120.001    40.6465   -22.0860   -24.7055   120.1313     0.8294    -2.0000   -58.3375    -9.7935    92.2473    -0.7712    -2.1845    16.0000     6.0000     8.0000    14.0000    16.0000     8.0000     9.0000    16.0000     0.0000    -0.0100   159.4167   -41.1662     5.2122    39.6997    14.7000     0.0000     0.0000     1.0000    25.1860     5.0000    25.8812    30.0000     0.0000     0.0000    25.893
     32     1.0000     1.0000     4.3001    24.5004     73.217     17.000 235681.000    120.001    40.9049   -22.0860   -24.8649   120.1313     0.8294    -2.0000   -57.9360    -9.7776    92.8593    -0.7712    -2.1845    16.0000     6.0000     8.0000    14.0000    16.0000     8.0000     9.0000    16.0000     0.0000    -0.0100   159.4167   -41.1662     5.2123    39.2004    14.7000     0.0000     0.0000     1.0000    25.1757     5.0000    25.8758    30.0000     0.0000     0.0000    25.885
     33     1.0000     1.0000     4.3000    24.0002     74.281     28.000 235681.000    120.001    41.1683   -22.0860   -25.0276   120.1313     0.8294    -2.0000   -57.5324    -9.7574    93.4788    -0.7712    -2.1845    16.0000     6.0000     8.0000    14.0000    16.0000     8.0000     9.0000    16.0000     0.0000    -0.0100   159.4167   -41.1662     5.2123    38.7002    14.7000     0.0000     0.0000     1.0000    25.1758     5.0000    25.8788    30.0000     0.0000     0.0000    25.886
# Sum of Counts = 530
# Center of Mass = 31.419930+/-1.940667
# Full Width Half-Maximum = 9.307083+/-0.769223
# 8:34:48 AM  7/3/2021   scan completed.
