# scan = 3
# date = 4/16/2024
# time = 11:01:18 AM
# proposal = 32293
# experiment = Splitting of Excitations in a High-Spin Ising Ferromagnet
# experiment_number = 416
# command = scan bar 0 10 1 
# builtin_command = scan bar 0 10 1
# users = Aashish Sapkota, Benjamin Ueland, Dhurba Jaishi, Fei Li, Rob McQueeney, Tianxiong Han
# local_contact = Tao Hong and Bing Li
# scan_title = S2 scan while cooling
# monochromator = PG002
# analyzer = Pg002
# sense = -+-
# collimation = 48-40-40-120
# samplename = powder sample
# sampletype = crystal
# samplemosaic = 30.000000
# latticeconstants = 5.000000,5.000000,5.000000,90.000000,90.000000,90.000000
# ubmatrix = -0.141421,-0.141421,-0.000000,0.000000,0.000000,-0.200000,0.141421,-0.141421,0.000000
# mode = 0
# plane_normal = 0.000000,0.000000,1.000000
# ubconf = UB16Apr2024_93121AM.ini
# preset_type = normal 
# preset_channel = time
# preset_value = 30.000000
# def_x = bar
# def_y = detector
# col_headers = 
#   Pt.        bar       time   detector    monitor        mcu focal_length         m1         m2       marc     mtrans     mfocus         s1         s2        sgl        sgu        bbb        bbl        bbr        bbt        bab        bal        bat        stl        stu         a1         a2     afocus        qm1        qm2        qm3        qm4        qm5        qm6        qm7        qm8        xm1        xm2        xm3        xm4        xm5        xm6        xm7        xm8          q          h          k          l         ei         ef          e        vti     sample       temp dr_tsample    dr_temp
      1     0.0000     30.000    143.000  66848.000     30.385   115.2889   133.9046   -92.1908     0.4200    -1.0000    25.3800    -0.0100    63.4750     0.0000     0.0000     0.0000     0.0000     0.0000     0.0000    25.0000    15.0000    25.0000     0.0000     0.0000   133.9046   -92.1908     3.5000     0.0000     0.0000     0.0000     0.0000     0.0000     0.0000     0.0000     0.0000     0.0000     0.0000     0.0000     0.0000     0.0000     0.0000     0.0000     0.0000     1.3673     0.6543     0.6543     0.5725     3.5000     3.5000     0.0000    73.7725     0.0000    25.0000   176.0680     0.000
      2     1.0000     30.000    126.000  66808.000     30.367   115.2889   133.9046   -92.1908     0.4200    -1.0000    25.3800    -0.0100    63.4750     0.0000     0.0000     0.0000     0.0000     0.0000     0.0000    25.0000    15.0000    25.0000     0.0000     0.0000   133.9046   -92.1908     3.5000     0.0000     0.0000     0.0000     0.0000     0.0000     0.0000     0.0000     0.0000     0.0000     0.0000     0.0000     0.0000     0.0000     0.0000     0.0000     0.0000     1.3673     0.6543     0.6543     0.5725     3.5000     3.5000     0.0000    73.2252     0.0000    25.0000   171.8060     0.000
      3     2.0000     30.000    161.000  66797.000     30.362   115.2889   133.9046   -92.1908     0.4200    -1.0000    25.3800    -0.0100    63.4750     0.0000     0.0000     0.0000     0.0000     0.0000     0.0000    25.0000    15.0000    25.0000     0.0000     0.0000   133.9046   -92.1908     3.5000     0.0000     0.0000     0.0000     0.0000     0.0000     0.0000     0.0000     0.0000     0.0000     0.0000     0.0000     0.0000     0.0000     0.0000     0.0000     0.0000     1.3673     0.6543     0.6543     0.5725     3.5000     3.5000     0.0000    72.6809     0.0000    25.0000   171.8060     0.000
      4     3.0000     30.000    151.000  66846.000     30.385   115.2889   133.9046   -92.1908     0.4200    -1.0000    25.3800    -0.0100    63.4750     0.0000     0.0000     0.0000     0.0000     0.0000     0.0000    25.0000    15.0000    25.0000     0.0000     0.0000   133.9046   -92.1908     3.5000     0.0000     0.0000     0.0000     0.0000     0.0000     0.0000     0.0000     0.0000     0.0000     0.0000     0.0000     0.0000     0.0000     0.0000     0.0000     0.0000     1.3673     0.6543     0.6543     0.5725     3.5000     3.5000     0.0000    72.1403     0.0000    25.0000   166.5140     0.000
      5     4.0000     30.000    128.000  67050.000     30.477   115.2889   133.9046   -92.1908     0.4200    -1.0000    25.3800    -0.0100    63.4750     0.0000     0.0000     0.0000     0.0000     0.0000     0.0000    25.0000    15.0000    25.0000     0.0000     0.0000   133.9046   -92.1908     3.5000     0.0000     0.0000     0.0000     0.0000     0.0000     0.0000     0.0000     0.0000     0.0000     0.0000     0.0000     0.0000     0.0000     0.0000     0.0000     0.0000     1.3673     0.6543     0.6543     0.5725     3.5000     3.5000     0.0000    71.5933     0.0000    25.0000   166.5140     0.000
      6     5.0000     30.000    127.000  67344.000     30.611   115.2889   133.9046   -92.1908     0.4200    -1.0000    25.3800    -0.0100    63.4750     0.0000     0.0000     0.0000     0.0000     0.0000     0.0000    25.0000    15.0000    25.0000     0.0000     0.0000   133.9046   -92.1908     3.5000     0.0000     0.0000     0.0000     0.0000     0.0000     0.0000     0.0000     0.0000     0.0000     0.0000     0.0000     0.0000     0.0000     0.0000     0.0000     0.0000     1.3673     0.6543     0.6543     0.5725     3.5000     3.5000     0.0000    71.0523     0.0000    25.0000   168.6230     0.000
      7     6.0000     30.000    152.000  67261.000     30.573   115.2889   133.9046   -92.1908     0.4200    -1.0000    25.3800    -0.0100    63.4750     0.0000     0.0000     0.0000     0.0000     0.0000     0.0000    25.0000    15.0000    25.0000     0.0000     0.0000   133.9046   -92.1908     3.5000     0.0000     0.0000     0.0000     0.0000     0.0000     0.0000     0.0000     0.0000     0.0000     0.0000     0.0000     0.0000     0.0000     0.0000     0.0000     0.0000     1.3673     0.6543     0.6543     0.5725     3.5000     3.5000     0.0000    70.5090     0.0000    25.0000   164.7270     0.000
      8     7.0000     30.000    161.000  66923.000     30.420   115.2889   133.9046   -92.1908     0.4200    -1.0000    25.3800    -0.0100    63.4750     0.0000     0.0000     0.0000     0.0000     0.0000     0.0000    25.0000    15.0000    25.0000     0.0000     0.0000   133.9046   -92.1908     3.5000     0.0000     0.0000     0.0000     0.0000     0.0000     0.0000     0.0000     0.0000     0.0000     0.0000     0.0000     0.0000     0.0000     0.0000     0.0000     0.0000     1.3673     0.6543     0.6543     0.5725     3.5000     3.5000     0.0000    69.9607     0.0000    25.0000   164.7270     0.000
      9     8.0000     30.000    151.000  66945.000     30.430   115.2889   133.9046   -92.1908     0.4200    -1.0000    25.3800    -0.0100    63.4750     0.0000     0.0000     0.0000     0.0000     0.0000     0.0000    25.0000    15.0000    25.0000     0.0000     0.0000   133.9046   -92.1908     3.5000     0.0000     0.0000     0.0000     0.0000     0.0000     0.0000     0.0000     0.0000     0.0000     0.0000     0.0000     0.0000     0.0000     0.0000     0.0000     0.0000     1.3673     0.6543     0.6543     0.5725     3.5000     3.5000     0.0000    69.4198     0.0000    25.0000   160.6280     0.000
     10     9.0000     30.000    151.000  67427.000     30.649   115.2889   133.9046   -92.1908     0.4200    -1.0000    25.3800    -0.0100    63.4750     0.0000     0.0000     0.0000     0.0000     0.0000     0.0000    25.0000    15.0000    25.0000     0.0000     0.0000   133.9046   -92.1908     3.5000     0.0000     0.0000     0.0000     0.0000     0.0000     0.0000     0.0000     0.0000     0.0000     0.0000     0.0000     0.0000     0.0000     0.0000     0.0000     0.0000     1.3673     0.6543     0.6543     0.5725     3.5000     3.5000     0.0000    68.8700     0.0000    25.0000   160.6280     0.000
     11    10.0000     30.000    162.000  66826.000     30.375   115.2889   133.9046   -92.1908     0.4200    -1.0000    25.3800    -0.0100    63.4750     0.0000     0.0000     0.0000     0.0000     0.0000     0.0000    25.0000    15.0000    25.0000     0.0000     0.0000   133.9046   -92.1908     3.5000     0.0000     0.0000     0.0000     0.0000     0.0000     0.0000     0.0000     0.0000     0.0000     0.0000     0.0000     0.0000     0.0000     0.0000     0.0000     0.0000     1.3673     0.6543     0.6543     0.5725     3.5000     3.5000     0.0000    68.3177     0.0000    25.0000   160.6470     0.000
# Sum of Counts = 1613
# Center of Mass = 5.129572+/-0.197271
# Full Width Half-Maximum = 6.370639+/-0.178253
# 11:07:36 AM  4/16/2024   scan completed.
