# scan = 61
# date = 7/4/2024
# time = 2:57:48 AM
# proposal = 32124
# experiment = Investigation of Spin Waves and Magnetic Interactions in NiTiO3
# experiment_number = 424
# command = scan h 0+0.5 k 0+0.5 l 3.2 e 0.1 4 0.1 preset mcu 60
# builtin_command = scan h 0+0.5 k 0+0.5 l 3.2 e 0.1 4 0.1 preset mcu 60
# users = Armando Di Biase, John Schneeloch, Despina Louca, Rathnayaka Mudiyanselage Dilan Srimal Rathnayaka
# local_contact = Songxue Chi, Bing Li
# scan_title = HH3.2 scan new at Q=[0.5+0.5 0.5+0.5 3.2] 
# monochromator = PG002
# analyzer = Pg002
# sense = -+-
# collimation = 48-40-40-120
# samplename = NiTiO3
# sampletype = crystal
# samplemosaic = 30.000000
# latticeconstants = 5.034785,5.034785,13.812004,90.000000,90.000000,120.000000
# ubmatrix = -0.016965,-0.026212,-0.071913,-0.201388,-0.193307,0.007769,-0.108415,0.120600,-0.003178
# mode = 0
# plane_normal = -0.040320,0.035237,0.998565
# ubconf = UB02Jul2024_34030PM.ini
# preset_type = normal 
# preset_channel = mcu
# preset_value = 60.000000
# def_x = e
# def_y = detector
# col_headers = 
#   Pt.          h          k          l          e       time   detector    monitor        mcu focal_length         m1         m2       marc     mtrans     mfocus         s1         s2        sgl        sgu        bbb        bbl        bbr        bbt        bab        bal        bar        bat        stl        stu         a1         a2     afocus        qm1        qm2        qm3        qm4        qm5        qm6        qm7        qm8        xm1        xm2        xm3        xm4        xm5        xm6        xm7        xm8          q         ei         ef        vti     sample       temp     temp_2
# Thu, Jul 04, 2024 [3:01:53 AM] : SPICE Error in Common.lvlib:Common_Commands.lvlib:drive_motors.vi.
# s2 hit upper hardware limit 
# Thu, Jul 04, 2024 [3:02:56 AM] : SPICE Error in Common.lvlib:Common_Commands.lvlib:drive_motors.vi.
# s2 hit upper controller software limit 
      3     0.0188     0.0188    -0.0021     0.3000      0.000      0.000      0.000      0.000    95.4958   143.3539   -73.2922     0.4200    -1.0000    28.8600     5.0725     0.0000     2.3108     2.0210     0.0000     0.0000     0.0000     0.0000    24.0000     4.0000    12.0000    22.0000     0.0000     0.0000   142.0306   -75.9388     0.0000     0.0000     0.0000     0.0000     0.0000     0.0000     0.0000     0.0000     0.0000     0.0000     0.0000     0.0000     0.0000     0.0000     0.0000     0.0000     0.0000     0.0468     5.1000     4.8000     1.4405     1.4304     1.0000   120.000
# Sum of Counts = 0
# Center of Mass = NaN+/-NaN
# Full Width Half-Maximum = NaN+/-NaN
# 8:12:06 AM  7/4/2024   scan stopped!!
