# scan = 87
# date = 7/5/2024
# time = 1:25:02 PM
# proposal = 32124
# experiment = Investigation of Spin Waves and Magnetic Interactions in NiTiO3
# experiment_number = 424
# command = scan h 0+0.3 k 0+0.3 l 3.1 e 0.1 4 0.1 preset mcu 60
# builtin_command = scan h 0+0.3 k 0+0.3 l 3.1 e 0.1 4 0.1 preset mcu 60
# users = Armando Di Biase, John Schneeloch, Despina Louca, Rathnayaka Mudiyanselage Dilan Srimal Rathnayaka
# local_contact = Songxue Chi, Bing Li
# scan_title = HH2.9 scan new at Q=[0+0.5 0+0.5 2.9]
# monochromator = PG002
# analyzer = Pg002
# sense = -+-
# collimation = 48-40-40-120
# samplename = NiTiO3
# sampletype = crystal
# samplemosaic = 30.000000
# latticeconstants = 5.034785,5.034785,13.812004,90.000000,90.000000,120.000000
# ubmatrix = -0.016965,-0.026212,-0.071913,-0.201388,-0.193307,0.007769,-0.108415,0.120600,-0.003178
# mode = 0
# plane_normal = -0.040320,0.035237,0.998565
# ubconf = UB02Jul2024_34030PM.ini
# preset_type = normal 
# preset_channel = mcu
# preset_value = 60.000000
# def_x = e
# def_y = detector
# col_headers = 
#   Pt.          h          k          l          e       time   detector    monitor        mcu focal_length         m1         m2       marc     mtrans     mfocus         s1         s2        sgl        sgu        bbb        bbl        bbr        bbt        bab        bal        bar        bat        stl        stu         a1         a2     afocus        qm1        qm2        qm3        qm4        qm5        qm6        qm7        qm8        xm1        xm2        xm3        xm4        xm5        xm6        xm7        xm8          q         ei         ef        vti     sample       temp     temp_2
      1     0.3000     0.3000     3.0999     0.1000     61.825    518.000 144001.000     60.000    97.4378   142.4878   -75.0243     0.4200    -1.0000    28.4560    10.2125    62.9076     2.3108     2.0210     0.0000     0.0000     0.0000     0.0000    24.0000     4.0000    12.0000    22.0000     0.0000     0.0000   142.0306   -75.9388     0.0000     0.0000     0.0000     0.0000     0.0000     0.0000     0.0000     0.0000     0.0000     0.0000     0.0000     0.0000     0.0000     0.0000     0.0000     0.0000     0.0000     1.5967     4.9000     4.8000     1.4431     1.4326     1.0000   120.000
      2     0.3000     0.3000     3.1000     0.2000     65.528    207.000 144001.000     60.000    96.4474   142.9286   -74.1428     0.4200    -1.0000    28.6600    10.5125    62.5448     2.3108     2.0210     0.0000     0.0000     0.0000     0.0000    24.0000     4.0000    12.0000    22.0000     0.0000     0.0000   142.0306   -75.9388     0.0000     0.0000     0.0000     0.0000     0.0000     0.0000     0.0000     0.0000     0.0000     0.0000     0.0000     0.0000     0.0000     0.0000     0.0000     0.0000     0.0000     1.5967     5.0000     4.8000     1.4431     1.4325     1.0000   120.000
      3     0.3000     0.3000     3.1000     0.3000     67.257     52.000 144001.000     60.000    95.4958   143.3539   -73.2922     0.4200    -1.0000    28.8600    10.8100    62.1850     2.3108     2.0210     0.0000     0.0000     0.0000     0.0000    24.0000     4.0000    12.0000    22.0000     0.0000     0.0000   142.0306   -75.9388     0.0000     0.0000     0.0000     0.0000     0.0000     0.0000     0.0000     0.0000     0.0000     0.0000     0.0000     0.0000     0.0000     0.0000     0.0000     0.0000     0.0000     1.5967     5.1000     4.8000     1.4430     1.4311     1.0000   120.000
      4     0.3000     0.3000     3.1000     0.4000     65.471      6.000 144001.000     60.000    94.5813   143.7646   -72.4707     0.4200    -1.0000    29.0560    11.1050    61.8281     2.3108     2.0210     0.0000     0.0000     0.0000     0.0000    24.0000     4.0000    12.0000    22.0000     0.0000     0.0000   142.0306   -75.9388     0.0000     0.0000     0.0000     0.0000     0.0000     0.0000     0.0000     0.0000     0.0000     0.0000     0.0000     0.0000     0.0000     0.0000     0.0000     0.0000     0.0000     1.5967     5.2000     4.8000     1.4430     1.4333     1.0000   120.000
      5     0.3000     0.3000     3.1000     0.5000     64.288      2.000 144001.000     60.000    93.6841   144.1616   -71.6767     0.4200    -1.0000    29.2520    11.4000    61.4741     2.3108     2.0210     0.0000     0.0000     0.0000     0.0000    24.0000     4.0000    12.0000    22.0000     0.0000     0.0000   142.0306   -75.9388     0.0000     0.0000     0.0000     0.0000     0.0000     0.0000     0.0000     0.0000     0.0000     0.0000     0.0000     0.0000     0.0000     0.0000     0.0000     0.0000     0.0000     1.5967     5.3000     4.8000     1.4429     1.4314     1.0000   120.000
      6     0.3000     0.3000     3.1000     0.6000     65.469      1.000 144001.000     60.000    92.8037   144.5457   -70.9087     0.4200    -1.0000    29.4480    11.6925    61.1228     2.3108     2.0210     0.0000     0.0000     0.0000     0.0000    24.0000     4.0000    12.0000    22.0000     0.0000     0.0000   142.0306   -75.9388     0.0000     0.0000     0.0000     0.0000     0.0000     0.0000     0.0000     0.0000     0.0000     0.0000     0.0000     0.0000     0.0000     0.0000     0.0000     0.0000     0.0000     1.5967     5.4000     4.8000     1.4428     1.4327     1.0000   120.000
      7     0.3000     0.3000     3.1001     0.7000     65.442      1.000 144001.000     60.000    91.9572   144.9174   -70.1652     0.4200    -1.0000    29.6400    11.9875    60.7740     2.3108     2.0210     0.0000     0.0000     0.0000     0.0000    24.0000     4.0000    12.0000    22.0000     0.0000     0.0000   142.0306   -75.9388     0.0000     0.0000     0.0000     0.0000     0.0000     0.0000     0.0000     0.0000     0.0000     0.0000     0.0000     0.0000     0.0000     0.0000     0.0000     0.0000     0.0000     1.5967     5.5000     4.8000     1.4430     1.4326     1.0000   120.000
      8     0.3000     0.3000     3.1000     0.8000     64.774      4.000 144001.000     60.000    91.1432   145.2776   -69.4449     0.4200    -1.0000    29.8280    12.2775    60.4278     2.3108     2.0210     0.0000     0.0000     0.0000     0.0000    24.0000     4.0000    12.0000    22.0000     0.0000     0.0000   142.0306   -75.9388     0.0000     0.0000     0.0000     0.0000     0.0000     0.0000     0.0000     0.0000     0.0000     0.0000     0.0000     0.0000     0.0000     0.0000     0.0000     0.0000     0.0000     1.5967     5.6000     4.8000     1.4430     1.4318     1.0000   120.000
      9     0.3000     0.3000     3.1000     0.9000     63.390      0.000 144001.000     60.000    90.3266   145.6266   -68.7467     0.4200    -1.0000    30.0200    12.5650    60.0839     2.3108     2.0210     0.0000     0.0000     0.0000     0.0000    24.0000     4.0000    12.0000    22.0000     0.0000     0.0000   142.0306   -75.9388     0.0000     0.0000     0.0000     0.0000     0.0000     0.0000     0.0000     0.0000     0.0000     0.0000     0.0000     0.0000     0.0000     0.0000     0.0000     0.0000     0.0000     1.5967     5.7000     4.8000     1.4431     1.4320     1.0000   120.000
     10     0.3000     0.3000     3.1000     1.0000     62.161      1.000 144001.000     60.000    89.5577   145.9653   -68.0694     0.4200    -1.0000    30.2040    12.8550    59.7424     2.3108     2.0210     0.0000     0.0000     0.0000     0.0000    24.0000     4.0000    12.0000    22.0000     0.0000     0.0000   142.0306   -75.9388     0.0000     0.0000     0.0000     0.0000     0.0000     0.0000     0.0000     0.0000     0.0000     0.0000     0.0000     0.0000     0.0000     0.0000     0.0000     0.0000     0.0000     1.5967     5.8000     4.8000     1.4428     1.4312     1.0000   120.000
     11     0.3000     0.3000     3.1000     1.1000     61.784      1.000 144001.000     60.000    88.7854   146.2940   -67.4120     0.4200    -1.0000    30.3920    13.1425    59.4030     2.3108     2.0210     0.0000     0.0000     0.0000     0.0000    24.0000     4.0000    12.0000    22.0000     0.0000     0.0000   142.0306   -75.9388     0.0000     0.0000     0.0000     0.0000     0.0000     0.0000     0.0000     0.0000     0.0000     0.0000     0.0000     0.0000     0.0000     0.0000     0.0000     0.0000     0.0000     1.5967     5.9000     4.8000     1.4428     1.4330     1.0000   120.000
     12     0.3000     0.3000     3.1000     1.2000     61.547      1.000 144001.000     60.000    88.0424   146.6133   -66.7735     0.4200    -1.0000    30.5760    13.4300    59.0658     2.3108     2.0210     0.0000     0.0000     0.0000     0.0000    24.0000     4.0000    12.0000    22.0000     0.0000     0.0000   142.0306   -75.9388     0.0000     0.0000     0.0000     0.0000     0.0000     0.0000     0.0000     0.0000     0.0000     0.0000     0.0000     0.0000     0.0000     0.0000     0.0000     0.0000     0.0000     1.5967     6.0000     4.8000     1.4428     1.4307     1.0000   120.000
     13     0.3000     0.3000     3.1000     1.3000     61.852      1.000 144001.000     60.000    87.3274   146.9235   -66.1530     0.4200    -1.0000    30.7560    13.7150    58.7306     2.3108     2.0210     0.0000     0.0000     0.0000     0.0000    24.0000     4.0000    12.0000    22.0000     0.0000     0.0000   142.0306   -75.9388     0.0000     0.0000     0.0000     0.0000     0.0000     0.0000     0.0000     0.0000     0.0000     0.0000     0.0000     0.0000     0.0000     0.0000     0.0000     0.0000     0.0000     1.5967     6.1000     4.8000     1.4427     1.4314     1.0000   120.000
     14     0.3000     0.3000     3.1000     1.4000     63.449      3.000 144001.000     60.000    86.6085   147.2252   -65.5497     0.4200    -1.0000    30.9400    14.0000    58.3974     2.3108     2.0210     0.0000     0.0000     0.0000     0.0000    24.0000     4.0000    12.0000    22.0000     0.0000     0.0000   142.0306   -75.9388     0.0000     0.0000     0.0000     0.0000     0.0000     0.0000     0.0000     0.0000     0.0000     0.0000     0.0000     0.0000     0.0000     0.0000     0.0000     0.0000     0.0000     1.5967     6.2000     4.8000     1.4428     1.4314     1.0000   120.000
     15     0.3000     0.3000     3.1000     1.5000     64.753      0.000 144001.000     60.000    85.9166   147.5186   -64.9628     0.4200    -1.0000    31.1200    14.2825    58.0660     2.3108     2.0210     0.0000     0.0000     0.0000     0.0000    24.0000     4.0000    12.0000    22.0000     0.0000     0.0000   142.0306   -75.9388     0.0000     0.0000     0.0000     0.0000     0.0000     0.0000     0.0000     0.0000     0.0000     0.0000     0.0000     0.0000     0.0000     0.0000     0.0000     0.0000     0.0000     1.5967     6.3000     4.8000     1.4428     1.4321     1.0000   120.000
     16     0.3000     0.3000     3.1000     1.6000     65.686      0.000 144001.000     60.000    85.2506   147.8042   -64.3915     0.4200    -1.0000    31.2960    14.5650    57.7364     2.3108     2.0210     0.0000     0.0000     0.0000     0.0000    24.0000     4.0000    12.0000    22.0000     0.0000     0.0000   142.0306   -75.9388     0.0000     0.0000     0.0000     0.0000     0.0000     0.0000     0.0000     0.0000     0.0000     0.0000     0.0000     0.0000     0.0000     0.0000     0.0000     0.0000     0.0000     1.5967     6.4000     4.8000     1.4427     1.4316     1.0000   120.000
     17     0.3000     0.3000     3.1000     1.7000     66.423      3.000 144001.000     60.000    84.5949   148.0824   -63.8352     0.4200    -1.0000    31.4720    14.8475    57.4086     2.3108     2.0210     0.0000     0.0000     0.0000     0.0000    24.0000     4.0000    12.0000    22.0000     0.0000     0.0000   142.0306   -75.9388     0.0000     0.0000     0.0000     0.0000     0.0000     0.0000     0.0000     0.0000     0.0000     0.0000     0.0000     0.0000     0.0000     0.0000     0.0000     0.0000     0.0000     1.5967     6.5000     4.8000     1.4428     1.4309     1.0000   120.000
     18     0.3000     0.3000     3.1000     1.8000     66.683      1.000 144001.000     60.000    83.9492   148.3534   -63.2932     0.4200    -1.0000    31.6480    15.1300    57.0825     2.3108     2.0210     0.0000     0.0000     0.0000     0.0000    24.0000     4.0000    12.0000    22.0000     0.0000     0.0000   142.0306   -75.9388     0.0000     0.0000     0.0000     0.0000     0.0000     0.0000     0.0000     0.0000     0.0000     0.0000     0.0000     0.0000     0.0000     0.0000     0.0000     0.0000     0.0000     1.5967     6.6000     4.8000     1.4435     1.4324     1.0000   120.000
     19     0.3000     0.3000     3.1000     1.9000     67.279      2.000 144001.000     60.000    83.3132   148.6175   -62.7649     0.4200    -1.0000    31.8240    15.4100    56.7580     2.3108     2.0210     0.0000     0.0000     0.0000     0.0000    24.0000     4.0000    12.0000    22.0000     0.0000     0.0000   142.0306   -75.9388     0.0000     0.0000     0.0000     0.0000     0.0000     0.0000     0.0000     0.0000     0.0000     0.0000     0.0000     0.0000     0.0000     0.0000     0.0000     0.0000     0.0000     1.5967     6.7000     4.8000     1.4432     1.4307     1.0000   120.000
     20     0.3000     0.3000     3.1000     2.0000     67.830      3.000 144001.000     60.000    82.7010   148.8751   -62.2498     0.4200    -1.0000    31.9960    15.6900    56.4350     2.3108     2.0210     0.0000     0.0000     0.0000     0.0000    24.0000     4.0000    12.0000    22.0000     0.0000     0.0000   142.0306   -75.9388     0.0000     0.0000     0.0000     0.0000     0.0000     0.0000     0.0000     0.0000     0.0000     0.0000     0.0000     0.0000     0.0000     0.0000     0.0000     0.0000     0.0000     1.5967     6.8000     4.8000     1.4430     1.4317     1.0000   120.000
     21     0.3000     0.3000     3.1000     2.1000     68.411      1.000 144001.000     60.000    82.0977   149.1264   -61.7472     0.4200    -1.0000    32.1680    15.9700    56.1134     2.3108     2.0210     0.0000     0.0000     0.0000     0.0000    24.0000     4.0000    12.0000    22.0000     0.0000     0.0000   142.0306   -75.9388     0.0000     0.0000     0.0000     0.0000     0.0000     0.0000     0.0000     0.0000     0.0000     0.0000     0.0000     0.0000     0.0000     0.0000     0.0000     0.0000     0.0000     1.5967     6.9000     4.8000     1.4431     1.4316     1.0000   120.000
     22     0.3000     0.3000     3.1000     2.2000     69.303      2.000 144001.000     60.000    81.5169   149.3716   -61.2567     0.4200    -1.0000    32.3360    16.2475    55.7934     2.3108     2.0210     0.0000     0.0000     0.0000     0.0000    24.0000     4.0000    12.0000    22.0000     0.0000     0.0000   142.0306   -75.9388     0.0000     0.0000     0.0000     0.0000     0.0000     0.0000     0.0000     0.0000     0.0000     0.0000     0.0000     0.0000     0.0000     0.0000     0.0000     0.0000     0.0000     1.5967     7.0000     4.8000     1.4432     1.4303     1.0000   120.000
     23     0.3000     0.3000     3.1000     2.3000     70.154      0.000 144001.000     60.000    80.9442   149.6111   -60.7778     0.4200    -1.0000    32.5040    16.5250    55.4746     2.3108     2.0210     0.0000     0.0000     0.0000     0.0000    24.0000     4.0000    12.0000    22.0000     0.0000     0.0000   142.0306   -75.9388     0.0000     0.0000     0.0000     0.0000     0.0000     0.0000     0.0000     0.0000     0.0000     0.0000     0.0000     0.0000     0.0000     0.0000     0.0000     0.0000     0.0000     1.5967     7.1000     4.8000     1.4431     1.4318     1.0000   120.000
     24     0.3000     0.3000     3.1000     2.4000     71.345      2.000 144001.000     60.000    80.3795   149.8450   -60.3101     0.4200    -1.0000    32.6720    16.8025    55.1572     2.3108     2.0210     0.0000     0.0000     0.0000     0.0000    24.0000     4.0000    12.0000    22.0000     0.0000     0.0000   142.0306   -75.9388     0.0000     0.0000     0.0000     0.0000     0.0000     0.0000     0.0000     0.0000     0.0000     0.0000     0.0000     0.0000     0.0000     0.0000     0.0000     0.0000     0.0000     1.5967     7.2000     4.8000     1.4428     1.4318     1.0000   120.000
     25     0.3000     0.3000     3.1001     2.5000     71.939      1.000 144001.000     60.000    79.8227   150.0735   -59.8530     0.4200    -1.0000    32.8400    17.0850    54.8410     2.3108     2.0210     0.0000     0.0000     0.0000     0.0000    24.0000     4.0000    12.0000    22.0000     0.0000     0.0000   142.0306   -75.9388     0.0000     0.0000     0.0000     0.0000     0.0000     0.0000     0.0000     0.0000     0.0000     0.0000     0.0000     0.0000     0.0000     0.0000     0.0000     0.0000     0.0000     1.5967     7.3000     4.8000     1.4425     1.4309     1.0000   120.000
     26     0.3001     0.3001     3.0998     2.6000     72.520      0.000 144001.000     60.000    79.2865   150.2968   -59.4063     0.4200    -1.0000    33.0040    17.3500    54.5261     2.3108     2.0210     0.0000     0.0000     0.0000     0.0000    24.0000     4.0000    12.0000    22.0000     0.0000     0.0000   142.0306   -75.9388     0.0000     0.0000     0.0000     0.0000     0.0000     0.0000     0.0000     0.0000     0.0000     0.0000     0.0000     0.0000     0.0000     0.0000     0.0000     0.0000     0.0000     1.5967     7.4000     4.8000     1.4430     1.4304     1.0000   120.000
     27     0.3000     0.3000     3.1000     2.7000     72.740      3.000 144001.000     60.000    78.7446   150.5152   -58.9695     0.4200    -1.0000    33.1720    17.6325    54.2123     2.3108     2.0210     0.0000     0.0000     0.0000     0.0000    24.0000     4.0000    12.0000    22.0000     0.0000     0.0000   142.0306   -75.9388     0.0000     0.0000     0.0000     0.0000     0.0000     0.0000     0.0000     0.0000     0.0000     0.0000     0.0000     0.0000     0.0000     0.0000     0.0000     0.0000     0.0000     1.5967     7.5000     4.8000     1.4431     1.4315     1.0000   120.000
     28     0.3000     0.3000     3.1000     2.8000     73.197      1.000 144001.000     60.000    78.2354   150.7288   -58.5423     0.4200    -1.0000    33.3320    17.9075    53.8996     2.3108     2.0210     0.0000     0.0000     0.0000     0.0000    24.0000     4.0000    12.0000    22.0000     0.0000     0.0000   142.0306   -75.9388     0.0000     0.0000     0.0000     0.0000     0.0000     0.0000     0.0000     0.0000     0.0000     0.0000     0.0000     0.0000     0.0000     0.0000     0.0000     0.0000     0.0000     1.5967     7.6000     4.8000     1.4427     1.4306     1.0000   120.000
     29     0.3000     0.3000     3.1001     2.9000     73.614      5.000 144001.000     60.000    77.7202   150.9378   -58.1243     0.4200    -1.0000    33.4960    18.1850    53.5880     2.3108     2.0210     0.0000     0.0000     0.0000     0.0000    24.0000     4.0000    12.0000    22.0000     0.0000     0.0000   142.0306   -75.9388     0.0000     0.0000     0.0000     0.0000     0.0000     0.0000     0.0000     0.0000     0.0000     0.0000     0.0000     0.0000     0.0000     0.0000     0.0000     0.0000     0.0000     1.5967     7.7000     4.8000     1.4427     1.4320     1.0000   120.000
     30     0.3000     0.3000     3.1000     3.0000     73.439      5.000 144001.000     60.000    77.2241   151.1424   -57.7152     0.4200    -1.0000    33.6560    18.4575    53.2774     2.3108     2.0210     0.0000     0.0000     0.0000     0.0000    24.0000     4.0000    12.0000    22.0000     0.0000     0.0000   142.0306   -75.9388     0.0000     0.0000     0.0000     0.0000     0.0000     0.0000     0.0000     0.0000     0.0000     0.0000     0.0000     0.0000     0.0000     0.0000     0.0000     0.0000     0.0000     1.5967     7.8000     4.8000     1.4428     1.4303     1.0000   120.000
     31     0.3000     0.3000     3.1001     3.1000     73.475      4.000 144001.000     60.000    76.7343   151.3427   -57.3146     0.4200    -1.0000    33.8160    18.7325    52.9677     2.3108     2.0210     0.0000     0.0000     0.0000     0.0000    24.0000     4.0000    12.0000    22.0000     0.0000     0.0000   142.0306   -75.9388     0.0000     0.0000     0.0000     0.0000     0.0000     0.0000     0.0000     0.0000     0.0000     0.0000     0.0000     0.0000     0.0000     0.0000     0.0000     0.0000     0.0000     1.5967     7.9000     4.8000     1.4428     1.4313     1.0000   120.000
     32     0.3000     0.3000     3.1001     3.2000     73.513      4.000 144001.000     60.000    76.2507   151.5388   -56.9223     0.4200    -1.0000    33.9760    19.0050    52.6590     2.3108     2.0210     0.0000     0.0000     0.0000     0.0000    24.0000     4.0000    12.0000    22.0000     0.0000     0.0000   142.0306   -75.9388     0.0000     0.0000     0.0000     0.0000     0.0000     0.0000     0.0000     0.0000     0.0000     0.0000     0.0000     0.0000     0.0000     0.0000     0.0000     0.0000     0.0000     1.5967     8.0000     4.8000     1.4428     1.4307     1.0000   120.000
     33     0.3000     0.3000     3.1001     3.3000     74.309     30.000 144001.000     60.000    75.7731   151.7310   -56.5380     0.4200    -1.0000    34.1360    19.2800    52.3511     2.3108     2.0210     0.0000     0.0000     0.0000     0.0000    24.0000     4.0000    12.0000    22.0000     0.0000     0.0000   142.0306   -75.9388     0.0000     0.0000     0.0000     0.0000     0.0000     0.0000     0.0000     0.0000     0.0000     0.0000     0.0000     0.0000     0.0000     0.0000     0.0000     0.0000     0.0000     1.5967     8.1000     4.8000     1.4427     1.4319     1.0000   120.000
     34     0.3000     0.3000     3.1000     3.4000     74.393     54.000 144001.000     60.000    75.3132   151.9192   -56.1615     0.4200    -1.0000    34.2920    19.5500    52.0441     2.3108     2.0210     0.0000     0.0000     0.0000     0.0000    24.0000     4.0000    12.0000    22.0000     0.0000     0.0000   142.0306   -75.9388     0.0000     0.0000     0.0000     0.0000     0.0000     0.0000     0.0000     0.0000     0.0000     0.0000     0.0000     0.0000     0.0000     0.0000     0.0000     0.0000     0.0000     1.5967     8.2000     4.8000     1.4428     1.4302     1.0000   120.000
     35     0.3000     0.3000     3.1001     3.5000     74.535    105.000 144001.000     60.000    74.8588   152.1038   -55.7924     0.4200    -1.0000    34.4480    19.8250    51.7379     2.3108     2.0210     0.0000     0.0000     0.0000     0.0000    24.0000     4.0000    12.0000    22.0000     0.0000     0.0000   142.0306   -75.9388     0.0000     0.0000     0.0000     0.0000     0.0000     0.0000     0.0000     0.0000     0.0000     0.0000     0.0000     0.0000     0.0000     0.0000     0.0000     0.0000     0.0000     1.5967     8.3000     4.8000     1.4427     1.4308     1.0000   120.000
     36     0.3000     0.3000     3.1001     3.6000     74.771    132.000 144001.000     60.000    74.4099   152.2848   -55.4305     0.4200    -1.0000    34.6040    20.0950    51.4324     2.3108     2.0210     0.0000     0.0000     0.0000     0.0000    24.0000     4.0000    12.0000    22.0000     0.0000     0.0000   142.0306   -75.9388     0.0000     0.0000     0.0000     0.0000     0.0000     0.0000     0.0000     0.0000     0.0000     0.0000     0.0000     0.0000     0.0000     0.0000     0.0000     0.0000     0.0000     1.5967     8.4000     4.8000     1.4427     1.4311     1.0000   120.000
     37     0.3000     0.3000     3.1000     3.7000     74.919     85.000 144001.000     60.000    73.9777   152.4622   -55.0756     0.4200    -1.0000    34.7560    20.3650    51.1277     2.3108     2.0210     0.0000     0.0000     0.0000     0.0000    24.0000     4.0000    12.0000    22.0000     0.0000     0.0000   142.0306   -75.9388     0.0000     0.0000     0.0000     0.0000     0.0000     0.0000     0.0000     0.0000     0.0000     0.0000     0.0000     0.0000     0.0000     0.0000     0.0000     0.0000     0.0000     1.5967     8.5000     4.8000     1.4424     1.4308     1.0000   120.000
     38     0.3000     0.3000     3.1000     3.8000     74.507     34.000 144001.000     60.000    73.5392   152.6362   -54.7275     0.4200    -1.0000    34.9120    20.6375    50.8237     2.3108     2.0210     0.0000     0.0000     0.0000     0.0000    24.0000     4.0000    12.0000    22.0000     0.0000     0.0000   142.0306   -75.9388     0.0000     0.0000     0.0000     0.0000     0.0000     0.0000     0.0000     0.0000     0.0000     0.0000     0.0000     0.0000     0.0000     0.0000     0.0000     0.0000     0.0000     1.5967     8.6000     4.8000     1.4427     1.4316     1.0000   120.000
     39     0.3000     0.3000     3.1001     3.9000     75.179     14.000 144001.000     60.000    73.1170   152.8070   -54.3860     0.4200    -1.0000    35.0640    20.9100    50.5202     2.3108     2.0210     0.0000     0.0000     0.0000     0.0000    24.0000     4.0000    12.0000    22.0000     0.0000     0.0000   142.0306   -75.9388     0.0000     0.0000     0.0000     0.0000     0.0000     0.0000     0.0000     0.0000     0.0000     0.0000     0.0000     0.0000     0.0000     0.0000     0.0000     0.0000     0.0000     1.5967     8.7000     4.8000     1.4428     1.4299     1.0000   120.000
     40     0.3000     0.3000     3.1000     4.0000     75.054      2.000 144001.000     60.000    72.6996   152.9746   -54.0507     0.4200    -1.0000    35.2160    21.1800    50.2174     2.3108     2.0210     0.0000     0.0000     0.0000     0.0000    24.0000     4.0000    12.0000    22.0000     0.0000     0.0000   142.0306   -75.9388     0.0000     0.0000     0.0000     0.0000     0.0000     0.0000     0.0000     0.0000     0.0000     0.0000     0.0000     0.0000     0.0000     0.0000     0.0000     0.0000     0.0000     1.5967     8.8000     4.8000     1.4427     1.4314     1.0000   120.000
# Sum of Counts = 1291
# Center of Mass = 1.435476+/-0.072668
# Full Width Half-Maximum = 3.283937+/-0.090933
# 2:20:44 PM  7/5/2024   scan completed.
