# scan = 82
# date = 7/5/2024
# time = 9:39:57 AM
# proposal = 32124
# experiment = Investigation of Spin Waves and Magnetic Interactions in NiTiO3
# experiment_number = 424
# command = scan h 0+0.5 k 0+0.5 l 2.9 e 0.1 4 0.1 preset mcu 60
# builtin_command = scan h 0+0.5 k 0+0.5 l 2.9 e 0.1 4 0.1 preset mcu 60
# users = Armando Di Biase, John Schneeloch, Despina Louca, Rathnayaka Mudiyanselage Dilan Srimal Rathnayaka
# local_contact = Songxue Chi, Bing Li
# scan_title = HH2.9 scan new at Q=[0+0.5 0+0.5 2.9]
# monochromator = PG002
# analyzer = Pg002
# sense = -+-
# collimation = 48-40-40-120
# samplename = NiTiO3
# sampletype = crystal
# samplemosaic = 30.000000
# latticeconstants = 5.034785,5.034785,13.812004,90.000000,90.000000,120.000000
# ubmatrix = -0.016965,-0.026212,-0.071913,-0.201388,-0.193307,0.007769,-0.108415,0.120600,-0.003178
# mode = 0
# plane_normal = -0.040320,0.035237,0.998565
# ubconf = UB02Jul2024_34030PM.ini
# preset_type = normal 
# preset_channel = mcu
# preset_value = 60.000000
# def_x = e
# def_y = detector
# col_headers = 
#   Pt.          h          k          l          e       time   detector    monitor        mcu focal_length         m1         m2       marc     mtrans     mfocus         s1         s2        sgl        sgu        bbb        bbl        bbr        bbt        bab        bal        bar        bat        stl        stu         a1         a2     afocus        qm1        qm2        qm3        qm4        qm5        qm6        qm7        qm8        xm1        xm2        xm3        xm4        xm5        xm6        xm7        xm8          q         ei         ef        vti     sample       temp     temp_2
      1     0.5000     0.5000     2.9000     0.1000     62.237    511.000 144001.000     60.000    97.4378   142.4878   -75.0243     0.4200    -1.0000    28.4560    -0.3600    72.8099     2.3108     2.0210     0.0000     0.0000     0.0000     0.0000    24.0000     4.0000    12.0000    22.0000     0.0000     0.0000   142.0306   -75.9388     0.0000     0.0000     0.0000     0.0000     0.0000     0.0000     0.0000     0.0000     0.0000     0.0000     0.0000     0.0000     0.0000     0.0000     0.0000     0.0000     0.0000     1.8160     4.9000     4.8000     1.4398     1.4289     1.0000   120.000
      2     0.5000     0.5000     2.9001     0.2000     65.650    192.000 144001.000     60.000    96.4474   142.9286   -74.1428     0.4200    -1.0000    28.6600    -0.1750    72.3754     2.3108     2.0210     0.0000     0.0000     0.0000     0.0000    24.0000     4.0000    12.0000    22.0000     0.0000     0.0000   142.0306   -75.9388     0.0000     0.0000     0.0000     0.0000     0.0000     0.0000     0.0000     0.0000     0.0000     0.0000     0.0000     0.0000     0.0000     0.0000     0.0000     0.0000     0.0000     1.8160     5.0000     4.8000     1.4393     1.4283     1.0000   120.000
      3     0.5000     0.5000     2.9000     0.3000     67.569     37.000 144001.000     60.000    95.4958   143.3539   -73.2922     0.4200    -1.0000    28.8600     0.0050    71.9467     2.3108     2.0210     0.0000     0.0000     0.0000     0.0000    24.0000     4.0000    12.0000    22.0000     0.0000     0.0000   142.0306   -75.9388     0.0000     0.0000     0.0000     0.0000     0.0000     0.0000     0.0000     0.0000     0.0000     0.0000     0.0000     0.0000     0.0000     0.0000     0.0000     0.0000     0.0000     1.8160     5.1000     4.8000     1.4390     1.4275     1.0000   120.000
      4     0.5000     0.5000     2.9001     0.4000     65.598      9.000 144001.000     60.000    94.5813   143.7646   -72.4707     0.4200    -1.0000    29.0560     0.1900    71.5235     2.3108     2.0210     0.0000     0.0000     0.0000     0.0000    24.0000     4.0000    12.0000    22.0000     0.0000     0.0000   142.0306   -75.9388     0.0000     0.0000     0.0000     0.0000     0.0000     0.0000     0.0000     0.0000     0.0000     0.0000     0.0000     0.0000     0.0000     0.0000     0.0000     0.0000     0.0000     1.8160     5.2000     4.8000     1.4396     1.4290     1.0000   120.000
      5     0.5000     0.5000     2.9000     0.5000     64.449      3.000 144001.000     60.000    93.6841   144.1616   -71.6767     0.4200    -1.0000    29.2520     0.3725    71.1056     2.3108     2.0210     0.0000     0.0000     0.0000     0.0000    24.0000     4.0000    12.0000    22.0000     0.0000     0.0000   142.0306   -75.9388     0.0000     0.0000     0.0000     0.0000     0.0000     0.0000     0.0000     0.0000     0.0000     0.0000     0.0000     0.0000     0.0000     0.0000     0.0000     0.0000     0.0000     1.8160     5.3000     4.8000     1.4398     1.4287     1.0000   120.000
      6     0.5000     0.5000     2.9000     0.6000     65.649      3.000 144001.000     60.000    92.8037   144.5457   -70.9087     0.4200    -1.0000    29.4480     0.5575    70.6928     2.3108     2.0210     0.0000     0.0000     0.0000     0.0000    24.0000     4.0000    12.0000    22.0000     0.0000     0.0000   142.0306   -75.9388     0.0000     0.0000     0.0000     0.0000     0.0000     0.0000     0.0000     0.0000     0.0000     0.0000     0.0000     0.0000     0.0000     0.0000     0.0000     0.0000     0.0000     1.8160     5.4000     4.8000     1.4391     1.4276     1.0000   120.000
      7     0.5000     0.5000     2.9000     0.7000     65.684      4.000 144001.000     60.000    91.9572   144.9174   -70.1652     0.4200    -1.0000    29.6400     0.7450    70.2848     2.3108     2.0210     0.0000     0.0000     0.0000     0.0000    24.0000     4.0000    12.0000    22.0000     0.0000     0.0000   142.0306   -75.9388     0.0000     0.0000     0.0000     0.0000     0.0000     0.0000     0.0000     0.0000     0.0000     0.0000     0.0000     0.0000     0.0000     0.0000     0.0000     0.0000     0.0000     1.8160     5.5000     4.8000     1.4391     1.4272     1.0000   120.000
      8     0.5000     0.5000     2.9000     0.8000     64.805      2.000 144001.000     60.000    91.1432   145.2776   -69.4449     0.4200    -1.0000    29.8280     0.9325    69.8815     2.3108     2.0210     0.0000     0.0000     0.0000     0.0000    24.0000     4.0000    12.0000    22.0000     0.0000     0.0000   142.0306   -75.9388     0.0000     0.0000     0.0000     0.0000     0.0000     0.0000     0.0000     0.0000     0.0000     0.0000     0.0000     0.0000     0.0000     0.0000     0.0000     0.0000     0.0000     1.8160     5.6000     4.8000     1.4394     1.4284     1.0000   120.000
      9     0.5000     0.5000     2.9000     0.9000     63.849      1.000 144001.000     60.000    90.3266   145.6266   -68.7467     0.4200    -1.0000    30.0200     1.1200    69.4826     2.3108     2.0210     0.0000     0.0000     0.0000     0.0000    24.0000     4.0000    12.0000    22.0000     0.0000     0.0000   142.0306   -75.9388     0.0000     0.0000     0.0000     0.0000     0.0000     0.0000     0.0000     0.0000     0.0000     0.0000     0.0000     0.0000     0.0000     0.0000     0.0000     0.0000     0.0000     1.8160     5.7000     4.8000     1.4395     1.4277     1.0000   120.000
     10     0.5000     0.5000     2.9001     1.0000     62.383      0.000 144001.000     60.000    89.5577   145.9653   -68.0694     0.4200    -1.0000    30.2040     1.3100    69.0880     2.3108     2.0210     0.0000     0.0000     0.0000     0.0000    24.0000     4.0000    12.0000    22.0000     0.0000     0.0000   142.0306   -75.9388     0.0000     0.0000     0.0000     0.0000     0.0000     0.0000     0.0000     0.0000     0.0000     0.0000     0.0000     0.0000     0.0000     0.0000     0.0000     0.0000     0.0000     1.8160     5.8000     4.8000     1.4389     1.4275     1.0000   120.000
     11     0.5000     0.5000     2.9000     1.1000     61.799      1.000 144001.000     60.000    88.7854   146.2940   -67.4120     0.4200    -1.0000    30.3920     1.4975    68.6976     2.3108     2.0210     0.0000     0.0000     0.0000     0.0000    24.0000     4.0000    12.0000    22.0000     0.0000     0.0000   142.0306   -75.9388     0.0000     0.0000     0.0000     0.0000     0.0000     0.0000     0.0000     0.0000     0.0000     0.0000     0.0000     0.0000     0.0000     0.0000     0.0000     0.0000     0.0000     1.8160     5.9000     4.8000     1.4390     1.4283     1.0000   120.000
     12     0.5000     0.5000     2.9000     1.2000     61.416      0.000 144001.000     60.000    88.0424   146.6133   -66.7735     0.4200    -1.0000    30.5760     1.6875    68.3110     2.3108     2.0210     0.0000     0.0000     0.0000     0.0000    24.0000     4.0000    12.0000    22.0000     0.0000     0.0000   142.0306   -75.9388     0.0000     0.0000     0.0000     0.0000     0.0000     0.0000     0.0000     0.0000     0.0000     0.0000     0.0000     0.0000     0.0000     0.0000     0.0000     0.0000     0.0000     1.8160     6.0000     4.8000     1.4392     1.4288     1.0000   120.000
     13     0.5000     0.5000     2.9000     1.3000     61.976      3.000 144001.000     60.000    87.3274   146.9235   -66.1530     0.4200    -1.0000    30.7560     1.8775    67.9283     2.3108     2.0210     0.0000     0.0000     0.0000     0.0000    24.0000     4.0000    12.0000    22.0000     0.0000     0.0000   142.0306   -75.9388     0.0000     0.0000     0.0000     0.0000     0.0000     0.0000     0.0000     0.0000     0.0000     0.0000     0.0000     0.0000     0.0000     0.0000     0.0000     0.0000     0.0000     1.8160     6.1000     4.8000     1.4393     1.4291     1.0000   120.000
     14     0.5000     0.5000     2.9001     1.4000     63.727      0.000 144001.000     60.000    86.6085   147.2252   -65.5497     0.4200    -1.0000    30.9400     2.0700    67.5492     2.3108     2.0210     0.0000     0.0000     0.0000     0.0000    24.0000     4.0000    12.0000    22.0000     0.0000     0.0000   142.0306   -75.9388     0.0000     0.0000     0.0000     0.0000     0.0000     0.0000     0.0000     0.0000     0.0000     0.0000     0.0000     0.0000     0.0000     0.0000     0.0000     0.0000     0.0000     1.8160     6.2000     4.8000     1.4391     1.4276     1.0000   120.000
     15     0.5000     0.5000     2.8999     1.5000     64.754      1.000 144001.000     60.000    85.9166   147.5186   -64.9628     0.4200    -1.0000    31.1200     2.2575    67.1737     2.3108     2.0210     0.0000     0.0000     0.0000     0.0000    24.0000     4.0000    12.0000    22.0000     0.0000     0.0000   142.0306   -75.9388     0.0000     0.0000     0.0000     0.0000     0.0000     0.0000     0.0000     0.0000     0.0000     0.0000     0.0000     0.0000     0.0000     0.0000     0.0000     0.0000     0.0000     1.8160     6.3000     4.8000     1.4390     1.4268     1.0000   120.000
     16     0.5000     0.5000     2.9000     1.6000     66.158      1.000 144001.000     60.000    85.2506   147.8042   -64.3915     0.4200    -1.0000    31.2960     2.4500    66.8016     2.3108     2.0210     0.0000     0.0000     0.0000     0.0000    24.0000     4.0000    12.0000    22.0000     0.0000     0.0000   142.0306   -75.9388     0.0000     0.0000     0.0000     0.0000     0.0000     0.0000     0.0000     0.0000     0.0000     0.0000     0.0000     0.0000     0.0000     0.0000     0.0000     0.0000     0.0000     1.8160     6.4000     4.8000     1.4391     1.4281     1.0000   120.000
     17     0.5000     0.5000     2.9000     1.7000     66.031      1.000 144001.000     60.000    84.5949   148.0824   -63.8352     0.4200    -1.0000    31.4720     2.6425    66.4326     2.3108     2.0210     0.0000     0.0000     0.0000     0.0000    24.0000     4.0000    12.0000    22.0000     0.0000     0.0000   142.0306   -75.9388     0.0000     0.0000     0.0000     0.0000     0.0000     0.0000     0.0000     0.0000     0.0000     0.0000     0.0000     0.0000     0.0000     0.0000     0.0000     0.0000     0.0000     1.8160     6.5000     4.8000     1.4390     1.4277     1.0000   120.000
     18     0.5000     0.5000     2.9000     1.8000     66.656      0.000 144001.000     60.000    83.9492   148.3534   -63.2932     0.4200    -1.0000    31.6480     2.8350    66.0669     2.3108     2.0210     0.0000     0.0000     0.0000     0.0000    24.0000     4.0000    12.0000    22.0000     0.0000     0.0000   142.0306   -75.9388     0.0000     0.0000     0.0000     0.0000     0.0000     0.0000     0.0000     0.0000     0.0000     0.0000     0.0000     0.0000     0.0000     0.0000     0.0000     0.0000     0.0000     1.8160     6.6000     4.8000     1.4392     1.4281     1.0000   120.000
     19     0.5000     0.5000     2.9001     1.9000      0.000      0.000      0.000     60.000    83.3132   148.6175   -62.7649     0.4200    -1.0000    31.8240     3.0300    65.7042     2.3108     2.0210     0.0000     0.0000     0.0000     0.0000    24.0000     4.0000    12.0000    22.0000     0.0000     0.0000   142.0306   -75.9388     0.0000     0.0000     0.0000     0.0000     0.0000     0.0000     0.0000     0.0000     0.0000     0.0000     0.0000     0.0000     0.0000     0.0000     0.0000     0.0000     0.0000     1.8160     6.7000     4.8000     1.4390     1.4284     1.0000   120.000
# Sum of Counts = 769
# Center of Mass = 0.159428+/-0.009815
# Full Width Half-Maximum = 0.304916+/-0.039115
# 10:03:27 AM  7/5/2024   scan stopped!!
